time division length width area intensity CMx CMy
0 0 75.0996 13.9015 1044 76.4914 1114.25 545.753
1 0 79.0747 14.4041 1139 75.6567 1113.58 542.326
2 1 41.0202 11.4334 469 76.1173 1113.82 562.079
3 0 43.0322 12.0375 518 76.029 1113.34 561.425
4 0 42.0751 12.1212 510 75.8157 1113.34 560.618
5 0 43.0214 12.273 528 78.1496 1114.06 560.034
6 0 45.0325 12.169 548 78.5383 1113.79 560.296
7 0 49.016 12.9346 634 77.4558 1113.5 556.427
8 0 50.0506 12.9069 646 77.9118 1113.57 556.771
9 0 53.0993 12.0906 642 78.5576 1113.76 556.615
10 0 53.0996 13.7101 728 77.4231 1114.09 554.567
11 0 55.018 13.4138 738 78.0759 1114.01 554.104
12 0 58.0577 13.9861 812 77.1355 1114.41 553.491
13 0 60.0472 14.1222 848 77.02 1114.39 551.625
14 0 61.1165 13.9897 855 77.7988 1114.02 550.002
15 0 64.0297 13.7592 881 78.7299 1115.39 549.58
16 0 67.1353 13.3313 895 78.962 1115.57 548.678
17 0 70.2393 13.3686 939 79.4089 1115.36 547.304
18 0 72.082 13.9147 1003 78.7547 1115.44 545.136
19 0 73.0544 13.6747 999 79.4284 1115.31 545.164
20 0 78.1257 13.9519 1090 78.7486 1115.68 542.322
21 0 80.1362 13.1401 1053 79.812 1115.66 541.628
22 0 81.082 13.5665 1100 79.5918 1115.3 540.425
23 0 85.0949 13.5966 1157 79.331 1115.24 537.694
24 1 44.0428 12.4424 548 77.6223 1115.18 558.469
25 0 45.0252 12.0155 541 78.7893 1115.43 557.891
26 0 47.0601 12.7709 601 77.5491 1115.06 557.003
27 0 48.1352 12.8804 620 77.5355 1115.13 555.887
28 0 50.0955 12.6359 633 78.9479 1115.01 555.545
29 0 53.0135 12.3742 656 77.8552 1115.07 554.183
30 0 55.0948 13.2317 729 76.2675 1114.16 553.782
31 0 57.1363 13.3365 762 75.6969 1114.62 553.045
32 0 57.1862 13.0451 746 77.3499 1114.23 552.235
33 0 61.0731 12.6733 774 76.9238 1114.54 550.76
34 0 63.1648 13.5994 859 75.4086 1114.89 549.464
35 0 64.06 12.6912 813 77.4403 1114.52 549.216
36 0 67.1909 13.7072 921 75.5375 1114.9 547.708
37 0 70.2049 12.7769 897 76.6968 1114.96 547.123
38 1 34.1065 10.9656 374 76.7219 1115.48 562.492
39 0 38.156 10.5619 403 75.6228 1115.51 562.816
40 0 38.0516 11.537 439 76.2301 1115.6 560.838
41 0 39.0933 12.1504 475 75.1389 1115.96 559.575
42 0 40.0468 11.8861 476 75.0126 1115.84 560.607
43 0 41.1344 12.3498 508 75.2953 1115.89 558.049
44 0 44.1196 12.3075 543 74.628 1116.31 558.276
45 0 45.0532 12.0968 545 75.7339 1116.8 557.64
46 0 46.0475 12.8563 592 74.8497 1116.54 556.841
47 0 49.1275 12.9256 635 73.9984 1116.93 555.6
48 0 50.04 12.0903 605 76.1256 1116.92 554.764
49 0 50.0388 12.9499 648 76.0262 1117.4 552.864
50 0 52.0498 13.4487 700 74.6914 1117.16 554.413
51 0 55.1291 12.6975 700 75.4914 1116.84 554.233
52 0 56.0877 13.4076 752 74.734 1117.11 552.285
53 0 58.0773 13.2582 770 75.2857 1117.1 551.361
54 0 59.0562 13.5295 799 74.5557 1115.98 551.239
55 0 61.0817 14.2269 869 66.8032 1116.19 548.9
56 0 62.0732 13.6774 849 67.3168 1115.95 548.342
57 0 65.1987 13.3898 873 65.992 1116.3 547.597
58 0 65.0842 14.028 913 66.1139 1116.43 544.742
59 0 69.1638 13.7644 952 66.6261 1117.34 545.4
60 0 71.0497 13.6665 971 68.9454 1116.87 545.214
61 0 74.154 13.9979 1038 68.4634 1116.9 541.351
62 0 76.1271 13.6614 1040 69.5096 1116.88 540.66
63 1 37.0516 10.7418 398 70.3894 1116.56 560.246
64 0 40.0365 11.2897 452 69.0553 1116.35 558.825
65 0 41.0799 11.7089 481 69.5405 1116.44 556.871
66 0 41.113 11.7724 484 70.6054 1116.32 556.643
67 0 45.0249 13.1039 590 67.6881 1116.84 556.214
68 0 46.1406 12.657 584 69.1079 1117.91 554.829
69 0 46.1452 12.6774 585 68.8496 1118.42 555.274
70 0 47.0704 12.7044 598 69.1538 1118.1 553.692
71 0 50.1945 12.7504 640 68.3703 1118 554.217
72 0 51.103 13.6978 700 67.1529 1117.56 551.263
73 0 54.0818 12.8509 695 88.1324 1117.75 551.97
74 0 55.1624 12.9073 712 67.5632 1118.97 551.544
75 0 55.1621 12.6899 700 68.8457 1118.21 548.604
76 0 57.1246 13.1292 750 67.9347 1119.05 548.623
77 0 60.1099 13.4088 806 67.3834 1118.89 546.087
78 0 61.3212 13.8777 851 66.9553 1119.23 545.156
79 0 65.215 13.8618 904 66.8131 1118.91 544.21
80 0 66.1123 13.6435 902 68.082 1119.13 542.123
81 0 67.3012 13.5213 910 69.1484 1118.5 540.474
82 0 73.1169 14.1964 1038 66.9451 1118.75 537.411
83 0 75.2589 13.6595 1028 67.8589 1119.54 538.786
84 1 36.3332 12.0276 437 69.5423 1118.57 556.561
85 0 39.235 12.1575 477 68.4025 1119.18 555.281
86 0 40.2517 12.6454 509 67.1532 1119.26 554.806
87 0 40.1725 12.6455 508 67.0906 1119.31 554.274
88 0 42.0934 13.5651 571 66.69 1119.63 552.144
89 0 47.1851 12.949 611 65.9574 1120.39 550.912
90 0 46.0349 13.2725 611 66.8101 1120.56 549.632
91 0 48.1657 14.4501 696 65.3103 1121.47 549.079
92 0 51.2075 13.416 687 66.4061 1121.67 548.729
93 0 50.1204 13.9065 697 65.9813 1121.82 547.44
94 0 52.2172 13.7694 719 65.5633 1121.76 545.339
95 0 52.0828 14.2465 742 64.0027 1121.94 544.64
96 0 55.1647 13.6863 755 63.3457 1121.83 543.621
97 0 58.1773 14.7308 857 85.5496 1122.21 542.831
98 0 58.1477 14.8587 864 61.9757 1121.82 543.096
99 0 62.1426 14.5472 904 62.104 1121.52 541.812
100 0 64.1311 15.1876 974 62.9045 1121.48 540.943
101 0 65.0687 14.1082 918 66.5196 1121.49 538.806
102 0 67.0856 14.3101 960 67.3146 1121.78 537.744
103 0 70.0677 14.8999 1044 63.5565 1121.75 536.898
104 0 72.2351 16.0448 1159 63.6255 1122.05 536.119
105 0 73.4749 15.5563 1143 66.4357 1121.8 533.306
106 0 77.2699 14.4558 1117 67.9687 1122.47 533.183
107 0 80.1358 14.2882 1145 68.5109 1122.36 532.214
108 0 82.3292 14.5878 1201 68.6303 1122.23 530.506
109 1 39.0605 12.2374 478 70.9958 1122.54 551.778
110 0 42.0581 12.6492 532 70.6372 1122.21 551.105
111 0 44.084 12.9299 570 70.9263 1121.89 548.339
112 0 43.0654 14.1877 611 70.0442 1121.72 547.84
113 0 48.0365 13.6563 656 68.8613 1121.66 547.78
114 0 46.0991 14.2085 655 69.7328 1121.78 545.728
115 0 50.0708 13.9203 697 68.3529 1121.49 545.97
116 0 49.0648 14.6949 721 68.7767 1121.83 545.331
117 0 51.0913 15.0124 767 67.5841 1121.7 543.966
118 0 53.0643 14.2092 754 68.1963 1122.08 544.143
119 0 55.1561 14.7944 816 67.0809 1121.42 542.123
120 0 57.2098 14.7352 843 67.3416 1121.56 541.422
121 0 59.141 15.1164 894 66.5369 1121.77 541.087
122 0 61.0584 15.1822 927 66.5912 1121.13 539.102
123 0 63.1483 14.8381 937 66.9936 1121.35 538.191
124 0 65.1505 14.7044 958 66.6159 1121.38 537.635
125 0 69.1968 15.4342 1068 65.2257 1121.43 537.141
126 0 69.1731 14.2541 986 67.6349 1121.63 536.391
127 0 72.1011 15.298 1103 66.68 1122 533.869
128 0 74.168 15.8289 1174 65.8612 1121.76 533.184
129 0 76.0458 15.346 1167 66.7335 1121.23 532.406
130 0 81.1079 15.7568 1278 65.5086 1121.18 530.994
131 0 83.1644 15.1387 1259 67.1803 1120.38 528.504
132 1 40.0378 13.5622 543 69.6667 1120.68 548.983
133 0 41.0503 14.5918 599 69.2454 1120.92 548.573
134 0 44.1812 13.8294 611 69.9705 1120.56 547.669
135 0 46.1781 15.9166 735 66.9796 1120.32 546.196
136 0 47.1386 15.9105 750 67.1213 1120.44 546.711
137 0 48.1009 15.3428 738 67.9566 1120.09 546.294
138 0 48.1728 15.8388 763 68.2896 1120.14 545.157
139 0 50.2878 15.809 795 68.4377 1120.06 544.22
140 0 53.1513 15.7663 838 68.3568 1120.11 542.729
141 0 55.2244 15.8626 876 68.3333 1120.01 541.676
142 0 57.3042 15.4264 884 69.3744 1120.3 541.7
143 0 59.4284 15.5313 923 68.9599 1120.14 540.346
144 0 61.1784 15.2178 931 70.334 1120.15 539.03
145 0 62.389 16.0124 999 69.5175 1120.1 538.79
146 0 66.2811 15.6606 1038 69.8613 1120.33 537.329
147 0 68.409 15.4366 1056 70.0549 1120.35 536.586
148 0 70.4443 15.2887 1077 70.6481 1119.78 535.747
149 0 74.8332 15.7417 1178 69.3956 1120.3 535.076
150 0 77.4993 15.5098 1202 70.1539 1120.52 534.412
151 1 33.0223 13.5363 447 74.2058 1120.27 553.385
152 0 36.3117 16.1105 585 70.906 1120.11 552.294
153 0 37.4237 14.7233 551 72.3975 1120.21 552.39
154 0 38.366 16.108 618 71.9951 1120.12 550.693
155 0 38.6513 16.2478 628 72.7309 1120.57 551.113
156 0 40.4953 15.3598 622 73.5434 1120.53 550.473
157 0 41.9384 16.1666 678 72.41 1120.64 550.453
158 0 44.7364 16.4519 736 71.6209 1120.24 548.981
159 0 46.1791 15.3749 710 73.0113 1120.04 549.617
160 0 47.2518 14.6449 692 75.5549 1120.27 548.53
161 0 50.9462 16.1543 823 72.2053 1120.58 547.815
162 0 51.3521 16.085 826 72.8886 1120.38 546.588
163 0 51.8403 16.1264 836 74.122 1120.72 544.774
164 0 54.8756 15.6536 859 75.0419 1121.1 543.588
165 0 55.8185 16.7507 935 73.7219 1120.27 544.309
166 0 55.7412 16.0922 897 76.136 1120.95 543.404
167 0 58.9942 16.6287 981 75.2722 1120.69 542.828
168 0 60.9068 16.2872 992 76.2067 1120.92 541.974
169 0 61.9242 16.391 1015 76.7172 1121.25 542.162
170 0 63.9179 16.0362 1025 77.72 1121.26 539.939
171 0 64.6634 16.4699 1065 78.369 1121.8 538.029
172 0 68.8848 17.13 1180 77.1008 1121.68 537.879
173 0 71.8084 17.1011 1228 77.2085 1121.76 538.014
174 0 71.7357 16.045 1151 80.715 1121.77 536.038
175 0 73.9931 16.015 1185 81.027 1121.57 533.023
176 1 33.71 14.6247 493 83.7606 1122.43 550.998
177 0 37.8204 16.1024 609 80.9097 1122.59 550.021
178 0 38.6591 15.9083 615 81.3463 1122.54 549.844
179 0 40.5562 15.9778 648 80.2438 1122.68 550.676
180 0 38.4636 17.4711 672 81.4315 1122.75 549.21
181 0 41.5492 16.0533 667 82.5442 1123.09 548.238
182 0 45.8804 17.0007 780 79.7321 1123.31 546.999
183 0 44.5599 17.3474 773 81.1876 1123.22 545.79
184 0 45.5479 16.7077 761 82.8712 1123.58 545.564
185 0 48.6412 17.1665 835 81.5234 1123.49 544.334
186 0 50.7008 17.4553 885 80.2588 1123.7 542.75
187 0 51.6834 16.543 855 82.1579 1123.6 542.698
188 0 54.5265 17.0559 930 80.9226 1123.46 541.277
189 0 55.4494 17.1688 952 80.9065 1123.43 540.727
190 0 57.7455 16.5381 955 82.5969 1123.47 540.035
191 0 56.8267 16.0136 910 86.322 1123.49 538.704
192 0 60.7296 17.2239 1046 82.3547 1123.8 538.62
193 0 64.8049 17.2672 1119 79.664 1123.73 536.621
194 0 65.6903 16.5778 1089 80.1708 1123.68 536.326
195 0 66.6272 16.7199 1114 79.6499 1123.78 535.494
196 0 69.6662 16.1484 1125 80.7947 1124.22 535.971
197 0 71.9006 16.2168 1166 83.4331 1124.04 532.993
198 0 73.6081 16.1939 1192 84.1904 1124.25 532.789
199 0 76.485 16.6699 1275 84.0118 1124.13 530.998
200 0 78.7759 16.9087 1332 82.5803 1124.48 529.995
201 0 81.9212 16.5769 1358 82.7636 1124.33 528.323
202 1 37.5318 14.4677 543 82.477 1124.88 549.589
203 0 37.8591 16.0595 608 82.1908 1124.98 548.467
204 0 39.6999 15.9194 632 81.8165 1124.94 548.321
205 0 39.5202 15.2074 601 84.1165 1124.89 546.983
206 0 39.6587 16.642 660 83.1 1124.94 546.282
207 0 40.5961 17.7111 719 81.9346 1124.98 547.274
208 0 42.5216 16.2976 693 84.29 1124.89 547.229
209 0 43.5507 16.8769 735 84.151 1124.2 546.245
210 0 44.4718 16.4824 733 84.9768 1124.64 546.787
211 0 46.6355 17.1114 798 83.6466 1124.28 546.377
212 0 46.6411 17.2595 805 85.077 1124.46 545.308
213 0 46.5692 16.9855 791 86.0051 1124.42 545.619
214 0 52.6344 15.9401 839 86.3576 1124.08 544.514
215 0 49.5614 16.7671 831 88.0505 1124.15 543.203
216 0 51.381 16.8934 868 88.0853 1123.77 543.266
217 0 54.3929 16.8404 916 87.6146 1123.21 542.646
218 0 54.2084 16.6579 903 89.2547 1123.63 541.89
219 0 56.3902 17.042 961 88.539 1123.42 541.784
220 0 60.4343 17.2584 1043 87.1975 1122.98 541.208
221 0 60.2499 17.1453 1033 89.1626 1123.3 539.093
222 0 62.3367 16.7638 1045 89.4708 1122.44 538.56
223 0 64.1934 16.8242 1080 90.0954 1122.85 537.274
224 0 68.344 17.4119 1190 88.6067 1122.76 537.903
225 0 68.3368 16.2138 1108 91.6354 1123.13 536.324
226 0 71.2844 16.0063 1141 91.9167 1122.83 535.633
227 0 74.4407 16.6173 1237 90.6435 1122.21 535.439
228 0 77.3729 16.4657 1274 91.0157 1121.94 533.892
229 0 78.4481 16.8264 1320 92.3167 1122.43 532.873
230 0 81.411 17.2581 1405 91.311 1122.22 531.692
231 0 83.5403 16.0402 1340 94.0873 1122.06 530.857
232 1 30.0838 15.2241 458 88.1463 1122.47 553.476
233 0 31.2119 15.7312 491 87.169 1122.18 552.766
234 0 31.1934 14.907 465 88.5312 1122.2 552.57
235 0 31.335 14.8077 464 89.0711 1122.33 552.765
236 0 31.2669 14.0724 440 88.4182 1121.97 552.748
237 0 33.3802 13.541 452 88.3142 1121.84 551.971
238 0 34.266 14.2999 490 89.5 1121.71 550.508
239 0 34.1471 13.1783 450 89.9711 1122.17 550.729
240 0 36.3078 11.0995 403 84.4913 1122.17 550.414
241 0 37.2809 10.783 402 85.4726 1121.79 550.565
242 0 40.3152 12.3775 499 83.1242 1121.9 549.687
243 0 40.3878 11.4391 462 85.645 1122.16 550.69
244 0 41.2895 12.7151 525 84.2438 1121.56 549.621
245 0 41.3033 11.0403 456 86.8816 1121.8 550.568
246 0 40.2961 10.7951 435 85.4828 1121.59 550.163
247 0 47.3146 12.4275 588 82.0816 1121.65 546.799
248 0 48.2666 12.0995 584 82.7466 1121.17 547.423
249 0 49.2611 11.2868 556 84.2374 1121.03 546.406
250 0 49.231 10.7859 531 83.7797 1121.29 546.267
251 0 53.1577 12.0773 642 80.8754 1120.45 544.964
252 0 54.3268 11.4492 622 81.8617 1121.04 544.408
253 1 28.1596 10.0854 284 79.5986 1119.98 558.37
254 0 29.3044 10.2374 300 79.7333 1119.88 557.913
255 0 28.0932 10.9635 308 81.3019 1119.77 558.367
256 0 30.0592 11.3443 341 80.4135 1119.38 555.944
257 0 32.1418 11.1693 359 78.6351 1119.65 555.744
258 0 32.0421 10.9855 352 80.946 1120.71 555.472
259 0 34.0654 10.656 363 80.3774 1120.35 555.198
260 0 34.1571 12.0326 411 79.7689 1119.94 553.988
261 0 36.1889 11.136 403 80.8511 1120.32 554.948
262 0 35.1765 11.3712 400 81.46 1120.2 553.632
263 0 37.2074 11.2881 420 80.9833 1120.13 554.052
264 0 39.2018 11.3005 443 80.7833 1120.35 552.885
265 0 38.2544 11.3712 435 81.6874 1119.97 552.745
266 0 41.2995 11.4771 474 81.7975 1120.14 551.829
267 0 42.3788 11.2084 475 82.5768 1120.45 551.236
268 0 45.4372 11.9946 545 81.4844 1120.52 549.699
269 0 47.2904 12.4338 588 80.7381 1120.45 547.876
270 0 48.3196 11.2584 544 82.9283 1120.73 549.075
271 0 49.482 11.9639 592 82.7753 1120.68 546.939
272 0 51.501 11.9415 615 82.3854 1120.43 546.367
273 0 52.513 11.5971 609 83.2282 1120.26 546.015
274 0 54.3397 12.3115 669 82.0688 1120.11 544.753
275 0 58.4375 12.4749 729 81.546 1120.37 543.653
276 0 57.4896 12.0369 692 83.9061 1120.6 544.532
277 0 60.3189 11.721 707 83.6209 1120.04 542.557
278 0 63.3406 12.3617 783 81.6437 1120.62 542.249
279 1 34.1924 10.9089 373 83.5764 1120.6 555.08
280 0 35.2846 10.968 387 83.1628 1120.9 554.581
281 0 37.2235 11.5787 431 82.2135 1121.14 554.775
282 0 38.3329 11.6349 446 82.6973 1120.8 554.386
283 0 37.2402 11.7078 436 83.7982 1121.68 552.95
284 0 41.2453 11.4195 471 83.0722 1121.84 550.9
285 0 43.4332 10.591 460 83.5239 1121.94 551.637
286 0 43.4221 11.584 503 81.5209 1122.07 551.875
287 0 45.3498 11.9736 543 81.1878 1122.03 550.273
288 0 45.2369 11.8929 538 81.448 1122.34 548.809
289 0 47.1708 12.3169 581 81.2427 1122.7 547.043
290 0 50.1929 15.2611 766 73.6775 1122.31 464.586
291 0 52.2265 14.8009 773 74.251 1122.02 443.684
292 0 53.3524 14.5635 777 75.1351 1122.41 440.709
293 0 54.1108 14.4888 784 75.463 1122.7 440.736
294 0 56.3316 15.036 847 73.9197 1122.83 438.609
295 0 58.4057 14.6219 854 74.0714 1123.09 438.177
296 0 60.3301 15.266 921 72.7687 1122.94 437.418
297 0 62.3285 15.0814 940 73.466 1123.18 435.647
298 0 64.4119 15.3388 988 72.6316 1123.49 433.908
299 0 67.2797 15.5916 1049 71.8942 1123.54 432.199
300 0 71.2598 15.0014 1069 72.1684 1123.58 432.27
301 0 71.2753 14.8719 1060 73.966 1124.04 429.21
302 1 37.1438 11.3612 422 80.981 1124.37 446.9
303 0 40.1018 12.2189 490 79.0673 1123.88 445.333
304 0 42.3011 12.9548 548 76.6661 1123.86 445.907
305 0 44.1594 13.2475 585 75.7436 1123.5 445.769
306 0 43.3614 13.5835 589 76.8336 1123.58 443.287
307 0 45.248 12.5309 567 78.3457 1123.77 443.226
308 0 47.2355 13.4433 635 77.2898 1123.84 441.872
309 0 49.2268 14.0371 691 75.3155 1124.12 440.715
310 0 50.2557 13.8293 695 76.5338 1123.95 440.659
311 0 51.2424 13.3483 684 78.3012 1123.74 439.365
312 0 53.3902 14.8904 795 75.3975 1123.74 438.093
313 0 52.1897 13.6809 714 78.7521 1123.51 438.099
314 0 56.2569 14.6471 824 76.1833 1123.35 436.553
315 0 58.3279 14.2642 832 76.9519 1123.25 436.894
316 0 58.2363 14.3381 835 77.4443 1122.78 437.019
317 0 59.3957 14.0751 836 78.134 1122.94 436.959
318 0 61.3258 14.1702 869 78.1024 1122.89 435.938
319 0 64.2769 15.2621 981 76.0907 1122.92 434.329
320 0 65.3604 13.9687 913 78.6177 1123.29 435.2
321 0 67.2423 15.2136 1023 75.7097 1123.03 434.543
322 0 69.3766 14.9618 1038 75.8516 1123.13 433.893
323 0 73.2766 15.9396 1168 73.1216 1123.27 433.178
324 0 75.4012 15.4772 1167 73.7001 1123.07 433.094
325 0 74.3768 14.8971 1108 75.8421 1122.5 430.949
326 0 76.2601 13.8211 1054 77.3349 1122.05 431.228
327 0 81.4957 15.2646 1244 73.4172 1122.43 430.038
328 0 83.6 14.9522 1250 73.7016 1122.05 428.983
329 0 88.5957 14.7976 1311 73.4554 1122.17 427.669
330 0 90.392 14.4482 1306 73.7404 1121.81 427.612
331 1 45.6934 12.4088 567 76.7284 1122 447.43
332 0 48.1966 13.8599 668 73.9641 1122.01 448.281
333 0 49.2072 13.7785 678 73.6475 1121.93 447.652
334 0 52.2023 14.3097 747 71.8701 1121.63 447.917
335 0 53.3614 14.3362 765 71.7686 1122.05 447.256
336 0 55.3405 13.9139 770 72.0091 1121.78 447.182
337 0 57.4103 14.4225 828 70.4094 1121.6 446.331
338 0 58.1081 14.3526 834 70.3165 1121.16 447.283
339 0 61.3959 14.1866 871 69.7015 1121.05 446.93
340 0 62.268 14.0682 876 69.8961 1121.6 446.598
341 0 65.1475 14.2292 927 69.425 1121.31 446.886
342 0 67.16 14.3091 961 69.4266 1121.06 445.304
343 0 68.4434 14.9174 1021 68.3066 1120.21 446.218
344 0 73.133 14.6445 1071 68.3371 1121.36 446.631
345 0 75.2094 14.4796 1089 68.6584 1121.46 446.066
346 0 78.261 14.1705 1109 68.9784 1121.35 447.307
347 0 80.1088 14.3804 1152 68.8819 1121.48 446.33
348 0 84.2483 14.481 1220 68.0336 1121.27 447.147
349 0 87.2077 14.7693 1288 68.0714 1121.3 447.297
350 0 90.3151 14.2723 1289 68.4003 1121.38 449.593
351 1 46.0798 11.2197 517 71.1257 1120.48 470.721
352 0 47.0508 11.7745 554 69.7202 1120.71 472.681
353 0 50.097 12.3959 621 69.3027 1120.4 474.34
354 0 51.0573 12.3195 629 69.7091 1120.29 475.854
355 0 53.0642 13.3046 706 67.6671 1120.84 478.62
356 0 56.1348 12.4522 699 68.7411 1120.81 479.811
357 0 57.1413 12.9329 739 68.728 1120.31 479.977
358 0 59.1599 13.4382 795 67.6918 1121.53 481.853
359 0 61.2328 14.0774 862 67.2332 1121.19 482.282
360 0 61.1434 13.9345 852 68.034 1121.32 482.676
361 0 64.1487 13.5622 870 68.7575 1120.85 484.439
362 0 65.0814 13.414 873 69.5498 1120.93 483.817
363 0 65.0814 13.3832 871 171.354 1121.92 483.943
364 0 72.0775 14.2069 1024 67.541 1120.41 486.369
365 0 73.0871 13.997 1023 68.1975 1120.42 487.511
366 0 77.1927 13.978 1079 68.0195 1120.93 487.965
367 0 80.0278 13.6827 1095 68.3242 1121.01 488.76
368 0 82.035 14.1281 1159 67.6859 1120.98 489.685
369 0 86.1218 13.4345 1157 68.3604 1121.54 492.185
370 0 89.1026 13.7145 1222 67.8404 1121.74 491.867
371 0 88.1778 13.4161 1183 68.7819 1121.72 493.25
372 0 93.1519 14.4066 1342 67.0768 1122.24 493.694
373 0 97.0511 13.4671 1307 68.1094 1121.99 495.702
374 1 57.0899 11.5432 659 66.4886 1122.61 519.906
375 0 58.0404 11.9227 692 66.1055 1122.42 522.415
376 0 60.1057 13.5428 814 63.9767 1122.64 524.63
377 0 63.1666 13.219 835 62.3701 1122.76 527.172
378 0 65.1744 13.6557 890 61.8438 1123.26 529.489
379 0 63.1714 11.9674 756 63.705 1123.11 530.073
380 0 67.1122 12.8442 862 62.058 1122.87 529.675
381 0 68.1354 13.165 897 62.0502 1123.19 527.614
382 0 72.2735 12.7156 919 62.667 1123.31 526.757
383 0 74.2683 12.7107 944 62.9672 1123.01 525.593
384 0 78.1153 12.648 988 62.8107 1123.21 524.226
385 0 79.2062 13.5595 1074 61.96 1123.42 524.309
386 0 82.3616 12.3966 1021 64.192 1123.39 519.422
387 0 86.2095 13.0264 1123 62.6883 1124.55 519.313
388 1 46.1348 10.0358 463 60.8315 1124.56 540.728
389 0 50.053 9.39004 470 61.2404 1124.51 539.96
390 0 50.1129 11.4342 573 59.7976 1123.47 538.443
391 0 51.1463 11.4573 586 59.4778 1123.67 540.229
392 0 53.0531 10.6874 567 62.522 1123.42 538.042
393 0 52.0531 10.3356 538 63.5911 1123.64 536.639
394 0 55.1185 11.4844 633 61.5798 1123.47 536.414
395 0 55.0317 11.3389 624 62.992 1123.62 535.231
396 0 59.1484 12.2066 722 61.3712 1124.25 533.668
397 0 60.0901 11.333 681 62.7606 1124.74 531.855
398 0 65.1055 12.4106 808 60.6126 1124.59 530.994
399 0 64.0795 11.4233 732 62.877 1124.64 528.817
400 0 68.1526 12.5601 856 60.465 1124.58 528.881
401 0 69.2109 11.8767 822 61.736 1124.4 529.901
402 0 71.1553 11.0322 785 63.3223 1124.47 527.307
403 0 75.2735 12.2088 919 61.6877 1124.59 526.602
