time division length width area intensity CMx CMy
0 0 60.0415 13.907 835 91.103 275.303 548.52
1 0 61.0831 14.3902 879 90.9784 274.486 545.631
2 0 66.1103 14.0976 932 89.3348 274.538 545.095
3 0 67.057 13.8539 929 90.6652 274.216 543.707
4 1 35.0456 12.2697 430 90.3605 274.326 558.591
5 0 36.2199 11.9271 432 90.4144 275.042 560.502
6 0 37.0917 12.8061 475 89.8126 274.777 558.451
7 0 38.0852 12.7346 485 90.0701 274.491 556.293
8 0 40.102 12.7674 512 89.6172 274.301 556.58
9 0 42.0917 13.3756 563 88.0071 274.661 555.993
10 0 41.0272 13.162 540 90.2148 274.781 555.006
11 0 44.1185 12.9878 573 89.1099 274.609 553.97
12 0 46.0774 12.7611 588 88.7806 275.009 554.136
13 0 47.1492 13.5103 637 87.5102 274.931 552.046
14 0 48.1537 13.623 656 87.3704 274.53 551.63
15 0 50.2339 13.2182 664 87.6551 275.854 551.414
16 0 50.0946 13.0952 656 88.843 275.992 549.817
17 0 52.0738 13.2888 692 88.3353 275.731 548.85
18 0 55.0733 13.0735 720 87.4569 275.631 548.803
19 0 56.0702 13.3939 751 87.3236 275.582 547.282
20 0 58.1191 13.2659 771 87.8067 275.827 545.975
21 0 62.0533 13.6173 845 86.1018 275.796 545.166
22 0 63.139 13.494 852 86.4308 275.447 545.847
23 0 65.1974 13.6202 888 87.0923 275.43 543.484
24 0 68.0326 14.2579 970 85.568 275.243 541.881
25 0 70.1642 13.9672 980 86.5755 275.433 540.167
26 0 74.2297 13.7681 1022 86.2916 275.187 537.802
27 0 76.1806 14.0456 1070 86.3187 275.307 537.483
28 0 79.3082 13.9204 1104 88.3197 275.046 535.478
29 0 82.1874 13.3962 1101 88.3642 275.145 532.362
30 1 43.1038 12.4351 536 89.1754 275.116 551.632
31 0 45.1748 12.6177 570 87.5825 275.344 552.981
32 0 46.2192 12.7003 587 87.552 275.029 553.005
33 0 47.1732 12.9523 611 88.1604 275.219 552.061
34 0 49.1287 12.9659 637 88.0377 275.479 550.779
35 0 51.2549 12.8963 661 87.4342 275.029 550.393
36 0 52.0511 13.1602 685 87.5109 275.358 548.924
37 0 54.3394 13.3605 726 86.9435 275.361 549.034
38 0 54.2583 12.4589 676 88.7589 275.442 547.93
39 0 59.1218 13.7005 810 85.3123 275.515 546.528
40 0 60.1022 13.8265 831 85.7485 275.526 545.082
41 0 62.2024 13.4882 839 86.1514 275.846 543.597
42 0 64.3467 12.9455 833 87.3758 275.797 541.946
43 0 67.0948 13.1754 884 86.4932 275.809 539.284
44 0 70.1299 12.8333 900 87.2933 276.197 539.56
45 0 73.134 14.1247 1033 84.6157 276.807 538.026
46 0 75.1322 13.9354 1047 85.2808 276.602 536.787
47 0 80.2422 13.6337 1094 84.9342 276.872 535.633
48 0 82.3119 13.6432 1123 85.7809 277.081 533.709
49 0 85.3906 13.5261 1155 85.7195 277.651 530.952
50 1 45.0575 11.0304 497 88.2233 277.352 551.97
51 0 47.1806 11.9753 565 86.6761 277.26 552.034
52 0 48.1528 12.1696 586 86.5973 277.741 549.442
53 0 50.0738 12.841 643 85.3297 277.398 548.532
54 0 51.1053 12.3862 633 86.8136 276.428 548.306
55 0 52.1251 12.9112 673 78.4993 276.562 547.389
56 0 52.0836 12.7295 663 78.3318 276.522 546.505
57 0 57.1768 13.432 768 74.1745 276.732 545.441
58 0 59.2041 13.3775 792 76.2045 277.016 542.039
59 0 61.0465 13.4324 820 77.4451 277.748 542.817
60 0 62.272 13.6659 851 78.5546 277.149 542.388
61 0 65.1894 13.4991 880 79.4875 277.003 537.355
62 0 68.2503 13.3333 910 79.356 276.971 538.099
63 0 70.2458 14.0079 984 78.8303 276.962 534.401
64 0 73.1718 13.5025 988 79.5172 276.845 533.404
65 0 73.2509 13.679 1002 80.3513 276.989 530.69
66 0 76.2055 13.5423 1032 80.6715 277.099 530.89
67 0 80.2916 13.2766 1066 81.5113 277.444 529.493
68 0 82.1113 13.1042 1076 82.6329 277.7 526.581
69 0 86.1551 14.381 1239 79.7805 278.368 525.37
70 0 89.2675 13.3643 1193 81.5356 278.114 523.574
71 1 46.115 10.7991 498 80.8273 277.767 545.516
72 0 49.0949 11.3046 555 79.2432 277.468 544
73 0 50.0995 11.577 580 100.655 278.117 543.297
74 0 51.0271 12.1112 618 80.1278 279.544 541.778
75 0 53.0221 12.2968 652 79.5874 278.63 540.224
76 0 56.042 11.9018 667 80.2234 279.207 539.078
77 0 55.0206 12.0682 664 81.1943 279.032 537.663
78 0 59.0223 12.724 751 78.8802 279.446 536.755
79 0 59.0425 13.0245 769 79.6177 279.151 535.562
80 0 63.0468 12.5938 794 79.5516 279.597 534.199
81 0 64.0983 12.9489 830 79.506 279.127 531.943
82 0 67.0703 13.046 875 79.008 279.498 531.374
83 0 70.0365 12.7077 890 79.3247 280.271 530.079
84 0 71.1039 12.8826 916 79.5535 279.916 530.073
85 0 74.1138 13.4658 998 78.1042 280.368 527.69
86 0 77.0897 12.7254 981 78.4995 280.46 526.551
87 0 80.1182 12.7936 1025 78.0195 280.54 525.153
88 0 84.1316 13.5264 1138 78.9965 281.151 523.873
89 0 87.2366 13.5035 1178 79.034 281.98 522.909
90 0 90.2323 13.7866 1244 78.4132 281.807 519.785
91 0 92.1474 13.5327 1247 79.1067 282.55 517.985
92 0 94.2125 13.7561 1296 78.081 282.642 516.933
93 0 99.2285 14.4414 1433 75.6315 282.872 515.756
94 1 53.1108 12.0126 638 74.8166 283.157 537.052
95 0 53.1295 11.839 629 73.4658 283.561 535.963
96 0 58.1541 12.4497 724 71.2928 283.631 534.638
97 0 58.1803 11.7737 685 95.6219 283.288 533.771
98 0 61.2205 12.2508 750 70.7987 282.908 533.861
99 0 61.153 12.7549 780 71.7654 282.658 532.208
100 0 65.1783 13.4094 874 71.8924 282.646 531.937
101 0 66.2478 12.9967 861 74.3775 282.525 529.222
102 0 66.2596 12.8434 851 75.7897 282.683 529.208
103 0 70.3335 12.4976 879 73.8214 282.721 528.808
104 0 73.138 12.7841 935 74.1455 282.904 527.265
105 0 74.186 12.8865 956 75.6862 282.599 525.179
106 0 76.2643 13.3877 1021 75.7777 283.247 522.958
107 0 77.3737 13.5447 1048 75.8187 283.037 521.034
108 0 83.1888 13.86 1153 74.5499 283.018 520.667
109 0 85.2232 12.7899 1090 76.2817 283.469 518.537
110 0 89.2736 12.8369 1146 75.6745 282.987 516.721
111 1 46.2178 11.8353 547 72.9634 282.916 539.141
112 0 46.1851 10.5445 487 74.6632 282.46 538.524
113 0 49.2925 11.6042 572 72.2885 282.288 536.33
114 0 49.2363 11.9627 589 72.3277 282.402 535.253
115 0 52.2516 11.8657 620 70.729 282.46 534.503
116 0 53.249 12.019 640 70.1906 282.827 534.923
117 0 55.2999 11.8807 657 70.2481 282.505 532.836
118 0 56.1639 12.784 718 69.2256 282.997 532.386
119 0 58.2299 11.987 698 70.1648 282.415 530.908
120 0 60.2008 12.7407 767 68.7588 282.451 530.016
121 0 62.3155 12.1158 755 69.9192 283.201 530.356
122 0 64.2655 12.7751 821 68.9635 282.42 527.989
123 0 66.2529 11.9844 794 70.1222 282.448 528.098
124 0 68.2018 12.1991 832 69.6947 282.173 526.129
125 0 70.2318 12.2594 861 70.381 282.12 526.641
126 0 72.2786 12.9499 936 69.422 282.298 524.71
127 0 74.2064 13.1795 978 69.68 282.629 524.089
128 0 76.2931 13.671 1043 68.8082 282.385 524.133
129 0 79.2491 13.5143 1071 69.5677 282.013 521.976
130 0 81.4347 13.385 1090 70.3174 281.872 521.047
131 0 87.486 13.065 1143 70.7139 281.126 519.279
132 0 87.3951 13.1243 1147 71.1508 281.352 518.553
133 0 93.4172 13.7769 1287 69.6402 281.572 516.907
134 1 48.3029 9.87518 477 73.6918 281.591 538.717
135 0 51.2538 12.2528 628 70.7389 281.024 535.846
136 0 53.3154 11.01 587 71.3118 281.182 537.843
137 0 55.2825 11.595 641 69.9345 280.711 536.2
138 0 56.1941 11.923 670 70.197 281.133 534.943
139 0 58.2802 12.0624 703 69.7226 280.905 534.316
140 0 58.1686 12.395 721 69.9834 280.915 532.799
141 0 60.1949 12.4595 750 70.0947 280.704 531.021
142 0 62.1345 12.5212 778 69.6992 281.113 531.62
143 0 65.121 12.6994 827 69.1524 280.895 529.782
144 0 66.1746 12.8599 851 69.8555 280.7 527.906
145 0 68.2349 12.1932 832 71.2248 280.82 527.584
146 0 72.1837 13.147 949 69.3793 281.104 527.37
147 0 73.2026 12.1444 889 71.6772 281.127 526.585
148 0 76.1327 12.7803 973 70.851 280.45 524.856
149 0 77.1318 12.3684 954 72.3616 281.041 524.128
150 0 81.1274 13.0166 1056 71.3958 281.302 523.511
151 1 45.0576 10.3201 465 72.8172 281.531 541.834
152 0 45.0168 10.9737 494 72.4008 279.405 542.368
153 0 47.1835 11.8262 558 71.9534 279.64 541.314
154 0 48.2127 12.3204 594 72.6296 279.875 538.766
155 0 48.1411 12.4841 601 73.1265 280.351 539.83
156 0 50.0412 12.4897 625 72.3952 279.826 539.267
157 0 50.0219 12.3746 619 74.3069 279.892 538.383
158 0 52.027 12.4358 647 74.8269 279.491 537.665
159 0 56.0368 12.6346 708 73.4929 279.436 536.682
160 0 56.0326 12.7783 716 74.3226 279.775 537.497
161 0 58.1487 12.5368 729 75.2373 280.137 535.429
162 0 61.2204 13.2309 810 73.5691 279.926 534.144
163 0 61.0472 13.5305 826 74.4843 280.548 532.343
164 0 63.1413 12.7967 808 75.5161 280.954 531.567
165 0 63.159 13.5056 853 75.6811 280.073 531.11
166 0 63.159 13.5531 856 180.776 279.098 531.146
167 0 67.0948 13.6076 913 75.885 280.648 530.215
168 0 70.0927 13.5249 948 75.9209 280.921 528.235
169 0 71.0992 13.5726 965 76.2269 281.487 527.856
170 0 73.2445 12.9839 951 76.9243 281.405 526.143
171 0 76.1532 13.0395 993 76.6737 281.887 524.893
172 0 76.1369 13.5283 1030 77.3951 281.816 523.759
173 0 79.2887 13.4571 1067 77.4639 281.872 522.36
174 0 82.155 13.6936 1125 77.0018 282.059 521.199
175 0 85.1685 13.3735 1139 77.3319 281.789 518.956
176 0 88.0483 13.7311 1209 76.6625 282.174 517.312
177 0 89.3462 14.3487 1282 76.1903 282.269 515.764
178 0 93.155 13.966 1301 77.2006 282.285 514.445
179 0 96.1325 14.1471 1360 76.7162 282.524 513.732
180 0 101.154 14.5719 1474 75.9016 282.663 511.235
181 0 104.194 14.0699 1466 77.5457 283.039 509.792
182 0 107.255 14.0879 1511 78.1198 283.238 506.322
183 0 107.255 14.0785 1510 175.75 283.232 506.309
184 0 114.186 14.38 1642 77.5944 283.689 504.453
185 0 120.297 14.5141 1746 77.4645 283.564 501.378
186 0 123.245 14.7674 1820 76.8571 283.946 498.943
187 0 129.447 15.1491 1961 75.7741 283.849 495.908
188 1 74.1964 11.2944 838 80.4642 284.341 524.254
189 0 79.2069 12.3348 977 78.911 284.146 521.61
190 0 79.3063 12.4832 990 79.5313 284.264 522.157
191 0 81.2094 13.3605 1085 79.4359 284.221 519.247
192 0 85.1981 13.6975 1167 77.7284 284.377 516.985
193 0 87.3926 13.8227 1208 75.8526 284.406 516.887
194 0 89.2008 13.7106 1223 76.5437 284.413 514.379
195 0 93.2792 13.9259 1299 75.7814 284.576 513.461
196 0 94.5617 13.864 1311 77.0786 285.04 512.916
197 0 99.3475 13.6692 1358 78.1487 284.809 509.784
198 0 102.231 13.9 1421 78.1407 285.134 509.185
199 0 105.425 13.6401 1438 78.9298 284.976 506.954
200 0 108.45 13.1765 1429 79.5808 285.288 505.852
201 0 113.208 14.1509 1602 77.9694 285.265 503.725
202 0 116.238 13.5756 1578 79.7104 285.441 501.814
203 1 63.209 10.4099 658 80.193 286.029 529.153
204 0 65.1648 11.4632 747 78.8367 285.938 526.763
205 0 69.2 11.5752 801 78.1573 286.012 525.774
206 0 73.1638 12.2738 898 77.3953 286.009 523.692
207 0 71.1874 11.547 822 79.5888 285.998 523.628
208 0 74.1711 13.1857 978 76.0613 285.856 523.004
209 0 78.1186 12.4938 976 77.4805 285.099 519.776
210 0 79.2554 12.8824 1021 76.3536 285.618 520.296
211 0 80.2704 12.3956 995 77.809 285.328 519.172
212 0 83.1904 13.0063 1082 76.6553 285.465 517.493
213 0 86.2415 12.6389 1090 76.7486 285.379 515.772
214 0 89.1723 12.9973 1159 76.1682 285.149 515.137
215 0 92.1529 12.718 1172 76.3319 285.049 513.038
216 0 94.1661 13.2638 1249 75.47 284.782 511.915
217 0 98.194 12.9132 1268 75.455 284.11 510.622
218 0 102.246 13.8881 1420 73.0218 284.514 509.066
219 0 104.377 12.5507 1310 75.6313 284.391 507.959
220 0 107.171 13.0073 1394 74.6786 283.937 504.747
221 1 61.0896 9.59246 586 72.7338 284.794 531.92
222 0 64.015 10.3101 660 72.8652 283.153 528.783
223 0 67.0739 10.8835 730 72.2123 283.979 526.534
224 0 68.0362 10.9354 744 71.6075 283.082 528.224
225 0 69.0513 11.3684 785 70.7057 283.146 526.285
226 0 70.2174 11.7207 823 70.1555 282.905 524.363
227 0 75.1068 11.6767 877 69.7754 282.447 524.099
228 0 75.1298 11.7264 881 70.2043 282.193 522.563
229 0 77.1555 11.6907 902 71.3259 282.494 523.299
230 0 81.1478 12.2862 997 70.6339 282.456 520.528
231 0 83.2973 12.0892 1007 71.3476 282.803 520.519
232 0 84.3478 12.1758 1027 71.6972 282.694 519.039
233 1 45.1464 9.25877 418 69.9498 283.048 539.876
234 0 48.3191 9.68561 468 70.2073 282.694 538.397
235 0 49.1992 9.43104 464 70.5754 282.86 539.022
236 0 50.3686 10.9989 554 69.1155 282.289 536.886
237 0 52.3469 11.2328 588 68.5969 282.241 535.825
238 0 52.0523 11.354 591 69.8274 282.763 537.137
239 0 55.0809 11.3106 623 69.2103 282.95 535.631
240 0 55.1592 11.639 642 69.3832 282.815 534.735
241 0 58.1063 11.5134 669 69.6622 282.363 532.553
242 0 58.342 11.8268 690 70.1232 282.667 532.832
243 0 62.1089 11.979 744 68.9879 282.63 532.528
244 0 62.056 11.8602 736 69.5639 282.41 532.042
245 0 64.0582 12.395 794 69.4421 282.421 533.203
246 0 66.0555 12.1262 801 70.0999 282.171 529.795
247 0 68.1887 12.1574 829 69.5537 282.235 528.616
248 0 72.1617 12.4581 899 68.7697 281.853 528.868
249 0 72.1018 11.6918 843 70.6074 281.669 527.612
250 0 74.0865 12.04 892 70.074 281.779 527.232
251 0 76.177 12.6547 964 69.6784 281.022 525.513
252 0 78.1334 12.6706 990 69.8899 281.552 524.725
253 0 81.1142 12.0694 979 71.1859 281.062 522.883
254 0 84.236 12.1326 1022 71.4354 280.732 522.137
255 0 89.3447 12.491 1116 70.483 280.752 521.988
256 0 90.2693 12.5513 1133 71.2736 280.512 519.889
257 0 95.3626 13.3595 1274 69.4749 280.67 518.465
258 1 50.123 10.0154 502 71.3924 281.432 540.42
259 0 55.2903 10.9242 604 69.7086 281.175 539.631
260 0 53.2251 11.442 609 69.7209 280.874 539.24
261 0 55.054 11.1345 613 71.1892 281.302 539.362
262 0 57.2066 11.9217 682 71.0059 281.367 537.324
263 0 60.0995 11.8637 713 70.9313 280.966 537.184
264 0 60.1983 11.6282 700 72.34 281.426 535.167
265 0 64.0914 12.451 798 70.2669 280.769 534.363
266 0 65.257 12.1213 791 71.6321 280.526 534.307
267 0 66.4107 12.7389 846 71.3794 280.778 532.67
268 0 69.2622 12.5898 872 71.8016 280.786 531.249
269 0 69.3155 11.8588 822 74.0547 280.832 530.17
270 0 73.2657 13.3077 975 71.6031 280.956 530.068
271 0 73.357 12.6368 927 73.1197 281.203 528.669
272 0 76.2854 12.2173 932 74.2253 281.03 527.599
273 0 78.1571 13.0762 1022 73.0059 280.702 525.976
274 0 79.4396 12.7518 1013 73.9457 280.641 524.962
275 0 83.2715 13.5941 1132 73.265 280.929 522.989
276 0 83.4069 13.8238 1153 73.8361 281.169 522.285
277 0 87.4175 13.6929 1197 73.4403 280.709 520.797
278 0 89.4133 13.0182 1164 75.1658 281.245 519.826
279 0 90.3466 13.5036 1220 74.8311 281.311 518.322
280 0 94.3814 13.4666 1271 74.6483 281.5 515.782
281 0 96.4634 13.3833 1291 74.8466 281.658 516.04
282 0 100.441 13.6001 1366 74.3009 281.357 513.846
283 0 103.436 14.057 1454 73.2153 282.128 511.939
284 0 104.45 13.2791 1387 75.8421 282.333 510.084
285 0 109.484 13.4997 1478 75.1421 282.52 509.173
286 0 109.491 13.307 1457 76.2032 282.558 504.921
287 0 111.354 13.6861 1524 76.0171 282.35 503.101
288 0 114.62 13.8196 1584 75.7563 282.835 500.609
289 0 120.334 13.7866 1659 75.5359 283.04 498.805
290 0 124.386 13.4742 1676 75.8216 283.282 496.3
291 0 130.331 14.2484 1857 73.9677 283.132 495.161
292 0 133.335 13.9498 1860 75.2441 283.363 491.772
293 0 137.512 14.1006 1939 74.8283 283.662 491.233
294 0 142.718 13.6844 1953 76.1347 283.61 486.173
295 0 150.653 14.2314 2144 74.3591 283.896 484.809
296 0 156.615 14.8262 2322 73.5207 283.923 480.829
297 0 160.618 14.5376 2335 74.6561 284.204 478.038
298 0 168.537 15.237 2568 72.6608 284.595 470.701
299 0 170.589 14.2976 2439 75.0217 284.636 471.462
300 0 176.602 14.1618 2501 75.4138 284.621 468.71
301 0 185.652 15.1197 2807 73.0727 285.098 463.704
302 0 188.486 13.9639 2632 75.8716 285.528 462.655
303 0 197.466 14.5139 2866 74.2324 285.132 459.872
304 0 202.565 14.7459 2987 74.2159 285.347 455.795
305 0 211.503 14.813 3133 73.5235 285.221 451.778
306 0 216.766 15.782 3421 71.4923 285.23 446.082
307 0 222.521 15.5401 3458 71.9485 285.564 442.35
308 0 231.642 16.0809 3725 70.9946 285.607 439.886
309 1 65.3718 11.5187 753 73.5618 284.919 523.076
310 0 65.1654 12.0616 786 71.4555 285.228 522.195
311 0 67.1413 12.8833 865 70.6509 285.23 520.914
312 0 69.1562 12.9273 894 71.6085 285.179 517.828
313 0 73.1103 12.8026 936 71.9872 284.848 517.207
314 0 75.1277 12.6185 948 72.8861 284.753 515.821
315 0 78.0877 13.075 1021 71.8541 284.574 514.971
316 0 83.1723 13.8748 1154 69.6776 284.237 513.231
317 0 86.1968 13.1211 1131 70.7577 284.372 512.185
318 1 43.0384 10.9902 473 69.8161 284 531.899
319 0 46.0441 10.1859 469 69.6674 284.964 532.915
320 0 44.0425 10.6715 470 70.9894 284.877 532.03
321 0 47.0129 11.3586 534 68.4082 283.873 531.099
322 0 47.0602 12.1334 571 68.1051 283.848 529.9
323 0 49.0276 11.4221 560 69.0714 285.661 529.012
324 0 50.0153 11.3165 566 69.2173 285.293 529.009
325 0 50.0633 12.5841 630 67.9048 284.533 526.868
326 0 52.1486 12.0809 630 68.6746 284.09 526.863
327 0 54.0718 11.8916 643 69.3826 284.401 525.286
328 0 55.1451 11.6601 643 69.6454 283.958 524.527
329 0 58.0793 11.9148 692 69.2457 283.562 523.99
330 0 60.1168 12.2262 735 68.5306 283.367 522.803
331 0 61.1625 12.148 743 68.4482 283.814 521.421
332 0 65.5152 12.0888 792 68.2841 283.16 520.721
333 0 67.4294 12.6503 853 67.3482 283.013 518.329
334 0 68.5662 11.3759 780 69.2038 282.895 517.928
335 0 72.5329 11.6499 845 68.1467 283.221 515.473
336 0 77.618 11.4793 891 67.275 282.905 515.51
337 1 38.2812 9.97878 382 66.7539 280.997 535.783
338 0 40.1314 10.2663 412 66.2233 281.437 536.121
339 0 42.1107 10.7099 451 64.969 282.022 536.104
340 0 45.2167 11.7213 530 62.9509 282.264 534.725
341 0 45.0521 10.9651 494 64.6457 281.838 535.099
342 0 45.0486 11.6541 525 63.9695 281.503 534.43
343 0 47.0544 10.626 500 65.196 280.646 534.89
344 0 49.0484 12.1105 594 63.5067 281.854 531.966
345 0 49.0985 11.1205 546 64.881 281.885 533.623
346 0 52.112 11.648 607 64.6359 281.824 532.053
347 0 53.1089 11.693 621 65.2303 281.966 531.47
348 0 53.1451 12.099 643 65.4666 281.72 530.163
349 0 54.2471 12.2956 667 65.9535 282.229 529.049
350 0 56.1082 12.2086 685 66.6102 282.22 529.918
351 0 60.3123 12.9493 781 65.1408 281.644 527.963
352 0 58.2022 12.6799 738 66.6396 281.738 527.82
353 0 61.2591 12.9287 792 66.1907 281.427 527.37
354 0 63.1485 12.7002 802 66.2394 281.116 527.499
355 0 65.1541 12.9386 843 66.1851 281.544 526.231
356 0 67.2211 12.5407 843 66.7972 281.63 525.767
357 0 70.1016 12.596 883 66.5006 281.074 523.925
358 0 68.168 12.4399 848 67.8785 282.243 521.67
359 0 74.2611 13.0351 968 65.5 281.76 522.212
360 0 76.1378 12.5562 956 66.5178 282.098 519.914
361 0 78.1472 12.6044 985 66.8061 281.59 519.891
362 0 81.235 12.7285 1034 66.4594 281.882 517.617
363 0 84.1124 12.9945 1093 65.3779 282.966 515.386
364 1 44.0604 10.0544 443 65.3183 282.44 538.036
365 0 45.026 10.8604 489 64.2454 282.513 536.761
366 0 49.05 10.9684 538 63.8941 282.773 536.188
367 0 48.0262 11.3688 546 65.3168 282.544 534.848
368 0 50.2249 11.4684 576 64.2674 281.733 534.549
369 0 51.2239 12.0061 615 63.5902 282.046 534.888
370 0 54.2812 12.0484 654 63.1881 282.292 532.795
371 0 54.2244 11.6553 632 64.3085 282.187 531.837
372 0 56.2364 11.754 661 64.2103 282.614 531.49
373 0 58.1211 12.147 706 63.2493 282.334 530.694
374 0 58.1072 11.9951 697 64.3099 282.58 528.608
375 0 60.0859 12.0661 725 64.4317 282.548 528.454
376 0 62.1217 11.8316 735 65.1102 282.717 528.306
377 0 66.1349 12.5652 831 62.3586 282.871 527.022
378 0 66.2025 12.5675 832 63.0168 283.179 524.898
379 0 67.1978 12.4558 837 63.6356 283.137 524.747
380 0 68.2103 12.6081 860 63.7058 283.502 524.412
381 0 71.1327 12.6102 897 63.6488 283.763 523.251
382 0 72.3886 12.6401 915 64.0087 283.908 520.635
383 0 76.3286 12.2628 936 64.0769 283.616 520.965
384 0 78.3713 12.2494 960 64.5615 283.708 518.789
385 0 81.4474 12.6953 1034 63.8598 283.699 518.056
386 0 84.4003 13.353 1127 63.1118 283.853 516.063
387 0 87.3844 12.1646 1063 64.7018 284.917 513.798
388 1 45.2162 10.2839 465 64.5828 284.462 535.168
389 0 49.2371 9.50502 468 65.3077 284.972 534.524
390 0 52.1597 11.0814 578 63.6332 285.413 533.756
391 0 53.0712 12.2289 649 63.0632 285.626 532.858
392 0 53.1133 12.5204 665 64.1805 285.278 530.872
393 0 57.1875 12.153 695 64.4576 285.696 529.78
394 0 57.2672 12.7822 732 63.709 285.322 529.057
395 0 60.199 12.4587 750 63.9227 285.299 529.043
396 0 61.2294 12.935 792 64.2904 285.751 526.352
397 0 61.0966 12.603 770 65.0545 285.669 526.783
398 0 64.3303 13.0887 842 64.4822 285.494 525.461
399 0 68.4214 13.2853 909 63.6788 285.449 523.163
400 0 69.213 14.1447 979 63.3023 285.257 521.346
401 0 70.4064 12.1438 855 66.7146 285.199 523.043
402 0 74.4572 13.6186 1014 65.0434 285.279 520.342
