time division length width area intensity CMx CMy
0 0 60.3747 11.8096 713 65.0659 1343.62 552.662
1 0 61.232 12.1178 742 64.9906 1342.8 549.512
2 0 63.3036 12.5743 796 64.6922 1342.95 549.373
3 0 66.3184 11.9575 793 65.034 1342.63 550.193
4 0 69.3296 12.318 854 64.7084 1342.56 546.35
5 0 72.1791 12.4967 902 64.8548 1343.42 548.527
6 0 71.1394 12.4263 884 67.2319 1343.07 547.103
7 0 74.1925 12.6697 940 67.5926 1342.74 543.765
8 0 78.1573 13.0762 1022 66.7642 1342.81 543.037
9 0 78.0795 13.0636 1020 68.0647 1342.98 542.055
10 0 84.2483 13.3534 1125 67.2738 1343.26 539.756
11 0 87.2798 13.2219 1154 68.3596 1343.06 537.739
12 0 88.2371 13.0897 1155 69.084 1343.61 538.318
13 0 91.2114 13.6167 1242 68.4058 1343.59 535.44
14 1 51.0774 10.9442 559 67.7352 1343.74 556.823
15 0 53.0341 10.6347 564 69.8138 1344.4 555.42
16 0 53.1083 10.8646 577 69.1334 1344.66 554.686
17 0 55.1601 12.1827 672 68.3036 1344.47 553.42
18 0 58.0643 11.7456 682 68.7067 1344.51 552.109
19 0 59.0413 11.7206 692 69.078 1344.19 551.218
20 0 61.0751 12.3782 756 68.0159 1344.4 551.491
21 0 63.1344 12.4179 784 68.3878 1344.3 548.541
22 0 66.0852 13.4221 887 65.9673 1343.94 549.607
23 0 68.1654 12.587 858 67.1993 1343.78 549.068
24 0 69.0577 12.0913 835 68.8144 1343.6 546.303
25 0 71.1649 12.1127 862 68.8979 1343.84 543.625
26 0 74.1796 12.3619 917 68.2094 1343.27 544.489
27 1 41.0288 10.0417 412 67.5801 1343.13 560.16
28 0 39.0154 10.2267 399 70.1629 1343.23 559.018
29 0 42.2353 10.2758 434 66.712 1343.67 558.38
30 0 43.0529 10.4987 452 67.0708 1343.58 558.387
31 0 44.073 10.3238 455 67.6418 1344.15 557.042
32 0 46.1024 11.8649 547 66.7952 1343.87 557.311
33 0 48.0833 11.7504 565 66.8779 1344 556.342
34 0 49.1133 11.504 565 67.8478 1343.83 555.064
35 0 50.1201 11.7717 590 67.639 1343.37 555.397
36 0 52.0755 12.3091 641 66.9516 1343.7 554.838
37 0 56.1007 11.1228 624 67.7708 1343.5 554.014
38 0 54.1594 12.0201 651 67.8264 1343.66 552.488
39 0 57.0695 12.4935 713 66.4544 1343.58 551.934
40 0 58.1937 12.5271 729 66.284 1343.49 551.287
41 0 58.1139 12.1141 704 67.7116 1343.65 549.268
42 0 61.134 13.2659 811 65.7287 1343.44 549.985
43 0 61.1006 12.7331 778 67.036 1343.62 547.865
44 0 61.0499 12.1704 743 69.533 1343.85 546.627
45 0 66.1236 12.643 836 67.7823 1344.48 546.575
46 0 66.1236 12.643 836 168.737 1344.48 546.575
47 0 70.0722 12.6298 885 68.7831 1344.58 543.571
48 0 70.1602 12.8991 905 69.179 1344.8 543.758
49 0 75.1499 13.36 1004 67.8307 1345.63 543.019
50 0 77.1355 13.2494 1022 68.3014 1345.46 543.474
51 0 78.0968 13.8034 1078 68.7143 1345.61 541.459
52 0 81.0565 13.361 1083 69.6731 1346.05 539.254
53 0 85.1664 13.5499 1154 69.1542 1346.02 538.263
54 0 87.0554 13.4971 1175 69.5455 1345.01 535.77
55 0 91.1255 13.2455 1207 62.942 1345.17 535.176
56 0 93.0991 12.8358 1195 63.7874 1344.54 531.592
57 1 52.0374 9.68534 504 61.6944 1343.82 554.669
58 0 51.0241 10.1129 516 61.2558 1343.95 553.862
59 0 56.0934 11.6948 656 60.3262 1344.99 553.45
60 0 57.1083 11.7321 670 62.6925 1344.89 552.027
61 0 60.072 12.5017 751 62.0639 1344.47 549.768
62 0 61.1189 12.6148 771 62.5344 1344.44 550.305
63 0 60.1228 11.8092 710 64.493 1344.48 549.406
64 0 61.088 12.3756 756 64.1653 1344.48 547.185
65 0 64.0266 11.9638 766 64.2689 1344.59 545.114
66 0 68.1094 12.1863 830 63.4458 1344.65 545.349
67 0 71.1279 12.2456 871 63.5465 1345.07 544.778
68 0 75.1151 12.7538 958 62.6357 1345.43 543.095
69 0 74.1065 12.671 939 63.7007 1346.04 540.88
70 1 39.0567 10.2671 401 63.5935 1345.29 558.454
71 0 42.0379 10.9901 462 62.1385 1345.19 558.509
72 0 43.0589 10.9617 472 62.0381 1344.78 556.587
73 0 45.1048 11.7726 531 81.5612 1346.06 556.121
74 0 45.1789 11.3549 513 63.4912 1346.86 554.828
75 0 46.1631 11.1994 517 64.4255 1346.28 552.056
76 0 48.1171 11.8669 571 63.6918 1347.1 552.088
77 0 48.1508 11.7755 567 64.6931 1347.05 550.148
78 0 50.1109 11.6941 586 64.744 1347.1 550.452
79 0 51.2263 11.6737 598 65.4147 1346.96 550.169
80 0 53.195 11.9184 634 66.123 1347.49 547.233
81 0 56.1585 12.6428 710 65.3141 1346.96 546.804
82 0 56.1333 12.7019 713 65.9635 1347.42 545.21
83 0 59.1485 13.1533 778 65.2596 1347.74 544.567
84 0 59.1064 12.3337 729 66.5501 1347.84 545.019
85 0 60.0441 12.5741 755 66.2967 1348.36 543.499
86 0 60.2272 12.7019 765 66.5843 1348.35 542.473
87 0 64.1489 12.128 778 66.7532 1348.58 540.794
88 0 66.2811 12.6884 841 65.7919 1348.71 541.445
89 0 69.2062 13.3081 921 65.6949 1349.39 538.185
90 0 70.1662 12.7839 897 67.1293 1349.41 537.486
91 1 37.2148 10.0498 374 69.0481 1350.46 553.064
92 0 39.0703 11.3641 444 67.6464 1350.93 552.651
93 0 41.1309 11.3297 466 66.8519 1351.09 550.933
94 0 41.1979 12.3065 507 65.3609 1351.02 549.416
95 0 43.1897 11.8778 513 63.9844 1351.26 548.519
96 0 45.2008 12.2785 555 62.1477 1351.2 548.153
97 0 46.1746 12.691 586 85.2713 1351.64 547.049
98 0 47.182 13.2042 623 61.2327 1351.01 546.271
99 0 50.1828 12.4943 627 62.5502 1350.69 545.568
100 0 50.228 13.0604 656 64.9268 1350.69 544.04
101 0 51.135 12.7897 654 67.1667 1350.58 542.859
102 0 53.131 13.0244 692 67.5506 1350.7 542.721
103 0 55.196 13.4249 741 63.8785 1350.71 541.965
104 0 57.1881 13.237 757 65.7358 1350.93 541.614
105 0 57.1881 13.1496 752 172.576 1350.91 541.604
106 0 58.1771 12.3072 716 70.1257 1351.19 540.644
107 0 63.083 13.1256 828 68.3841 1350.69 538.574
108 0 63.0692 12.8747 812 69.6823 1350.57 537.411
109 0 66.1177 14.0205 927 67.4887 1351.17 536.261
110 0 66.0397 13.6887 904 68.3429 1350.64 536.375
111 0 68.1316 13.1363 895 68.8469 1349.98 535.007
112 0 72.1244 13.5322 976 67.7449 1349.81 532.821
113 0 73.1273 12.5124 915 69.341 1349.57 532.23
114 0 73.1273 12.5535 918 166.008 1349.58 532.272
115 1 39.03 9.22368 360 68.7333 1349.28 548.917
116 0 39.0414 9.81009 383 68.4778 1349.52 548.54
117 0 42.1301 11.4882 484 66.3657 1349.22 546.512
118 0 41.0276 11.2607 462 67.5065 1349.67 545.727
119 0 47.1115 12.2263 576 64.2448 1349.11 545.745
120 0 46.062 11.8536 546 65.5073 1349.29 545.886
121 0 47.0632 11.9839 564 65.883 1349.47 545.658
122 0 49.0943 11.5899 569 66.3691 1348.94 543.87
123 0 49.0895 11.8152 580 67.3362 1349.19 541.536
124 0 53.2384 12.5849 670 64.9746 1349.81 542.79
125 0 52.1765 12.6302 659 66.0622 1349.9 542.164
126 0 56.2417 12.2863 691 65.411 1349.94 542.713
127 0 58.3042 13.0351 760 65.6434 1350.49 539.701
128 0 58.0997 13.2359 769 65.4577 1350.11 539.096
129 0 62.0878 13.2232 821 65.0037 1349.62 539.308
130 0 62.1531 12.2118 759 67.0369 1349.55 538.86
131 0 66.0858 12.5292 828 66.4481 1348.71 537.957
132 0 67.0967 12.2808 824 67.7682 1348.85 536.88
133 0 69.1627 13.1574 910 67.0055 1349.02 534.747
134 0 70.1173 12.037 844 68.8341 1348.52 535.636
135 0 75.1037 13.1019 984 67.1545 1348.29 533.214
136 0 75.0737 12.5876 945 69.1778 1348.39 531.94
137 1 43.0929 9.90883 427 67.0703 1347.35 550.07
138 0 40.0403 9.93999 398 69.1055 1347.52 548.46
139 0 44.1429 11.2816 498 67.2952 1347.49 548.05
140 0 43.0815 10.8863 469 68.2345 1347.48 547.288
141 0 46.1014 12.2339 564 67.4238 1347.49 545.592
142 0 47.2914 11.9895 567 68.2646 1348.73 547.032
143 0 48.1717 11.9572 576 68.7847 1348.53 545.3
144 0 49.0992 12.1183 595 69.3294 1348.43 545.039
145 0 52.1468 12.6374 659 68.2914 1348.35 544.417
146 0 52.1595 11.6565 608 70.4326 1348.48 543.933
147 0 54.1463 12.6324 684 69.1769 1348.59 543.045
148 0 53.1029 12.3722 657 70.6728 1347.86 542.393
149 0 56.1626 13.1404 738 69.2276 1348.35 542.833
150 0 58.1004 12.9431 752 70.3311 1348.57 542.319
151 0 60.2394 12.4337 749 70.3298 1348.14 541.178
152 0 63.272 12.5648 795 69.9057 1347.98 540.469
153 0 64.2495 13.0429 838 69.6659 1348.03 539.384
154 0 68.2367 12.6032 860 70.307 1348.05 538.138
155 0 68.2865 13.4727 920 70.0446 1348.53 538.036
156 0 72.3086 13.5254 978 69.4898 1348.42 537.189
157 0 73.1567 12.7261 931 72.029 1348.49 534.95
158 0 76.2509 13.613 1038 70.6358 1348.13 534.468
159 0 79.1814 13.6901 1084 70.3358 1347.95 533.125
160 0 84.2701 13.9433 1175 69.7983 1348.23 531.586
161 0 87.2052 13.7262 1197 69.9307 1348.54 529.674
162 1 46.0274 11.6235 535 69.4523 1348.2 548.935
163 0 47.0278 11.4826 540 70.8593 1348.73 547.087
164 0 48.1115 12.0138 578 70.7059 1349.27 546.237
165 0 51.1335 12.7509 652 70.1794 1348.25 545.911
166 0 51.1335 12.7705 653 174.485 1347.26 545.908
167 0 52.09 12.9776 676 70.5754 1348.76 544.447
168 0 56.0995 12.9769 728 69.1635 1348.96 543.82
169 0 56.1088 12.9926 729 69.9355 1349.46 543.209
170 0 58.1158 13.2322 769 68.5137 1349.42 542.615
171 0 59.0645 12.9011 762 69.1575 1349.85 540.819
172 0 63.0328 13.0884 825 68.9491 1349.77 538.618
173 0 64.1284 13.473 864 67.9988 1349.73 538.391
174 0 67.1485 13.5074 907 68.1588 1349.92 535.458
175 0 69.2064 12.7156 880 68.7091 1349.63 534.765
176 0 71.0274 12.995 923 68.2719 1350.02 533.482
177 0 71.0713 12.6774 901 69.1665 1350.17 531.841
178 0 75.1402 14.0138 1053 67.0199 1350.25 529.471
179 0 77.0894 11.7267 904 69.4768 1350.34 531.619
180 0 79.0733 13.4812 1066 68.0235 1350.61 528.012
181 0 84.3003 13.6061 1147 67.0898 1351.04 526.555
182 0 87.2097 12.8999 1125 68.592 1351.32 524.126
183 0 87.2097 12.9229 1127 162.703 1351.32 524.117
184 1 50.1832 10.4617 525 68.5714 1351.77 543.015
185 0 52.0874 11.7687 613 67.6656 1351.72 541.662
186 0 52.1092 11.3991 594 68.1481 1351.93 539.384
187 0 56.2108 11.8838 668 66.9237 1351.85 538.615
188 0 55.2138 12.678 700 66.7714 1351.93 537.429
189 0 58.196 12.4751 726 66.4298 1351.89 537.342
190 0 59.1609 12.9308 765 66.6105 1352.15 536.776
191 0 61.2177 13.0191 797 68.1518 1352.24 534.413
192 0 64.4116 12.6375 814 66.9988 1352.65 535.469
193 0 65.2018 13.2972 867 64.9527 1352.62 534.013
194 0 67.2584 12.623 849 64.4064 1352.56 532.541
195 0 70.2033 12.8342 901 63.1665 1352.66 530.982
196 0 72.2798 12.6038 911 64.2931 1352.97 528.948
197 0 74.2723 12.9523 962 65.7547 1352.83 527.166
198 0 79.2507 13.4384 1065 64.5568 1353.02 527.569
199 0 82.3067 12.6235 1039 66.4081 1352.86 525.362
200 0 84.14 13.323 1121 64.7583 1353.24 524.469
201 0 85.2892 13.1435 1121 65.3095 1353.09 522.612
202 0 88.2988 12.6842 1120 66.2446 1353.28 521.162
203 1 48.2955 10.7256 518 63.8919 1353.74 543.49
204 0 48.1277 9.57868 461 64.5163 1353.59 543.38
205 0 52.1949 11.1888 584 63.2397 1353.11 539.608
206 0 52.1049 11.9566 623 62.3162 1353.11 540.443
207 0 53.1257 12.3669 657 62.3135 1353.03 539.166
208 0 53.0558 12.1759 646 63.4195 1352.83 538.59
209 0 56.0403 12.1163 679 63.6259 1352.15 536.325
210 0 56.0373 11.8671 665 63.9895 1352.44 537.639
211 0 59.0215 11.9956 708 63.4195 1352.07 536.442
212 0 62.1664 11.984 745 63.2054 1352.25 535.003
213 0 65.0592 12.4348 809 62.534 1352.22 532.89
214 0 67.1986 12.158 817 62.9082 1352.07 532.677
215 0 70.1335 12.6045 884 62.1278 1351.89 531.255
216 0 72.1112 12.5501 905 62.6597 1351.67 530.369
217 0 74.2325 12.9458 961 62.4256 1351.21 529.27
218 0 78.2099 12.7989 1001 62.3007 1351.67 528.986
219 1 41.0978 10.5115 432 61.3009 1351.54 546.87
220 0 43.155 10.5202 454 61.0903 1351.3 547.059
221 0 43.1641 10.2863 444 61.8288 1351.61 546.079
222 0 44.1449 11.3037 499 61.5631 1350.76 544.533
223 0 46.1792 11.6936 540 61.4815 1351.02 544.491
224 0 48.0828 10.8147 520 63.2788 1351.02 545.271
225 0 48.0672 12.1289 583 62.3465 1351.5 544.642
226 0 49.1396 12.3526 607 62.7661 1351.16 543.074
227 0 50.1172 12.0318 603 63.4826 1350.64 543.141
228 0 53.0905 11.697 621 63.1836 1350.49 544.333
229 0 54.192 12.142 658 63.8055 1350.83 541.778
230 0 55.1292 12.9695 715 63.2406 1350.64 542.141
231 0 54.1136 11.4019 617 65.7212 1350.61 542.771
232 0 56.1482 11.4162 641 65.9033 1350.34 541.354
233 0 60.1309 12.822 771 64.1829 1350.43 540.481
234 0 58.2285 12.8803 750 65.1627 1350.26 539.803
235 0 61.1632 12.622 772 65.522 1350.46 539.122
236 0 65.2187 13.6311 889 63.5051 1349.87 537.715
237 0 64.1272 12.3972 795 65.9409 1349.84 536.925
238 0 67.0793 12.8803 864 65.2882 1349.55 535.309
239 0 69.0534 12.8162 885 65.1819 1349.99 535.096
240 0 71.0247 13.3897 951 64.1062 1349.93 534.455
241 0 72.1992 12.6456 913 65.9102 1349.43 532.415
242 0 76.1428 13.2646 1010 64.6485 1349.73 531.969
243 0 79.1002 13.1226 1038 64.394 1349.8 531.124
244 0 81.1495 12.9268 1049 64.4766 1349.52 530.196
245 0 85.0401 13.7582 1170 63.8513 1349.66 528.615
246 1 40.1458 10.4369 419 64.5585 1349.43 549.516
247 0 40.0457 10.6129 425 65.4024 1349.41 548.911
248 0 43.0177 10.6933 460 65.0304 1349.02 548.967
249 0 44.0146 11.2235 494 63.7611 1349.23 548.391
250 0 46.0691 13.1976 608 61.5312 1348.91 546.625
251 0 47.1196 12.7336 600 63.0833 1348.52 546.3
252 0 48.1118 12.6164 607 62.8666 1348.95 547.161
253 0 50.1003 11.7963 591 63.6041 1348.79 546.912
254 0 51.2971 12.4763 640 63.4656 1348.8 544.986
255 0 53.2028 12.4993 665 63.6391 1348.76 544.811
256 0 55.1539 12.9275 713 62.7405 1348.81 543.642
257 0 57.0624 13.5991 776 61.7268 1348.85 542.226
258 0 58.0887 13.445 781 61.8233 1349.35 543.311
259 0 59.1671 13.1492 778 62.6594 1349.24 542.618
260 0 61.1077 13.0425 797 62.4617 1348.68 542.05
261 0 64.1423 13.283 852 61.939 1349.1 541.777
262 0 65.1917 13.3913 873 61.8958 1348.82 540.058
263 0 68.3641 13.8816 949 61.2898 1348.74 538.923
264 0 69.2663 13.7008 949 61.7903 1348.74 537.296
265 0 72.2422 13.1779 952 62.3382 1348.35 535.775
266 0 77.3251 12.9324 1000 62.552 1348.47 534.7
267 0 77.2962 12.2904 950 63.9411 1348.77 534.009
268 0 79.2965 12.6487 1003 162.224 1348.76 533.031
269 0 82.1849 13.0681 1074 62.9851 1348.82 531.277
270 0 86.2445 13.7168 1183 62.1361 1349.09 529.985
271 1 47.178 11.2976 533 61.1576 1349.23 549.223
272 0 47.0942 12.1671 573 60.3455 1349.1 548.668
273 0 48.1912 11.2469 542 62.2214 1348.73 546.367
274 0 48.1857 11.6425 561 60.7986 1348.76 547.239
275 0 51.2243 12.0841 619 60.3489 1349.02 546.089
276 0 52.1862 11.9189 622 61.1013 1349.24 545.412
277 0 54.085 13.1829 713 59.2216 1348.72 544.198
278 0 57.1368 12.4613 712 59.8792 1349.3 544.778
279 0 58.2045 12.3358 718 60.2939 1349.36 543.442
280 0 58.2423 12.4308 724 60.6492 1349.61 542.452
281 0 61.1708 12.7675 781 60.2049 1349.44 541.78
282 0 63.1566 12.7778 807 60.5291 1349.19 541.398
283 0 66.2575 12.542 831 60.8111 1350.09 537.782
284 0 67.378 12.2889 828 62.279 1350.24 536.263
285 0 70.2236 13.0013 913 61.4556 1350.42 536.33
286 0 73.2402 12.5614 920 61.8935 1350.5 535.818
287 0 74.1651 12.8228 951 62.7014 1350.53 533.146
288 0 78.2357 13.6383 1067 61.1575 1350.78 532.591
289 0 79.2128 12.7 1006 63.2734 1350.88 530.112
290 0 84.1996 13.2067 1112 61.6376 1351.2 531.279
291 0 84.2766 12.2217 1030 63.7534 1351.1 528.842
292 0 88.3516 12.5408 1108 63.3339 1351.16 524.781
293 1 46.1085 10.15 468 62.7094 1351.13 547.241
294 0 49.0512 9.64299 473 62.6681 1351.14 546.638
295 0 49.0512 10.7031 525 61.579 1351.54 545.541
296 0 52.0529 11.3731 592 61.8919 1351.52 542.853
297 0 52.064 10.4487 544 63.4449 1351.71 543.491
298 0 56.0475 12.1504 681 61.2452 1351.95 540.833
299 0 56.0927 12.622 708 60.7994 1351.92 539.548
300 0 60.0456 12.2074 733 61.7544 1351.98 536.759
301 0 61.0757 11.4939 702 62.9245 1352.49 536.266
302 0 63.076 11.716 739 63.2382 1352.87 536.831
303 0 65.0809 12.6919 826 62.8002 1352.92 534.435
304 0 67.179 11.5512 776 64.3582 1352.85 533.541
305 0 72.1358 12.8923 930 62.4624 1352.78 531.543
306 0 72.1321 11.9642 863 64.4206 1352.76 530.417
307 0 74.0805 11.69 866 65.2506 1353.06 529.858
308 0 79.1509 12.811 1014 64.1637 1353.23 526.69
309 0 81.1428 12.7676 1036 64.029 1353.33 527.086
310 0 84.0795 12.3455 1038 65.7784 1353.11 524.056
311 1 43.0217 8.67005 373 65.5335 1352.06 545.263
312 0 45.0819 10.8913 491 63.0652 1352.12 543.328
313 0 44.0226 10.6309 468 65.188 1351.81 541.895
314 0 47.0433 10.7986 508 64.0512 1351.57 541.039
315 0 50.0276 12.1733 609 62.4729 1351.54 540.631
316 0 49.07 10.1691 499 65.9619 1351.06 539.952
317 0 52.0765 11.5791 603 63.7894 1351.21 539.121
318 0 54.069 10.801 584 65.2928 1351.12 537.538
319 0 55.0383 11.919 656 63.6143 1351.19 537.337
320 0 57.0652 11.8636 677 63.8523 1351.52 537.126
321 0 57.0489 11.9371 681 63.8076 1351.23 536.853
322 0 61.011 12.1781 743 63.144 1351.32 535.677
323 0 63.1759 12.1565 768 62.4987 1351.44 535.228
324 0 63.0799 12.0958 763 63.3198 1351.38 533.218
325 0 65.0328 12.4706 811 62.8718 1350.68 532.234
326 0 67.0721 12.4195 833 62.8199 1350.43 531.73
327 0 70.1506 12.1168 850 62.6435 1350.71 531.865
328 0 70.0742 12.0729 846 63.1619 1350.4 529.207
329 0 71.0658 12.3548 878 63.2289 1350.42 528.146
330 0 75.075 12.5608 943 62.4857 1350.24 528.516
331 0 77.0375 13.0326 1004 62.0787 1350.64 526.734
332 0 80.0952 12.4352 996 63.2982 1351.34 526.397
333 0 81.1596 12.691 1030 63.0039 1351.04 524.437
334 0 86.0975 13.1711 1134 62.1614 1350.84 522.072
335 0 89.2617 12.4017 1107 62.8862 1351.14 520.659
336 0 92.1213 12.3858 1141 62.7555 1350.99 520.408
337 1 46.0415 10.2299 471 62.6921 1349.93 541.132
338 0 49.0835 9.67738 475 63.2863 1349.82 540.291
339 0 53.0615 11.2134 595 61.7546 1349.57 537.8
340 0 53.1086 11.693 621 61.0676 1350.38 538.815
341 0 54.2227 11.8954 645 61.5814 1351.36 538.047
342 0 55.1021 12.0685 665 61.4436 1349.99 538.205
343 0 56.0774 12.5541 704 61.3281 1349.16 536.868
344 0 58.0848 12.7228 739 61.1461 1350.3 535.732
345 0 61.0961 12.423 759 61.2451 1350.46 535.971
346 0 63.1299 12.7673 806 60.8251 1350.43 532.928
347 0 64.0678 12.1746 780 61.6013 1350.43 533.651
348 0 68.1241 12.6681 863 60.3198 1350.33 531.691
349 0 68.0382 12.6841 863 60.9119 1350.38 530.834
350 0 71.095 11.9277 848 61.4953 1350.53 529.993
351 0 74.1296 12.4512 923 60.9144 1350.11 528.273
352 0 76.0964 12.655 963 60.4704 1350.31 527.996
353 0 79.1695 12.8459 1017 60.9164 1349.74 526.245
354 0 82.2012 12.7249 1046 60.8088 1349.6 522.766
355 0 87.1802 13.4664 1174 59.4932 1350.08 523.847
356 0 88.2272 13.3066 1174 59.7828 1350.07 523.482
357 0 92.3154 12.9881 1199 60.2477 1349.53 520.959
358 1 46.0437 10.6203 489 59.8691 1350.4 543.524
359 0 48.0428 10.8653 522 59.4464 1349.67 543.042
360 0 50.0066 11.7785 589 57.5603 1349.52 543.127
361 0 51.1031 11.9171 609 58.2299 1349.28 542.202
362 0 54.1041 12.8641 696 57.2557 1350.51 540.359
363 0 56.139 12.3087 691 57.5861 1350.41 540.113
364 0 55.1622 11.5659 638 59.2116 1349.46 538.948
365 0 58.2165 12.7627 743 57.8048 1349.54 538.059
366 0 61.1715 13.3886 819 56.6349 1349.88 537.238
367 0 63.2961 13.3184 843 56.8007 1349.85 535.579
368 0 62.1464 12.8085 796 58.0879 1349.63 534.745
369 0 66.2121 12.1579 805 58.087 1349.94 534.865
370 0 66.2121 12.1881 807 164.243 1350.93 534.836
371 0 70.1683 13.2539 930 57.4419 1350.07 532.716
372 0 73.1737 13.6251 997 56.9669 1350.56 532.202
373 0 73.2442 13.0932 959 58.5464 1350.28 531.178
374 0 77.0989 13.6837 1055 58.2009 1350.62 527.45
375 0 78.1881 13.6466 1067 59.1406 1350.51 526.974
376 0 83.1842 13.8007 1148 58.5375 1350.51 525.778
377 0 85.1775 13.4543 1146 58.5698 1350.37 524.823
378 0 89.1894 14.06 1254 57.8046 1350.63 523.793
379 0 90.2514 13.2962 1200 59.5767 1350.72 521.296
380 0 95.2025 13.6551 1300 58.8631 1350.71 519.572
381 0 98.1882 12.8834 1265 60.264 1351.17 517.71
382 1 49.2049 12.1126 596 58.9732 1351.2 542.124
383 0 51.2298 12.6489 648 58.2284 1351.18 540.974
384 0 54.2306 12.2071 662 58.7296 1351.3 540.003
385 0 54.2335 12.3355 669 59.1435 1351.46 539.531
386 0 56.1368 12.238 687 59.2358 1351.41 538.744
387 0 57.1446 12.7746 730 58.4096 1352.46 538.441
388 0 60.1583 13.3149 801 57.9663 1352.18 536.643
389 0 61.1467 12.7889 782 58.5575 1352.51 536.582
390 0 62.1268 12.6515 786 58.9148 1352.73 535.774
391 0 65.1994 12.6382 824 58.6432 1352.88 534.299
392 0 67.0839 13.1179 880 57.7455 1352.65 534.356
393 0 69.0958 13.3727 924 58.013 1352.97 530.575
394 0 72.2013 12.0358 869 59.107 1352.67 529.537
395 0 74.0412 12.5876 932 58.6416 1352.36 529.424
396 0 77.0841 13.1415 1013 57.8312 1353.12 527.444
397 0 79.1137 12.3746 979 58.9356 1353.28 526.823
398 0 81.1657 12.7271 1033 58.8199 1353.33 524.32
399 1 43.1324 9.89975 427 59.9719 1353.23 543.728
400 0 44.1251 11.8527 523 59.587 1352.7 542.025
401 0 45.074 11.1594 503 60.0736 1352.7 542.04
402 0 46.0884 11.5864 534 59.7846 1352.84 541.502
