time division length width area intensity CMx CMy
0 0 72.209 13.0039 939 64.3078 1210.63 558.181
1 0 73.1886 12.2287 895 66.124 1210.49 555.842
2 0 76.3168 12.2516 935 65.8759 1210.17 555.111
3 0 80.2979 13.1386 1055 65.3071 1210.04 554.283
4 0 83.3002 13.0612 1088 66.1847 1210.19 552.242
5 1 43.1748 9.00989 389 67.9871 1210.38 572.812
6 0 45.1382 11.9189 538 64.5279 1209.94 570.825
7 0 47.2399 11.4522 541 64.3678 1209.9 570.725
8 0 47.1667 12.742 601 64.4343 1210.34 570.458
9 0 49.0561 11.599 569 66.2408 1209.06 570.561
10 0 50.0346 11.7718 589 67.382 1209.99 568.061
11 0 53.0278 12.9932 689 66.3556 1209.31 567.848
12 0 53.0779 11.9824 636 68.3098 1209.72 567.173
13 0 55.0506 13.6783 753 64.6826 1209.43 566.578
14 0 56.0901 12.2125 685 67.5197 1209.62 565.638
15 0 58.1239 12.6282 734 67.3747 1209.88 565.037
16 0 59.1211 11.7386 694 68.3386 1209.95 563.922
17 0 62.1287 12.957 805 66.2907 1209.72 562.355
18 0 62.0745 12.1306 753 66.7317 1209.44 562.02
19 0 66.102 12.9648 857 64.93 1209.5 559.701
20 0 67.0872 12.2974 825 66.2097 1209.67 560.297
21 0 70.1463 13.8425 971 63.2812 1209.68 559.105
22 0 71.1853 12.7133 905 65.0365 1209.66 557.987
23 0 74.1161 13.0471 967 64.1675 1209.91 557.929
24 0 77.149 12.923 997 64.9127 1210.14 553.588
25 1 39.0272 10.0955 394 63.5736 1210.3 574.81
26 0 41.0368 9.60114 394 65.8553 1210.56 572.594
27 0 44.0791 10.345 456 65.7939 1210.6 570.702
28 0 45.0495 11.0323 497 65.1529 1210.86 570.235
29 0 45.0622 11.584 522 65.592 1211.33 568.992
30 0 46.045 11.6625 537 66.0354 1211.12 568.944
31 0 48.0265 12.389 595 65.084 1211.47 568.837
32 0 50.0202 12.1751 609 65.3744 1210.74 569.775
33 0 50.0111 11.1375 557 67.3034 1211.42 569.023
34 0 51.0117 11.3699 580 66.5534 1211.05 569.505
35 0 52.0474 11.0092 573 67.8482 1211.05 567.805
36 0 56.0924 12.4081 696 65.2529 1211.06 566.49
37 0 56.07 12.7697 716 65.4721 1211.46 565.943
38 0 58.0748 12.7078 738 65.4011 1211.47 565.864
39 0 59.0769 11.9505 706 66.694 1211.18 564.341
40 0 62.0999 12.7858 794 65.6486 1211.95 562.825
41 0 64.0659 12.0969 775 66.1742 1212.14 563.008
42 0 64.0576 13.6127 872 65.2489 1212.19 561.413
43 0 67.0758 12.5082 839 66.1669 1211.69 561.17
44 0 68.1054 12.4513 848 67.0802 1212.08 559.712
45 0 72.085 13.5951 980 65.35 1212.1 557.371
46 0 75.1207 13.4051 1007 65.578 1212.19 555.979
47 0 76.1563 12.8683 980 66.9959 1212.85 556.366
48 0 74.0586 12.058 893 68.6461 1212.51 557.384
49 0 82.0598 13.5145 1109 66.6312 1212.71 553.007
50 0 82.069 13.3912 1099 67.5023 1212.4 552.052
51 0 87.0828 13.2058 1150 67.5583 1212.73 551.941
52 1 47.1031 10.8061 509 68.7092 1213.22 568.185
53 0 50.1808 12.3952 622 66.0482 1212.78 568.469
54 0 52.1033 12.6863 661 65.7216 1212.02 567.602
55 0 53.1068 12.6726 673 58.9941 1212.31 567.826
56 0 53.1236 11.878 631 60.8859 1212.88 566.615
57 0 57.172 12.0514 689 60.508 1213.14 565.901
58 0 58.1328 12.351 718 60.1198 1212.67 566.386
59 0 58.0745 12.6217 733 60.3984 1213.19 564.989
60 0 60.1192 13.0408 784 60.1671 1213.36 564.473
61 0 61.0236 12.2739 749 61.9279 1212.89 562.131
62 0 65.0912 11.891 774 61.5749 1212.36 561.403
63 0 65.1666 12.89 840 60.9631 1212.4 559.725
64 0 67.0632 13.0623 876 61.0548 1212.36 557.477
65 0 68.0573 13.4739 917 60.867 1212.6 554.644
66 0 74.082 11.8247 876 60.718 1212.25 558.41
67 0 76.1583 13.577 1034 58.8607 1213.28 555.418
68 0 77.0622 12.2498 944 60.3051 1213.36 554.476
69 1 43.114 10.1823 439 58.4123 1212.69 572.164
70 0 43.0641 10.5657 455 58.0945 1211.86 572.53
71 0 46.1345 11.163 515 57.466 1212.36 569.563
72 0 48.093 11.7689 566 57.1413 1213.28 567.247
73 0 51.033 12.0706 616 57.099 1213.32 566.419
74 0 50.0847 11.8399 593 58.1265 1213.8 565.673
75 0 51.1052 10.7425 549 59.4262 1213.84 566.543
76 0 53.193 13.2536 705 57.1064 1214.15 563.165
77 0 54.0364 11.4923 621 58.1739 1214.02 563.729
78 0 57.0611 11.6892 667 58.1979 1214.49 560.732
79 0 61.0787 13.7691 841 55.5755 1214.31 561.228
80 0 59.098 13.283 785 57.5682 1214.72 557.87
81 0 62.0894 13.8349 859 56.6973 1214.15 557.996
82 0 63.0837 12.4121 783 58.304 1214.72 558.078
83 0 65.0938 13.5497 882 57.6587 1214.66 556.305
84 0 65.1109 12.6707 825 59.1988 1215.31 556.221
85 0 69.1642 12.3908 857 59.133 1215.77 552.52
86 0 70.23 12.516 879 58.6052 1216.08 552.686
87 0 73.0807 12.0825 883 58.6795 1216.12 550.93
88 0 77.1322 12.1998 941 57.4283 1215.89 549.427
89 0 76.088 13.7472 1046 54.9331 1216.17 547.48
90 0 78.1294 12.9785 1014 56.1568 1216.29 544.006
91 0 82.061 12.7466 1046 61.4857 1217.01 545.013
92 0 85.2212 12.1683 1037 64.6104 1217.47 543.156
93 0 89.2071 13.6648 1219 60.2198 1217.94 539.796
94 0 91.3178 13.4585 1229 60.7738 1217.73 539.948
95 0 94.2023 13.3861 1261 59.004 1217.38 537.064
96 0 96.2756 12.942 1246 58.3499 1218.08 537.032
97 0 101.198 13.7454 1391 81.8584 1218.42 534.779
98 0 103.335 14.4579 1494 56.2644 1217.81 535.662
99 0 107.195 14.301 1533 56.5329 1217.04 534.338
100 0 111.326 14.0578 1565 58.1176 1217.17 530.659
101 0 113.334 13.3147 1509 61.3943 1217.82 529.798
102 0 116.368 14.4885 1686 61.6542 1217.85 523.639
103 0 120.19 13.254 1593 61.452 1217.66 524.239
104 0 125.363 14.6774 1840 59.6967 1217.74 523.086
105 0 132.392 15.016 1988 58.6122 1217.69 520.4
106 1 65.2327 9.56576 624 64.5962 1217.42 551.82
107 0 70.2081 11.238 789 64.5234 1217.44 548.005
108 0 72.1523 12.6954 916 64.3515 1217.32 547.933
109 0 75.3153 12.8394 967 61.8966 1217.3 546.025
110 0 75.1826 11.4122 858 63.2308 1217.61 545.725
111 0 78.3905 14.0068 1098 58.7596 1217.68 545.374
112 0 84.3382 13.0546 1101 59.2879 1217.79 543.845
113 0 82.2997 13.6209 1121 60.2462 1217.92 540.6
114 0 85.296 14.5259 1239 59.9193 1218.12 538.133
115 0 86.3049 12.7803 1103 62.4053 1217.8 536.267
116 0 92.3578 14.2814 1319 59.5694 1217.02 536.809
117 0 91.1944 14.5184 1324 59.8603 1217.71 537.381
118 0 92.2796 12.6247 1165 62.1983 1217.61 536.834
119 0 99.4285 15.4684 1538 57.6209 1217.51 539.019
120 0 105.272 12.3109 1296 61.7431 1217.3 533.296
121 0 105.316 14.1764 1493 59.9712 1217.09 532.53
122 0 114.298 14.3135 1636 58.9444 1217.62 530.466
123 0 113.309 14.1913 1608 59.4646 1217.52 529.124
124 0 113.242 12.619 1429 61.8859 1217.15 528.796
125 0 119.414 15.4338 1843 59.076 1216.94 524.585
126 0 122.361 15.7812 1931 58.4775 1216.48 521.397
127 0 120.211 11.6212 1397 63.3944 1216.58 520.935
128 0 123.151 12.3425 1520 61.6441 1216.42 526.241
129 0 121.275 10.9091 1323 63.0529 1216.55 527.881
130 0 122.253 9.48036 1159 64.8533 1216.3 529.719
131 1 73.094 11.4373 836 62.1866 1216.15 546.172
132 0 76.1491 13.1059 998 60.6754 1216.03 544.356
133 0 84.1214 10.889 916 62.5775 1215.83 545.749
134 0 86.1595 12.6858 1093 60.9195 1216.24 545.764
135 0 84.1787 13.0674 1100 62.1509 1216.12 541.555
136 0 84.1303 12.7778 1075 63.6912 1216.14 539.047
137 0 85.1176 13.546 1153 63.1023 1215.82 540.321
138 0 92.1615 14.8001 1364 62.1466 1215.94 535.927
139 0 94.2302 14.2417 1342 62.7988 1215.43 537.059
140 0 97.1587 11.8569 1152 66.217 1216.08 535.18
141 0 98.1401 14.0615 1380 64.363 1215.68 533.444
142 1 113.218 11.5618 1309 64.8144 1215.59 537.272
143 0 112.143 11.7261 1315 66.911 1216.09 530.928
144 0 112.143 11.7885 1322 173.676 1216.11 530.995
145 0 114.152 14.3405 1637 64.5846 1215.84 527.185
146 0 119.237 14.6347 1745 64.318 1215.76 524.468
147 1 75.1161 10.0245 753 64.7503 1216.35 550.053
148 0 72.1163 9.60948 693 66.8283 1216.34 549.727
149 0 74.1889 11.309 839 64.6722 1216.57 548.375
150 0 73.0995 11.1218 813 66.4686 1215.76 546.157
151 0 73.1602 11.5773 847 66.0732 1215.8 546.432
152 0 77.0849 13.4527 1037 63.4754 1215.96 544.491
153 0 76.0962 11.6169 884 66.293 1216.18 543.974
154 0 80.1205 12.6559 1014 64.5483 1215.89 542.29
155 0 82.0987 12.6677 1040 63.0913 1215.1 545.444
156 0 84.2974 12.3254 1039 64.41 1215.1 541.174
157 0 88.1675 13.7012 1208 62.8154 1215.51 538.13
158 0 88.2562 12.1238 1070 64.7486 1215.11 538.611
159 0 95.2093 13.4441 1280 62.0117 1215.1 537.331
160 0 95.1797 11.9353 1136 64.2086 1215.25 535.799
161 0 99.3618 12.7614 1268 63.2319 1214.99 534.114
162 0 100.341 12.308 1235 64.2308 1215.1 531.39
163 0 104.486 13.6382 1425 61.8758 1215 532.41
164 0 108.296 14.2942 1548 61.0911 1215.78 531.767
165 0 105.32 12.2579 1291 64.8087 1215.95 528.372
166 0 114.141 13.3168 1520 63.277 1215.94 523.054
167 0 125.184 12.9969 1627 62.6152 1215.81 525.091
168 0 123.277 12.8896 1589 63.776 1215.88 521.389
169 0 124.365 14.2885 1777 61.6066 1216.24 523.984
170 0 129.34 14.7363 1906 61.2487 1216.42 517.576
171 0 130.287 13.194 1719 63.6416 1216.17 514.259
172 0 135.234 14.1902 1919 62.4794 1216.35 513.739
173 0 138.32 13.8737 1919 63.6477 1216.36 509.63
174 0 146.29 15.148 2216 61.7992 1216.87 510.29
175 0 148.197 13.7587 2039 64.3551 1216.95 506.8
176 0 154.31 13.5052 2084 64.274 1216.81 502.338
177 0 159.371 14.8521 2367 62.9708 1216.96 500.017
178 0 167.316 15.0553 2519 62.3696 1217.1 499.556
179 0 172.259 15.3606 2646 61.8515 1217.37 494.862
180 1 100.177 11.1902 1121 62.6789 1217.54 531.508
181 0 103.415 12.4063 1283 62.7342 1217.63 527.053
182 0 103.415 12.3966 1282 161.249 1217.62 526.911
183 0 103.415 12.4353 1286 160.639 1217.65 526.791
184 1 115.194 12.7785 1472 62.5482 1217.93 523.404
185 0 117.277 12.6624 1485 63.2795 1218.13 519.337
186 0 123.287 13.5943 1676 60.898 1217.97 515.549
187 0 123.22 12.6603 1560 62.1167 1218.18 515.964
188 0 128.222 13.0477 1673 61.9492 1218.63 513.8
189 0 135.28 13.7789 1864 61.1137 1218.57 511.871
190 0 135.242 11.8158 1598 63.4324 1218.52 508.081
191 0 143.514 12.3751 1776 62.5524 1218.72 505.894
192 1 70.176 9.36218 657 60.1355 1218.89 545.451
193 0 72.2026 10.5813 764 57.9673 1220.2 542.778
194 0 74.2004 12.2641 910 55.1484 1220.24 541.445
195 0 76.155 11.4766 874 55.349 1219.87 540.362
196 0 74.0581 10.2757 761 57.6597 1220.23 539.929
197 0 77.0836 10.4432 805 56.8994 1220.1 542.247
198 0 84.0865 12.0352 1012 55.6789 1220.46 537.482
199 0 85.085 10.1075 860 57.0279 1220.42 535.366
200 0 87.1783 10.1287 883 57.2299 1220.57 532.29
201 0 92.3094 10.8873 1005 55.1403 1220.46 532.294
202 0 97.3404 12.3587 1203 53.6185 1221.12 530.058
203 1 49.1013 8.83887 434 53.4816 1220.01 556.283
204 0 51.2018 9.04266 463 52.2981 1219.88 555.114
205 0 50.1541 9.55057 479 51.8184 1220.06 554.528
206 0 54.181 11.0186 597 50.608 1220.18 549.861
207 0 56.165 11.7867 662 49.219 1220.37 552.423
208 0 56.1097 10.7824 605 50.9868 1220.87 550.165
209 0 59.1464 10.4994 621 50.9308 1220.56 551.13
210 0 59.1978 11.7741 697 50.406 1220.89 550.083
211 0 59.1978 11.6896 692 142.267 1220.85 550.14
212 0 62.2742 11.0319 687 51.8108 1221.07 547.785
213 0 65.2011 12.6992 828 51.6618 1221.35 546.064
214 0 66.1963 12.8255 849 51.6443 1220.85 545.96
215 0 69.2203 12.6986 879 51.7361 1221.02 544.4
216 0 72.2082 12.9764 937 51.8399 1220.74 545.153
217 0 72.2656 12.1635 879 53.355 1220.63 543.59
218 0 75.3202 13.5687 1022 52.0959 1220.67 544.337
219 0 76.4176 13.2692 1014 53.1923 1220.28 540.665
220 0 79.2378 13.7813 1092 52.4286 1220.34 541.228
221 0 81.2393 12.9863 1055 53.7725 1219.72 538.252
222 0 83.5518 13.3809 1118 53.7415 1219.7 537.013
223 0 87.6133 13.2514 1161 53.8234 1219.72 535.422
224 0 89.7794 13.4663 1209 53.7502 1219.43 533.556
225 0 91.6398 14.0005 1283 53.5737 1219.6 532.956
226 0 93.6413 12.8149 1200 54.9858 1220.07 532.442
227 0 98.3698 14.4252 1419 53.2156 1219.94 532.691
228 1 53.2679 11.1324 593 54.6307 1219.48 554.069
229 0 52.1807 9.19881 480 56.7771 1219.11 555.11
230 0 54.0939 10.4448 565 54.4442 1218.43 551.92
231 0 57.2296 11.6723 668 55.3488 1218.37 553.054
232 0 59.0554 11.7855 696 54.6853 1219.69 553.037
233 0 59.1623 12.5418 742 54.9784 1218.31 550.668
234 0 62.1168 13.5873 844 53.5924 1217.71 550.66
235 0 63.2234 13.5235 855 54.0702 1217.11 548.258
236 0 64.145 13.1265 842 55.0368 1217.31 547.151
237 0 67.1194 13.0216 874 53.905 1217.48 549.098
238 0 70.297 13.6706 961 53.283 1217.4 546.861
239 0 69.1994 13.4539 931 54.363 1217.7 541.713
240 0 73.073 14.6292 1069 52.6024 1217.46 544.949
241 0 75.1104 12.7013 954 53.8899 1217.97 541.442
242 0 80.1201 14.316 1147 51.8291 1217.78 542.838
243 0 80.22 11.4311 917 55.1363 1216.89 540.851
244 0 84.2191 13.643 1149 52.3107 1217.26 542.44
245 1 49.1524 9.09416 447 52.9709 1218 559.852
246 0 48.0933 9.56474 460 53.4109 1218.57 557.874
247 0 47.0677 10.1981 480 53.0333 1218.82 557.756
248 0 48.0576 10.3834 499 53.1022 1218.39 557.375
249 0 47.0652 10.3261 486 54.1996 1217.51 555.451
250 0 51.0778 11.5706 591 51.2301 1217.42 557.65
251 0 56.1165 10.2822 577 52.8579 1217.04 555.003
252 0 57.0949 10.7891 616 52.9286 1217.59 553.101
253 0 56.1191 10.6203 596 53.854 1217.31 553.389
254 0 58.0821 12.0347 699 52.7697 1217.47 553.81
255 0 61.1627 13.8483 847 51.5159 1217.59 552.477
256 0 61.0786 12.5085 764 52.9228 1217.07 550.893
257 0 65.1199 12.5922 820 52.3134 1217.41 551.548
258 0 66.0854 12.3779 818 53.0562 1217.61 550.293
259 0 67.0699 12.8523 862 52.7923 1217.45 549.435
260 0 68.0867 12.5428 854 53.8981 1216.76 549.826
261 0 69.0925 13.4313 928 53.4343 1216.92 547.952
262 0 70.0461 13.1057 918 54.4161 1217.15 545.932
263 0 74.1578 13.1072 972 54.7356 1216.85 546.317
264 0 79.0652 13.8873 1098 52.8224 1216.89 546.21
265 0 77.0944 13.1527 1014 54.7801 1216.5 542.641
266 0 82.1357 14.0621 1155 54.3143 1216.67 542.67
267 0 84.2434 11.4312 963 56.7269 1216.64 543.273
268 0 86.1579 12.8601 1108 56.3213 1216.46 539.059
269 0 91.143 14.0877 1284 54.8442 1217.08 537.34
270 0 92.0866 12.2711 1130 57.0752 1216.69 536.981
271 0 92.0866 12.2602 1129 164.081 1215.69 536.982
272 0 99.3164 13.452 1336 55.8975 1216.89 532.298
273 0 101.266 11.9388 1209 57.3342 1217.02 530.05
274 1 54.059 10.8215 585 55.6393 1216.29 555.268
275 0 57.1207 12.5874 719 53.8108 1216.26 554.33
276 0 60.1334 12.1397 730 53.4548 1216.3 554.708
277 0 60.1502 12.3358 742 53.7439 1216.25 553.105
278 0 63.1256 14.0513 887 52.5231 1217.17 550.433
279 0 62.0791 12.6613 786 54.9618 1216.91 549.636
280 0 67.0848 13.7289 921 53.1238 1217.33 548.767
281 0 68.2135 12.5635 857 54.6686 1217.67 547.07
282 0 69.1666 13.1711 911 54.3096 1218.11 546.443
283 0 73.1815 13.0771 957 54.0146 1217.77 545.126
284 0 75.1008 13.0358 979 55.0838 1218.26 543.361
285 0 77.1502 13.2469 1022 54.4736 1218.59 543.861
286 0 79.0769 13.9484 1103 54.388 1218.37 541.972
287 0 84.138 14.9873 1261 53.4671 1218.63 538.613
288 0 89.2294 15.2528 1361 52.6209 1219.34 532.887
289 0 91.181 14.9264 1361 53.518 1218.99 535.517
290 0 92.1788 13.604 1254 55.7416 1219.26 535.944
291 1 49.0639 9.23286 453 56.9603 1219.4 557.618
292 0 50.071 10.2854 515 56.8524 1219.39 555.441
293 0 50.043 11.1304 557 55.9479 1219.41 556.485
294 0 53.0487 11.1407 591 57.2893 1219.49 551.481
295 0 57.1402 12.8806 736 55.3777 1220.19 550.368
296 0 60.071 12.9181 776 55.5503 1219.11 549.986
297 0 60.107 12.2781 738 56.8957 1218.87 549.676
298 0 63.1039 12.8835 813 55.7983 1219.3 549.541
299 0 63.1786 12.061 762 57.6535 1219.9 545.823
300 0 66.1376 13.2602 877 56.0536 1220.38 545.049
301 0 68.1401 13.4282 915 55.8317 1220.23 544.013
302 0 71.1948 13.0768 931 56.1235 1220.75 543.749
303 0 72.1194 12.9785 936 56.0449 1221.37 544.614
304 0 74.217 14.1612 1051 55.509 1221.63 542.122
305 0 76.1006 13.745 1046 55.8107 1221.46 541.31
306 0 78.2964 13.8704 1086 56.2127 1221.39 538.542
307 0 81.13 12.9052 1047 57.4584 1221.5 536.969
308 0 83.1511 13.253 1102 57.3521 1221.47 534.701
309 1 44.0456 11.1475 491 57.5336 1221.36 554.34
310 0 44.0581 11.5529 509 57.8821 1220.86 553.994
311 0 48.0691 12.6485 608 56.1859 1221.79 552.508
312 0 48.0691 12.6069 606 159.276 1222.77 552.543
313 0 50.073 12.5217 627 57.6348 1222.37 550.946
314 0 54.0191 12.8658 695 56.3755 1222.11 551.519
315 0 52.0746 12.3093 641 58.2215 1221.34 551.643
316 0 55.0452 13.0257 717 56.1186 1220.44 550.066
317 0 58.1683 12.6186 734 55.6471 1220.51 551.518
318 0 59.0386 12.7713 754 56.0716 1220.38 550.013
319 0 61.0885 13.4559 822 56.2689 1220.95 547.507
320 0 61.2111 12.5794 770 57.5987 1220.48 547.731
321 0 64.1182 12.9292 829 56.9807 1220.06 547.598
322 0 64.1319 12.6926 814 57.8759 1219.8 546.262
323 0 64.1319 12.7394 817 164.532 1219.79 546.171
324 0 69.227 13.2463 917 56.6554 1220.11 546.09
325 0 71.1859 14.1601 1008 56.0278 1220.5 544.898
326 0 71.1649 13.0963 932 57.5815 1220.44 544.002
327 0 75.1072 13.8602 1041 55.586 1220.39 545.098
328 0 75.2443 11.7617 885 58.9153 1220.36 542.816
329 0 78.1775 13.1624 1029 57.5345 1220.14 538.777
330 0 84.125 13.8365 1164 56.2766 1219.84 538.698
331 0 86.1314 14.4198 1242 55.9469 1220.18 535.976
332 0 88.1958 13.9916 1234 56.8825 1219.63 535.429
333 0 90.1083 12.6625 1141 58.9369 1219.28 532.814
334 1 48.0898 12.3935 596 58.1124 1219.4 553.847
335 0 50.022 12.5345 627 56.177 1219.35 554.737
336 0 48.0796 11.3978 548 58.5146 1219.29 553.777
337 0 53.0376 11.7841 625 57.6992 1218.95 553.608
338 0 54.0969 11.5903 627 58.4099 1218.34 553.013
339 0 57.1224 11.9043 680 56.7088 1218.5 552.034
340 0 57.0364 13.0268 743 55.5585 1218.61 552.043
341 0 60.1373 12.1223 729 56.7805 1218.51 549.779
342 0 62.0951 12.819 796 56.2161 1218.63 547.53
343 0 64.1727 14.5077 931 54.4576 1218.38 548.04
344 0 64.1685 13.184 846 56.6312 1218.45 546.935
345 0 64.2442 12.1879 783 57.7241 1218.04 547.782
346 0 70.124 12.6348 886 56.1309 1217.98 548.193
347 0 71.4334 13.2151 944 56.1134 1218.52 544.889
348 0 73.1426 14.3555 1050 55.099 1218.29 544.646
349 0 75.1893 13.2466 996 56.3815 1217.32 544.731
350 0 77.1859 13.448 1038 57.0106 1217.73 539.803
351 0 80.2574 11.2638 904 59.1471 1216.92 542.086
352 0 82.1132 13.9685 1147 56.3435 1217.19 540.498
353 0 85.1644 13.245 1128 57.2456 1216.73 541.244
354 0 88.2023 13.9679 1232 56.2419 1215.89 538.979
355 0 88.2023 13.9112 1227 163.524 1215.87 538.986
356 1 43.0634 10.0317 432 57.4907 1217.26 561.444
357 0 44.0713 10.188 449 58.3229 1217.34 559.762
358 0 47.037 12.9047 607 54.9901 1217.19 561.087
359 0 47.0387 12.4153 584 56.4281 1217.25 558.322
360 0 49.1174 12.3989 609 56.7225 1216.62 556.409
361 0 52.0555 11.9104 620 56.9081 1216 556.694
362 0 54.0735 13.0193 704 56.1449 1216.96 557.061
363 0 53.0625 12.1178 643 58.0793 1217.3 553.784
364 0 55.0665 13.5836 748 56.3369 1217.63 551.275
365 0 56.0654 13.2167 741 56.5047 1217.72 553.873
366 0 60.1264 12.9228 777 56.5959 1217.63 551.548
367 0 62.0794 12.8062 795 56.1371 1217.6 552.036
368 0 62.0863 13.5296 840 55.444 1217.81 550.457
369 0 66.1019 11.2856 746 56.9504 1218.1 550.204
370 0 67.0856 12.3872 831 56.0217 1218.46 548.611
371 0 70.1197 13.477 945 54.4667 1219.26 546.482
372 0 72.0951 13.607 981 54.3782 1219.29 544.98
373 0 73.1034 13.9939 1023 54.5425 1218.64 543.394
374 0 76.0687 12.2915 935 55.784 1218.76 543.401
375 0 76.0916 13.8912 1057 54.315 1219.25 541.758
376 0 83.1022 13.0562 1085 53.8433 1219.45 538.817
377 0 84.0458 14.0043 1177 52.7069 1219.75 537.265
378 0 86.1783 13.0543 1125 53.6418 1220.02 538.691
379 0 86.1783 13.0775 1127 154.344 1220.03 538.661
380 0 95.1935 13.6354 1298 52.3998 1220.23 536.091
381 0 96.0868 13.134 1262 53.1957 1220.72 535.304
382 0 99.148 12.8898 1278 53.2402 1220.56 534.617
383 0 102.136 12.6107 1288 53.8874 1220.83 530.967
384 1 55.1575 13.2348 730 52.5315 1221.33 551.401
385 0 56.151 12.7513 716 52.4902 1221.41 552.828
386 0 56.151 12.8048 719 156.392 1221.4 552.766
387 0 58.086 12.6192 733 53.1583 1221.31 550.064
388 0 60.0969 12.1637 731 53.7661 1221.51 549.688
389 0 61.096 12.8977 788 53.4302 1222.05 547.527
390 0 63.1191 13.6726 863 52.482 1221.54 548.015
391 0 68.1238 13.5489 923 51.3835 1221.53 546.519
392 0 69.1194 13.9324 963 51.6822 1222.17 545.454
393 0 69.1194 13.9324 963 155.705 1223.16 545.416
394 0 69.1194 13.9324 963 155.222 1224.16 545.416
395 0 77.1501 14.556 1123 50.5539 1222.21 543.425
396 0 78.1796 13.1876 1031 52.419 1222.1 538.187
397 0 79.0779 13.6574 1080 52.1343 1222.07 539.051
398 0 83.1259 14.2675 1186 51.6231 1222.25 536.142
399 0 86.1039 14.0528 1210 51.9438 1222.24 536.859
400 0 89.2553 14.2513 1272 51.3742 1222.14 532.353
401 0 92.1492 14.0967 1299 52.0377 1222.24 533.52
402 0 94.1929 14.396 1356 52.1165 1222.32 530.387
