time division length width area intensity CMx CMy
0 0 48.0554 12.9226 621 73.9501 1061.4 575.58
1 0 50.0208 13.4144 671 74.4083 1061.35 573.849
2 0 52.1139 13.7391 716 72.8897 1061.58 573.297
3 0 52.1112 13.6055 709 74.9887 1061.52 571.185
4 0 53.0692 13.7179 728 75.2651 1061.13 570.724
5 0 55.0702 12.5295 690 76.7681 1061.66 569.836
6 0 58.1304 13.0569 759 74.7233 1061.44 568.758
7 0 60.0397 13.2912 798 73.8822 1061.15 567.669
8 0 62.1233 13.2639 824 74.2816 1061.65 567.317
9 0 63.1808 13.6592 863 74.4102 1061.48 566.059
10 0 68.15 13.6757 932 74.2328 1061.48 564.519
11 0 68.0745 13.4852 918 76.0817 1061.65 562.834
12 0 70.1217 13.006 912 76.4298 1061.98 561.538
13 0 74.1607 13.4033 994 75.0624 1061.89 559.496
14 0 75.1768 13.5015 1015 75.2049 1062.21 559.057
15 1 36.0575 11.2875 407 76.4152 1061.95 578.457
16 0 36.0093 10.1363 365 77.2795 1062.01 579.047
17 0 39.044 10.962 428 75.1028 1061.33 576.715
18 0 41.0372 11.2824 463 73.0583 1061.22 576.948
19 0 43.0092 12.1602 523 71.5411 1061.75 574.451
20 0 43.0092 12.2532 527 147.994 1062.76 574.398
21 0 47.0787 12.511 589 70.5263 1061.58 573.64
22 0 47.0631 12.6851 597 70.1658 1061.43 572.938
23 0 48.0377 13.6351 655 68.9496 1062.27 573.739
24 0 51.0988 13.9534 713 68.1837 1061.96 572.397
25 0 51.0618 13.1997 674 69.7389 1061.95 571.28
26 0 53.138 13.6061 723 68.7773 1062.39 571.337
27 0 55.0545 13.3504 735 69.1088 1062.27 569.317
28 0 57.0336 12.7995 730 69.8096 1062.19 567.747
29 0 59.083 12.8463 759 70.166 1063.19 566.253
30 0 61.0934 13.553 828 68.5556 1062.86 567.26
31 0 62.0839 13.2563 823 69.8834 1063.33 566.232
32 0 62.1675 13.1419 817 70.8152 1062.76 565.419
33 0 67.0961 12.7876 858 70.7576 1063.34 564.692
34 0 70.0585 13.9169 975 68.9754 1063.16 562.107
35 0 73.0985 13.7486 1005 69.1244 1063.19 561.217
36 0 74.1101 12.9942 963 71.2586 1063.62 558.967
37 0 78.1345 13.7839 1077 69.3603 1063.25 560.403
38 0 82.1474 14.0358 1153 69.0061 1063.3 557.196
39 0 84.077 13.785 1159 69.8507 1063.04 555.304
40 1 42.0383 11.1803 470 71.5596 1062.85 576.445
41 0 45.0309 11.7031 527 70.1898 1062.82 577.002
42 0 45.0253 12.5041 563 70.4813 1062.96 575.835
43 0 47.0704 12.9593 610 70.1689 1062.78 573.667
44 0 48.0712 13.272 638 69.8605 1063.02 573.027
45 0 51.128 14.0432 718 68.0056 1063.16 572.409
46 0 53.1911 13.2165 703 68.9787 1063.73 572.057
47 0 52.1935 13.4116 700 69.8057 1063.75 571.711
48 0 53.0766 13.4146 712 71.0337 1063.34 570.841
49 0 57.0689 13.8254 789 69.384 1063.5 569.986
50 0 59.1293 13.6312 806 70.0484 1063.68 569.339
51 0 60.0315 13.6262 818 70.6773 1063.95 567.93
52 0 62.1436 13.4044 833 71.2017 1064.26 566.693
53 0 63.2514 13.7388 869 71.5224 1064.22 566.99
54 0 64.0958 14.0727 902 72.1242 1063.19 565.279
55 0 68.0865 14.7753 1006 63.6471 1063.58 564.511
56 0 71.2547 13.95 994 65.9125 1063.5 563.103
57 0 72.1483 13.7633 993 67.1067 1063.7 562.666
58 0 75.162 13.3711 1005 67.2826 1063.55 561.375
59 0 78.1848 14.2995 1118 65.8426 1063.78 559.876
60 0 81.1339 13.8906 1127 67.9601 1063.54 558.122
61 0 85.1553 14.362 1223 67.7997 1064.15 555.977
62 0 87.097 14.3518 1250 67.9208 1064.16 555.142
63 1 44.0658 11.6644 514 70.7724 1063.29 576.375
64 0 46.0865 11.6303 536 70.7388 1064.12 574.687
65 0 47.0556 13.0059 612 69.6454 1063.83 572.621
66 0 51.0855 13.7025 700 67.75 1063.75 572.103
67 0 51.0813 13.0968 669 69.2496 1064.22 570.828
68 0 52.034 13.4719 701 69.6291 1064.02 569.775
69 0 56.3102 14.3136 806 66.7481 1064.19 569.005
70 0 55.1252 14.1496 780 67.5718 1063.52 569.569
71 0 59.1603 14.3846 851 66.8026 1064.24 567.214
72 0 61.2138 14.2778 874 66.6156 1064.66 566.699
73 0 63.1511 13.7606 869 67.6053 1064.87 564.712
74 0 64.105 14.0551 901 67.4484 1064.63 562.643
75 0 66.1752 13.1016 867 68.6332 1065.24 563.824
76 0 68.099 14.5964 994 67.0221 1065.91 560.812
77 0 71.1165 13.5412 963 68.4434 1066.13 559.422
78 0 74.4643 14.2484 1061 67.4062 1065.63 558.278
79 0 76.3879 13.3791 1022 68.6937 1066.06 555.899
80 0 78.5048 14.4577 1135 67.7947 1066.29 554.037
81 0 81.5176 13.9356 1136 68.3151 1066.16 553.243
82 0 85.3258 13.97 1192 68.3104 1066.41 551.732
83 1 42.3137 13.0218 551 68.9365 1066.62 571.724
84 0 44.388 12.5935 559 70.39 1067.14 569.968
85 0 45.399 12.4232 564 70.9344 1067.07 569.667
86 0 47.4977 12.927 614 69.7427 1067.2 568.847
87 0 47.273 12.9884 614 69.8274 1067.13 567.73
88 0 50.245 12.7973 643 67.6905 1067.37 566.306
89 0 53.2869 13.3804 713 65.0252 1067.88 564.742
90 0 53.2869 13.3992 714 159.361 1068.87 564.634
91 0 56.1949 13.3464 750 69.876 1068.25 562.235
92 0 58.2422 13.8388 806 72.0943 1068.61 560.944
93 0 60.3225 14.1241 852 69.331 1068.46 560.863
94 0 62.2766 14.5159 904 68.8175 1069.03 557.129
95 0 65.4224 14.1695 927 66.8565 1069.24 556.223
96 0 67.2373 14.0547 945 66.8677 1069.4 555.389
97 0 68.2912 13.1349 897 91.7703 1068.93 554.683
98 0 70.4163 13.832 974 66.3737 1068.4 553.431
99 0 76.4188 14.2635 1090 64.8128 1068.07 552.518
100 0 77.4311 13.9737 1082 67.6331 1068.21 550.094
101 0 79.5517 13.3749 1064 70.8675 1068.86 548.249
102 0 83.6046 14.1619 1184 68.6731 1068.57 545.78
103 1 44.3621 10.9553 486 69.2037 1068.25 566.874
104 0 45.3833 11.8986 540 70.5444 1068.71 564.074
105 0 47.3738 12.6019 597 69.2596 1068.54 563.603
106 0 49.3863 13.1413 649 69.433 1069.1 561.236
107 0 50.2745 13.108 659 71.0546 1068.82 561.381
108 0 51.2069 12.5569 643 73.9533 1068.75 561.835
109 0 55.188 13.6805 755 68.6689 1069.4 559.31
110 0 56.2707 11.729 660 69.5773 1069.07 559.918
111 0 58.2536 12.9606 755 66.1099 1069.12 557.956
112 0 59.3232 12.5752 746 67.0322 1069.38 555.992
113 0 63.2942 13.4609 852 65.9026 1069.74 555.299
114 0 65.3984 14.0065 916 66.2664 1069.33 554.367
115 0 67.3151 13.6819 921 66.8002 1069.16 553.333
116 0 71.2768 13.7492 980 67.6071 1069.09 551.102
117 0 72.2063 13.3091 961 68.1363 1069.68 551.604
118 0 75.391 12.8132 966 68.8799 1069.3 549.047
119 0 78.3142 13.5735 1063 67.4854 1069.2 548.802
120 0 82.2811 14.2074 1169 66.2558 1069.04 547.722
121 0 83.2829 13.6883 1140 67.4658 1069.08 545.442
122 0 85.1517 13.3292 1135 68.4405 1068.91 542.269
123 1 44.1216 9.67779 427 68.0492 1067.59 565.443
124 0 47.0575 10.7528 506 66.5711 1067.42 564.385
125 0 48.0219 10.5993 509 65.5914 1067.12 563.709
126 0 50.0615 13.1039 656 62.6387 1067.33 562.232
127 0 50.0753 13.1801 660 63.5773 1067.9 562.383
128 0 51.0369 12.3244 629 64.3784 1068.3 560.669
129 0 53.0707 12.229 649 64.3236 1067.89 560.524
130 0 56.06 11.559 648 65.0077 1067.31 560.753
131 0 57.0547 12.6545 722 63.9806 1068.39 558.745
132 0 59.0209 12.4702 736 64.2867 1068.42 558.378
133 0 60.0463 13.3064 799 63.6283 1068.73 556.84
134 0 62.0806 12.6771 787 64.5947 1068.99 556.694
135 0 65.0628 12.2497 797 65.0025 1068.37 556.391
136 0 65.123 11.8084 769 66.4551 1068.06 554.404
137 0 69.1534 13.9256 963 63.0831 1067.74 553.63
138 0 69.1966 13.0209 901 65.0544 1067.77 552.556
139 0 73.1444 13.1657 963 64.7321 1067.39 549.833
140 0 77.1196 14.1469 1091 62.4986 1067.23 550.33
141 0 77.1484 12.5861 971 65.4089 1067.16 547.055
142 0 81.1219 12.512 1015 64.8305 1067.15 547.105
143 0 83.107 12.3094 1023 65.828 1066.69 543.977
144 0 86.1116 12.4141 1069 65.5921 1066.63 544.484
145 0 88.2636 11.9868 1058 65.7098 1066.72 543.801
146 0 90.1351 12.5478 1131 65.4067 1066.8 540.011
147 0 92.2228 11.9059 1098 66.4608 1066.94 538.819
148 1 52.1118 9.07664 473 65.7061 1066.54 561.649
149 0 54.1481 11.4131 618 64.4304 1066.76 559.477
150 0 56.0855 10.2879 577 65.5147 1067.5 557.995
151 0 59.1529 11.969 708 63.952 1067.29 558.158
152 0 61.2443 11.0704 678 64.7802 1067.16 558.065
153 0 60.1645 12.3993 746 64.189 1067.28 556.666
154 0 63.1675 11.6357 735 64.7007 1067.33 556.219
155 0 63.1132 11.9785 756 65.0397 1067.12 554.439
156 0 64.0562 10.8811 697 66.5983 1066.25 555.099
157 0 68.1733 12.3362 841 64.6052 1066.73 553.137
158 0 70.1848 12.1964 856 64.5596 1066.04 553.262
159 0 74.1561 12.3523 916 62.9716 1066.58 552.302
160 0 75.1311 12.2053 917 64.0534 1066.61 549.695
161 0 77.1224 11.7476 906 64.8609 1066.59 546.036
162 0 82.1436 13.5373 1112 61.491 1067.02 548.294
163 0 85.2001 12.4296 1059 63.6091 1066.98 543.207
164 0 87.2727 12.2948 1073 64.0848 1067.49 542.62
165 0 91.3842 13.2627 1212 62.7467 1067.68 540.734
166 0 94.3835 13.0319 1230 62.8423 1067.59 540.151
167 1 51.0637 10.0267 512 64.1113 1067.16 562.502
168 0 53.0855 10.6244 564 64.539 1067.67 560.241
169 0 55.0463 11.2996 622 63.1013 1068.05 559.59
170 0 57.0664 11.3727 649 63.4268 1068.13 557.459
171 0 57.0664 11.4078 651 150.376 1068.12 557.429
172 0 61.0823 12.6387 772 61.5674 1068.14 554.001
173 0 63.0337 12.2316 771 61.5253 1068.13 556.381
174 0 66.1461 13.7121 907 60.1918 1068 554.607
175 0 67.1305 13.6898 919 60.3319 1068.12 552.946
176 0 70.1036 13.209 926 60.7235 1068.63 551.303
177 0 73.1055 13.2001 965 60.344 1068.29 551.476
178 0 73.1466 12.4681 912 62.4189 1068.94 548.175
179 0 78.0557 13.516 1055 60.4161 1069.17 548.25
180 0 80.1127 12.7071 1018 61.8251 1069.82 545.967
181 0 82.1173 13.7121 1126 61.3748 1069.58 543.77
182 0 85.1699 13.0328 1110 62.5505 1070.04 543.522
183 0 87.1461 13.2651 1156 62.3313 1069.87 542.223
184 0 91.105 13.8302 1260 61.5444 1070.1 541.21
185 0 92.1167 12.9618 1194 63.0888 1069.99 540.049
186 1 50.066 10.7458 538 63.6654 1069.75 559.946
187 0 51.0742 11.5322 589 61.966 1070 558.396
188 0 55.0548 11.9881 660 61.3682 1070.43 557.539
189 0 54.0591 11.284 610 63.0213 1070.24 556.902
190 0 55.0189 11.6142 639 64.4601 1070.4 556.152
191 0 56.0354 11.1715 626 66.6693 1070.28 556.064
192 0 58.0724 13.4315 780 63.7192 1070.98 554.428
193 0 62.0761 13.4996 838 61.4845 1070.93 553.261
194 0 62.0528 14.0364 871 59.8243 1070.85 555.188
195 0 67.0719 14.7006 986 58.1734 1071.1 553.907
196 0 66.1201 13.2184 874 62.6659 1071.12 552.343
197 0 66.0575 13.1401 868 64.3618 1071.32 550.842
198 0 68.074 13.3972 912 64.7621 1071.41 550.429
199 0 71.0905 13.8978 988 64.3128 1071.45 549.046
200 0 73.0435 12.9786 948 65.8861 1072.06 548.736
201 0 73.1371 13.6456 998 65.48 1072.01 546.228
202 0 77.0826 13.8034 1064 65.5329 1072.2 543.619
203 0 79.133 13.2183 1046 66.8145 1072.12 544.533
204 0 81.1294 13.3614 1084 67.6236 1072.53 543.791
205 0 87.0978 14.5239 1265 65.3115 1072.82 541.528
206 0 89.1176 13.5776 1210 67.7174 1072.6 539.35
207 0 92.3015 12.925 1193 68.2188 1072.69 538.849
208 1 48.0495 10.843 521 67.1209 1072.18 561.271
209 0 51.0753 11.2383 574 66.9355 1072.49 559.873
210 0 50.0124 10.9373 547 68.4186 1072.22 558.132
211 0 53.0807 11.2847 599 66.3406 1072.07 558.275
212 0 53.0589 12.2317 649 67 1072.05 556.667
213 0 55.064 12.0587 664 66.4217 1071.75 557.053
214 0 59.0274 12.8754 760 64.6908 1071.97 555.754
215 0 60.0609 12.5539 754 65.4271 1071.08 554.143
216 0 61.1407 11.7761 720 66.3292 1070.87 554.092
217 0 62.0572 12.0534 748 66.254 1071.17 553.198
218 0 64.2056 13.3478 857 64.7585 1070.88 550.415
219 0 67.1075 12.6364 848 65.2241 1070.55 551.039
220 0 70.198 14.3451 1007 62.7527 1070.35 550.06
221 0 69.3621 13.134 911 65.3875 1069.93 547.577
222 0 72.2845 12.2018 882 66.661 1069.65 547.279
223 0 74.1629 12.9984 964 66.2261 1069.65 545.936
224 0 75.2212 12.6693 953 66.8185 1069.41 545.037
225 0 77.2783 13.7814 1065 66.1408 1069.66 542.386
226 0 81.1808 12.8602 1044 66.8084 1069.29 544.762
227 0 83.2385 13.7316 1143 66.175 1069.76 541.369
228 0 87.2018 13.5548 1182 65.9146 1069.76 540.853
229 0 87.1919 13.7857 1202 66.2063 1069.33 537.852
230 0 92.1689 14.4734 1334 64.9685 1069.33 537.549
231 1 46.084 9.80817 452 66.7013 1069 562.069
232 0 48.1601 10.9219 526 66.3536 1069.27 560.23
233 0 49.1412 11.6603 573 66.0087 1069.54 559.236
234 0 50.1402 12.0861 606 65.5149 1069.48 558.743
235 0 54.1066 12.9744 702 64.3775 1069.6 557.729
236 0 55.0436 12.4447 685 66.2511 1069.71 558.473
237 0 56.0299 12.6897 711 66.5823 1069.57 556.61
238 0 57.0623 12.8982 736 66.7255 1069.17 556.662
239 0 58.0216 12.323 715 67.7483 1069.35 554.881
240 0 60.0803 13.4487 808 66.1002 1069.25 555.322
241 0 62.1436 13.1791 819 66.0476 1069.42 554.657
242 0 64.1008 13.0108 834 66.4496 1068.75 554.079
243 0 66.1192 13.5815 898 65.6626 1068.47 553.712
244 0 69.0563 13.8003 953 65.1952 1069.33 551.526
245 0 70.1507 13.2857 932 66.0976 1069.4 550.659
246 0 75.0912 14.7021 1104 62.9194 1069.4 549.782
247 0 76.268 13.8066 1053 64.3552 1069.38 549.5
248 0 78.1668 13.6887 1070 64.7449 1068.91 548.084
249 0 81.2522 13.2919 1080 64.6898 1069.16 547.346
250 0 84.1645 13.2479 1115 64.8547 1069.63 543.85
251 0 86.1915 12.8087 1104 65.3741 1069.22 544.043
252 0 88.0616 12.9796 1143 64.9571 1069.03 542.627
253 0 91.1734 13.6005 1240 64.1677 1068.76 541.101
254 1 48.0582 10.8826 523 63.9522 1068.97 562.824
255 0 51.1085 9.54831 488 63.6557 1068.91 564.615
256 0 51.1108 11.5631 591 62.9442 1068.93 560.629
257 0 55.0719 11.712 645 62.0403 1068.75 560.887
258 0 55.059 11.8782 654 63.0443 1067.81 558.338
259 0 57.0663 12.9323 738 61.042 1067.42 559.694
260 0 57.0412 10.5713 603 64.5489 1067.49 559.108
261 0 61.0422 12.647 772 61.5207 1068.05 557.394
262 0 63.1501 13.1908 833 61.2797 1068.21 555.27
263 0 65.0691 13.1245 854 61.2822 1067.98 555.514
264 0 67.1048 12.1303 814 61.8587 1067.91 556.773
265 0 69.0934 13.1272 907 61.2304 1067.88 554.508
266 0 72.0404 12.2848 885 63.0621 1067.62 551.908
267 0 74.1521 12.5013 927 63.4121 1067.71 550.625
268 0 77.2264 13.0655 1009 62.5709 1067.03 550.846
269 0 76.1065 12.3248 938 64.4243 1067.83 547.51
270 0 80.1265 12.9919 1041 63.3775 1068.29 546.547
271 0 81.1023 12.2808 996 64.4026 1068.39 545.698
272 0 86.1766 12.7645 1100 63.5809 1068.28 543.069
273 0 90.3622 12.6048 1139 63.1905 1067.79 541.435
274 1 47.2666 10.1975 482 63.0788 1067.14 563.139
275 0 51.3193 11.068 568 62.0951 1067.76 560.891
276 0 52.0884 10.4054 542 63.1587 1068.42 561.812
277 0 55.0606 12.4045 683 61.0395 1068.44 560.029
278 0 55.1235 10.9209 602 62.5847 1068.09 560.414
279 0 57.129 11.8504 677 62.3323 1068.35 558.864
280 0 57.0418 11.4828 655 63.5511 1069.32 556.386
281 0 61.0716 12.2807 750 61.6973 1069.2 557.179
282 0 61.0469 12.4658 761 62.3824 1069.5 555.852
283 0 62.1165 12.4122 771 62.9948 1069.59 553.641
284 0 64.092 13.4026 859 62.2014 1069.58 551.576
285 0 67.1128 13.0676 877 60.9065 1069.2 552.513
286 0 68.1115 12.8025 872 61.867 1069.53 549.144
287 0 72.1902 13.3952 967 60.7384 1070.12 548.294
288 0 71.3957 12.97 926 62.135 1069.86 547.184
289 0 75.2958 12.9356 974 61.4271 1070.02 546.062
290 0 76.4369 12.5855 962 62.3264 1069.97 545.648
291 0 78.4272 12.6359 991 62.1685 1070.21 543.275
292 0 81.2293 14.4406 1173 60.029 1070.61 540.489
293 0 83.1684 12.6971 1056 62.1089 1070.4 540.871
294 0 85.307 12.2733 1047 62.4881 1070.53 538.266
295 0 90.2716 13.3264 1203 60.9684 1070.81 535.776
296 0 93.2808 13.915 1298 60.1202 1070.88 533.057
297 0 97.3034 13.9255 1355 59.9129 1071.17 531.737
298 1 50.0443 10.0711 504 61.4067 1071.22 555.331
299 0 53.0273 10.1646 539 60 1071.02 557.093
300 0 51.0851 10.0421 513 61.7524 1071.03 553.327
301 0 56.0518 10.5795 593 59.5835 1071.46 555.11
302 0 58.0494 12.5238 727 57.7235 1071.53 551.938
303 0 59.0846 12.0844 714 58.4636 1072.05 552.751
304 0 62.1306 12.9083 802 57.5636 1072.34 552.797
305 0 62.1611 11.7598 731 58.2873 1072.24 553.268
306 0 64.1253 12.5068 802 57.6209 1072.43 551.01
307 0 67.258 12.6528 851 57.2503 1072.67 548.716
308 0 70.2269 13.9263 978 55.1697 1073.02 549.646
309 0 71.1297 12.8779 916 56.9105 1072.72 546.181
310 0 72.1797 12.0533 870 57.8172 1072.37 546.833
311 0 74.1465 12.9338 959 56.9864 1072.64 545.448
312 0 78.2213 13.0911 1024 56.3447 1072.68 546.031
313 0 77.1365 12.5621 969 57.6925 1073.09 543.934
314 0 81.3525 12.0955 984 57.7571 1072.84 544.092
315 0 84.1474 13.5595 1141 56.5846 1072.48 540.605
316 0 86.1845 12.2876 1059 57.8234 1072.73 540.17
317 0 87.0642 12.8641 1120 57.2964 1072.57 538.63
318 0 92.2423 13.3236 1229 56.76 1072.52 537.693
319 0 96.3371 13.7019 1320 55.6803 1072.69 537.614
320 0 97.1804 13.6653 1328 56.4134 1071.9 534.505
321 1 53.1633 9.53665 507 57.2722 1072.4 557.609
322 0 53.1297 9.35447 497 58.0805 1071.97 556.183
323 0 57.1208 10.3815 593 56.7352 1071.99 556.438
324 0 59.0339 11.7729 695 55.695 1072.42 555.075
325 0 61.0327 13.927 850 53.7871 1071.96 553.466
326 0 61.0754 12.3945 757 55.7741 1072.27 553.343
327 0 62.1159 11.3014 702 56.9729 1072.42 552.088
328 0 64.0832 12.671 812 55.8522 1072.42 551.282
329 0 68.1247 13.079 891 55.6061 1072.63 548.321
330 0 70.0832 11.7717 825 56.8339 1071.95 547.354
331 0 73.0772 13.7663 1006 54.9076 1071.73 547.829
332 0 75.0245 12.9558 972 56.5103 1071.1 545.993
333 0 77.1498 13.4025 1034 56.2495 1071.01 546.379
334 0 80.0666 12.8893 1032 57.5252 1071.06 542.596
335 0 84.128 13.7529 1157 56.4114 1070.68 543.893
336 0 87.1257 13.5436 1180 57.0364 1070.69 541.424
337 0 89.1738 12.6607 1129 58.3552 1070.97 539.83
338 1 49.1211 11.6243 571 57.2995 1071.05 561.961
339 0 51.0336 12.4036 633 56.7409 1070.78 560.114
340 0 51.1097 11.9547 611 58.6383 1070.52 558.843
341 0 49.1054 10.2433 503 61.7594 1069.59 558.964
342 0 53.0975 12.5806 668 58.5898 1068.74 557.509
343 0 56.0469 11.8115 662 59.4003 1068.89 558.494
344 0 58.0812 13.6877 795 57.6113 1069.11 556.122
345 0 58.1228 12.8521 747 59.5515 1068.23 555.238
346 0 59.0474 12.0581 712 60.691 1068.26 555.126
347 0 62.066 13.0667 811 59.2244 1068.61 555.901
348 0 64.0471 14.2239 911 58.6026 1068.19 553.302
349 0 66.1873 13.5676 898 59.6971 1067.62 552.578
350 0 67.1173 14.199 953 58.6915 1067.7 553.008
351 0 71.2341 13.224 942 60.517 1066.4 551.102
352 0 72.155 13.5126 975 60.7887 1067.11 550.193
353 0 75.1804 13.3013 1000 60.904 1066.19 549.885
354 1 39.1106 10.4575 409 62.5526 1065.46 566.152
355 0 39.0673 10.2899 402 63.5025 1066.22 566.132
356 0 41.0277 11.1876 459 62.8954 1065.52 566.174
357 0 45.0646 11.0508 498 62.9478 1065.9 564.763
358 0 44.083 12.2723 541 62.4566 1065.69 564.891
359 0 45.033 12.1245 546 62.2271 1066.09 564.189
360 0 48.0217 12.182 585 62.2547 1066.02 563.61
361 0 48.0565 13.1928 634 61.9385 1066.49 562.262
362 0 47.1267 12.5407 591 63.9188 1067.84 562.469
363 0 50.1213 13.0882 656 63.5396 1068.09 560.352
364 0 51.084 13.468 688 63.2064 1068.07 559.653
365 0 53.0489 12.8372 681 64.1747 1068.23 560.382
366 0 53.0556 13.2314 702 65.2407 1068.73 558.617
367 0 55.058 13.1134 722 65.1413 1067.94 559.596
368 0 55.1342 13.0228 718 66.4568 1068.38 558.545
369 0 57.0784 12.9296 738 66.9377 1068.54 556.822
370 0 63.1551 14.6623 926 63 1069.01 556.546
371 0 62.1155 13.7486 854 65.7073 1069.35 554.744
372 0 66.0797 13.4383 888 65.7128 1070.16 553.203
373 0 66.0534 13.0652 863 67.0753 1069.89 552.299
374 0 70.1345 14.1728 994 65.3753 1070.14 550.54
375 0 73.0863 13.4909 986 65.3925 1070.14 551.987
376 1 37.0883 10.7042 397 65.8917 1069.34 567.829
377 0 40.0347 11.8647 475 64.5095 1070.08 566.316
378 0 41.1042 11.6047 477 64.5828 1070.42 564.658
379 0 43.0406 12.5463 540 62.663 1070.15 564.448
380 0 42.025 11.8739 499 64.2866 1070.64 562.431
381 0 44.1567 12.9992 574 61.7927 1071.22 562.845
382 0 46.1863 11.7134 541 63.2163 1071.23 562.599
383 0 47.0796 12.8506 605 62.6083 1071.43 560.279
384 0 49.1085 12.8898 633 62.346 1071.53 559.395
385 0 49.1091 12.3806 608 63.352 1071.31 560.012
386 0 50.034 11.792 590 63.8339 1072.03 559.134
387 0 52.0877 13.8612 722 60.8961 1072.02 558.289
388 0 53.0738 12.7558 677 61.7061 1072.03 558.499
389 0 55.0246 13.1214 722 61.4086 1071.83 556.799
390 0 55.0525 11.8614 653 63.6447 1072.6 556.94
391 0 56.1329 13.5571 761 62.4008 1072.24 552.913
392 0 60.0459 12.607 757 62.1863 1072.82 554.634
393 0 62.1017 14.0415 872 60.2798 1073.23 553.268
394 0 64.0361 12.6647 811 61.4353 1072.82 553.879
395 0 63.0576 13.2577 836 61.3971 1073.58 550.834
396 0 67.0245 13.2937 891 60.8462 1073.18 549.552
397 0 67.0842 13.0284 874 61.484 1073.54 547.794
398 0 70.1451 13.8855 974 60.2197 1073.75 547.678
399 0 72.0502 14.1568 1020 59.6892 1074.2 545.866
400 0 74.2155 13.4473 998 60.7756 1073.97 545.268
401 0 77.2253 13.0009 1004 61.2908 1073.94 542.565
402 0 81.2932 12.7932 1040 60.6894 1074.08 543.336
