time division length width area intensity CMx CMy
0 0 55.1936 13.045 720 75.0153 212.026 562.157
1 0 55.2192 13.1476 726 75.741 212.146 562.302
2 0 57.1337 12.707 726 77.3609 212.187 560.921
3 0 61.195 13.3998 820 76.0122 212.156 559.345
4 0 61.0854 12.8345 784 76.2628 211.606 558.904
5 0 65.177 14.1001 919 72.716 211.651 556.257
6 0 67.1487 12.5691 844 74.7441 211.563 556.128
7 0 68.2146 13.4429 917 73.2105 211.427 555.474
8 0 69.2022 12.5574 869 75.1634 212.155 555.417
9 0 72.2555 13.6599 987 74.1145 212.468 553.24
10 0 75.2691 13.3521 1005 75.6876 212.589 551.363
11 0 78.2255 13.5889 1063 75.5569 212.579 551.068
12 0 81.2187 13.5683 1102 75.3639 212.852 548.636
13 1 42.1853 10.525 444 75.045 212.088 569.36
14 0 43.2091 10.183 440 76.3795 212.584 567.905
15 0 45.1763 11.8868 537 74.0261 212.136 566.385
16 0 47.1296 12.455 587 73.3441 211.889 564.843
17 0 47.2435 12.2557 579 72.9102 212.254 564.489
18 0 47.2166 11.9238 563 72.0249 212.231 565.588
19 0 51.2432 12.0016 615 71.0439 213.046 563.538
20 0 51.1579 12.6471 647 70.9675 212.743 562.249
21 0 53.2553 12.0364 641 70.8783 212.616 562.142
22 0 56.2746 12.3324 694 70.4078 212.225 561.476
23 0 58.3173 12.5177 730 70.1836 212.592 562.082
24 0 59.348 12.5699 746 70.6582 212.294 560.432
25 0 62.3159 12.2601 764 71.2343 212.245 559.353
26 0 65.2755 13.2209 863 69.7961 212.242 557.002
27 0 66.2596 13.0396 864 70.3565 212.188 556.552
28 0 69.2174 13.9994 969 68.8916 212.708 554.273
29 0 72.2867 13.1975 954 70.1709 212.996 553.507
30 0 74.2453 12.984 964 71.138 212.865 551.367
31 1 41.1633 9.88744 407 71.688 211.826 569.666
32 0 43.0941 11.2776 486 71.251 211.955 567.407
33 0 43.1552 10.7056 462 71.5303 212.379 568.106
34 0 46.216 10.9269 505 71.598 213.014 566.604
35 0 47.1402 11.8158 557 69.5673 212.853 565.496
36 0 48.1776 11.4784 553 69.7902 213.248 564.678
37 0 50.1562 11.6636 585 69.0171 212.935 564.966
38 0 51.2121 12.8876 660 67.8591 213.041 562.424
39 0 52.1473 12.062 629 69.3768 213.024 562.056
40 0 53.211 12.2907 654 68.4297 213.482 562.185
41 0 55.1932 12.1211 669 67.9895 213.535 561.291
42 0 57.1534 11.8453 677 67.8021 213.502 561.592
43 0 57.2535 12.2089 699 67.4907 213.518 560.339
44 0 61.2333 12.0686 739 66.9188 213.8 559.562
45 0 61.1753 12.1127 741 67.0297 213.455 559.91
46 0 65.2435 13.0281 850 65.7847 214.038 557.336
47 0 66.2007 13.3987 887 65.5558 214.086 556.914
48 0 68.17 12.4542 849 66.5524 213.81 557.796
49 0 70.1035 12.7668 895 66.9318 214.398 553.08
50 0 71.2244 12.2711 874 67.5572 214.426 553.435
51 0 75.1939 13.0729 983 66.7141 214.629 553.051
52 0 77.2598 12.8527 993 67.568 214.575 552.16
53 0 80.1483 13.1132 1051 66.9819 214.138 551.35
54 1 38.114 9.49783 362 69.4669 212.685 569.401
55 0 43.0826 10.9325 471 60.0382 212.89 568.992
56 0 44.0858 10.3208 455 61.5319 212.982 568.952
57 0 45.153 10.9627 495 60.1616 213.121 567.558
58 0 47.148 11.2412 530 60.0472 213.87 566.345
59 0 48.1702 11.0649 533 61.6173 214 565.758
60 0 48.3438 11.3769 550 61.4691 213.944 565.665
61 0 49.2544 11.9989 591 62.0863 214.288 563.02
62 0 51.1613 10.7308 549 63.1421 214.02 563.9
63 0 54.3045 11.5092 625 61.5728 213.336 561.949
64 0 55.2775 11.5056 636 62.0283 214.052 561.697
65 0 58.2063 12.7306 741 59.9892 214.124 558.951
66 0 60.1995 11.2792 679 61.9499 214.233 558.773
67 0 61.2226 12.234 749 60.6115 215.096 558.168
68 0 62.1749 12.883 801 60.638 215.356 557.101
69 0 64.2883 12.3662 795 59.9145 215.093 556.717
70 0 67.1488 13.4031 900 57.9911 215.002 556.741
71 0 67.2336 12.6425 850 59.6376 215.275 552.866
72 0 69.2284 12.8849 892 58.9652 215.135 552.831
73 0 74.2446 12.9302 960 58.274 215.195 550.688
74 0 73.1554 12.658 926 59.0486 215.359 549.744
75 0 76.3131 12.5011 954 59.2715 215.808 546.215
76 0 80.2882 12.2434 983 59.2004 216.157 545.282
77 0 83.1845 13.4039 1115 57.8762 216.484 543.464
78 1 46.1399 9.68793 447 57.1387 215.584 565.306
79 0 46.1901 9.50421 439 57.0068 215.738 565.854
80 0 48.0852 10.7102 515 56.5515 215.922 562.924
81 0 47.0776 11.6404 548 56.3266 215.814 561.31
82 0 51.0508 11.5571 590 56.5729 216.583 560.08
83 0 52.1685 12.0763 630 56.2762 217.419 559.122
84 0 52.1629 11.6366 607 57.6096 217.364 558.216
85 0 54.184 11.9223 646 57.6316 217.161 556
86 0 56.1698 12.124 681 56.6079 217.436 556.486
87 0 57.2017 12.2199 699 56.3705 217.744 555.392
88 0 60.1635 12.3164 741 54.8313 218.173 552.825
89 0 61.2803 13.2506 812 53.5603 218.245 552.212
90 0 64.2296 13.2493 851 53.3231 218.468 553.383
91 0 63.2676 12.8028 810 59.0802 219.254 551.873
92 0 65.233 12.739 831 61.8953 219.468 549.075
93 0 68.2193 12.7823 872 61.0975 219.322 547.997
94 0 69.1472 12.7988 885 60.7898 219.341 546.847
95 0 71.1324 12.8212 912 58.9035 220.189 544.374
96 0 75.0771 13.7059 1029 56.9796 219.721 543.008
97 0 79.1816 14.4478 1144 78.8505 219.337 543.58
98 0 80.1996 12.8305 1029 57.3605 218.892 541.047
99 0 82.1603 13.2667 1090 57.1872 218.639 539.587
100 0 85.2424 12.3882 1056 59.536 219.23 536.408
101 0 89.1695 12.9416 1154 59.6057 219.313 539.25
102 1 47.0648 10.0712 474 58.1245 217.766 558.08
103 0 50.0586 11.087 555 57.3153 218.146 556.364
104 0 51.1869 10.784 552 59.1522 218.768 555.777
105 0 51.1282 11.0115 563 60.4263 218.952 553.6
106 0 54.0392 11.1771 604 60.9536 219.675 552.265
107 0 54.1207 11.5483 625 62.4368 219.144 552.786
108 0 57.2013 11.748 672 63.9509 220.19 551.887
109 0 55.1564 12.5461 692 61.6864 220.075 550.285
110 0 58.1704 12.5665 731 56.9535 219.532 550.391
111 0 61.2798 13.4139 822 55.2944 219.637 548.557
112 0 62.22 12.5844 783 56.9604 220.04 547.81
113 0 64.2982 13.5307 870 56.5885 219.986 547.715
114 0 65.2377 14.2096 927 57.0054 219.668 546.699
115 0 68.2724 12.5673 858 58.0711 219.474 546.134
116 0 69.1367 13.4082 927 58.4671 219.796 544.139
117 0 71.2355 13.2939 947 59.2334 219.793 542.837
118 0 75.1235 13.1783 990 59.5667 219.79 541.278
119 0 76.2786 14.4339 1101 58.5195 219.449 541.996
120 0 80.2267 14.0477 1127 58.6362 219.533 539.185
121 0 83.3623 13.7112 1143 58.8889 219.203 539.656
122 0 87.2981 14.2958 1248 58.5809 218.947 535.024
123 0 88.2314 13.2719 1171 60.3783 218.865 534.794
124 1 47.3128 9.95503 471 60.3461 218.023 558.142
125 0 46.2219 11.3799 526 60.2034 218.614 555.375
126 0 50.2376 11.4854 577 58.6274 218.049 557.21
127 0 50.1629 12.2401 614 59.2606 217.381 554.572
128 0 52.0854 12.4603 649 58.0555 217.27 555.322
129 0 54.2115 12.3959 672 58.6354 218.141 552.037
130 0 56.2192 12.5224 704 58.25 217.371 552.24
131 0 57.1181 11.3449 648 60.3426 217.965 550.648
132 0 59.2104 13.1227 777 58.5122 218.138 551.167
133 0 61.263 12.0791 740 59.3514 217.926 551.842
134 0 63.1139 12.8815 813 58.6458 218.188 549.481
135 0 65.1952 12.3169 803 59.5791 217.827 549.344
136 0 66.236 12.229 810 60.1827 217.77 545.811
137 0 68.1771 13.5089 921 59.1107 217.583 546.202
138 0 71.1991 12.0507 858 61.2587 217.277 545.097
139 0 73.1408 12.2914 899 61.228 216.737 545.327
140 0 76.2012 14.6454 1116 58.5403 217.307 541.731
141 0 77.0713 12.7674 984 60.9553 217.237 541.742
142 0 79.118 14.194 1123 60.3001 217.538 539.932
143 0 82.0873 13.7658 1130 61.2894 217.515 537.632
144 0 86.1968 13.7592 1186 61.4283 217.239 536.586
145 0 89.1159 13.7574 1226 61.7684 217.363 536.396
146 1 48.0809 11.3351 545 62.1853 216.484 556.58
147 0 48.0741 9.69338 466 64.8906 216.303 556.803
148 0 51.1526 11.495 588 63.2993 216.503 554.774
149 0 52.0567 11.5835 603 64.1774 216.552 553.491
150 0 56.0941 12.7643 716 62.2109 217.021 552.859
151 0 56.0789 12.9282 725 62.4193 217.065 552.257
152 0 59.2086 12.7008 752 62.012 217.096 552.585
153 0 58.1611 10.9351 636 65.0519 217.129 552.642
154 0 60.1895 12.3111 741 63.1417 217.69 550.372
155 0 62.1522 12.4211 772 63.5246 217.332 549.365
156 0 64.1463 12.9548 831 62.4103 217.052 550.389
157 0 66.1992 13.3083 881 62.3927 217.515 547.953
158 0 70.12 12.7638 895 62.1832 216.591 547.466
159 0 72.2342 13.9823 1010 60.5208 217.257 545.035
160 0 75.1221 13.2318 994 61.2887 216.971 545.067
161 0 78.1329 14.3473 1121 60.0196 217.136 541.74
162 0 79.1267 12.5621 994 62.0302 217.246 541.591
163 0 82.2342 13.0481 1073 61.48 217.249 538.865
164 1 44.1143 9.65673 426 60.9085 216.549 559.817
165 0 44.0947 11.2712 497 59.2897 217.066 560.008
166 0 45.1433 11.0758 500 59.592 217.666 558.648
167 0 49.1202 11.5024 565 59.0566 217.724 558.506
168 0 48.2841 11.8673 573 60.8901 217.956 556.59
169 0 50.2339 12.1631 611 60.8625 218.705 556.241
170 0 53.2279 12.6625 674 59.4629 218.779 553.72
171 0 53.1964 12.5384 667 60.1664 218.652 551.412
172 0 55.2192 12.061 666 60.6366 218.868 551.45
173 0 57.1522 12.003 686 60.5773 218.573 551.144
174 0 59.2616 11.3227 671 61.6811 218.648 549.37
175 0 61.3404 13.1724 808 59.6262 219.254 547.869
176 0 63.157 12.2235 772 60.1179 218.881 547.345
177 0 65.218 12.7879 834 59.3297 219.156 546.677
178 0 68.3089 13.3218 910 58.7516 219.23 544.837
179 0 69.2207 12.6263 874 59.865 219.526 544.184
180 0 71.1636 12.6048 897 59.8161 219.778 541.971
181 0 73.1359 12.2102 893 61.243 219.558 541.788
182 0 77.2141 13.0676 1009 60.1229 219.836 540.852
183 0 78.2858 12.3649 968 61.5579 219.804 537.791
184 1 42.1783 10.1237 427 60.9133 219.478 557.098
185 0 43.2315 9.0212 390 62.4769 219.995 556.467
186 0 46.1858 11.6486 538 59.4833 220.478 553.197
187 0 47.1931 11.0186 520 60.2827 220.877 553.438
188 0 49.1335 11.7232 576 59.7431 220.444 552.366
189 0 49.1593 10.9237 537 59.8436 220.633 552.628
190 0 53.2323 11.8349 630 58.7841 220.833 550.313
191 0 53.1858 11.8077 628 60.1783 221.288 549.473
192 0 56.1204 11.7961 662 59.9592 221.606 548.873
193 0 57.1684 12.6293 722 57.5582 221.843 547.44
194 0 58.1221 13.3512 776 55.3183 221.729 548.473
195 0 59.1187 12.2635 725 56.7628 221.917 545.732
196 0 61.1925 11.7008 716 58.398 222.007 545.229
197 0 63.2797 13.5746 859 56.6671 222.042 543.006
198 0 65.4183 13.0239 852 57.5798 222.403 542.732
199 0 67.2806 12.1878 820 58.7195 222.621 541.621
200 0 69.283 11.8355 820 58.5512 222.501 541.321
201 0 71.2945 12.7359 908 58.0055 222.956 539.32
202 0 72.1828 12.0804 872 58.7385 223.049 539.058
203 0 76.384 13.3536 1020 57.2529 222.88 538.049
204 0 79.2513 12.9588 1027 58.2833 222.881 536.747
205 0 83.3312 13.6804 1140 57.4404 223.367 534.304
206 0 85.3291 12.024 1026 60.3528 223.107 531.725
207 1 44.2519 9.5589 423 59.669 223.272 554.626
208 0 48.3956 10.0216 485 59.1485 222.897 553.031
209 0 47.2153 9.8485 465 59.7247 222.692 551.989
210 0 49.3336 10.6824 527 58.8767 222.233 551.548
211 0 51.2331 10.7743 552 58.5362 221.824 550.328
212 0 52.1689 11.3094 590 57.5729 221.902 549.98
213 0 53.1129 12.031 639 56.3521 221.394 549.067
214 0 55.0993 13.2125 728 55.0041 221.356 549.896
215 0 53.2058 11.1642 594 58.9024 220.776 549.315
216 0 56.2571 12.1051 681 57.4699 221.985 547.656
217 0 57.2575 11.6491 667 58.3223 221.933 547.481
218 0 57.2628 10.8622 622 59.8971 221.477 547.543
219 0 60.2743 12.1279 731 58.2052 221.019 546.748
220 0 62.365 12.7475 795 57.4063 220.633 545.904
221 0 64.3776 11.883 765 58.6314 220.655 544.429
222 0 68.3844 11.7571 804 58.3905 220.525 543.939
223 0 69.3185 12.3921 859 58.3492 220.445 543.019
224 0 70.3399 12.4254 874 59.0355 220.757 540.937
225 0 74.3513 13.1941 981 58.2029 220.215 540.601
226 0 74.3079 12.9865 965 59.6528 220.484 538.949
227 0 79.2938 13.5319 1073 59.1072 220.932 536.714
228 0 81.4153 12.9951 1058 59.7344 220.419 538.145
229 0 84.5358 13.8285 1169 59.4919 220.125 535.375
230 0 86.4104 13.1697 1138 61.1037 220.793 533.541
231 0 89.3715 13.0579 1167 61.8081 220.768 534.333
232 0 92.2877 13.252 1223 62.2674 220.061 533.336
233 0 93.4531 12.1772 1138 63.9649 219.976 531.796
234 0 95.3631 13.5377 1291 62.6336 219.9 530.132
235 0 100.372 14.9345 1499 61.5477 219.696 528.149
236 0 102.554 14.5094 1488 61.963 219.868 527.845
237 0 104.825 13.5654 1422 63.7243 219.571 525.071
238 0 109.579 12.9496 1419 64.907 219.096 524.352
239 0 113.331 13.5621 1537 63.3448 219.098 523.176
240 1 61.2399 12.3939 759 61.3333 218.964 549.544
241 0 64.2121 12.3808 795 61.2943 219.152 548.639
242 0 65.2967 12.65 826 61.1961 219.487 546.923
243 0 64.2184 10.2307 657 62.8752 219.035 547.639
244 0 67.1836 11.1039 746 62.5684 219.075 546.054
245 0 71.2415 12.4927 890 61.2775 219.693 544.897
246 0 72.2468 12.7618 922 61.8785 219.458 544.097
247 0 75.2821 13.0974 986 60.9473 219.314 543.46
248 0 77.2703 12.9675 1002 60.9142 219.259 542.761
249 0 79.2865 13.4575 1067 61.0469 219.5 539.396
250 0 81.3706 13.4324 1093 61.3257 219.53 539.227
251 0 83.3247 13.4414 1120 61.8071 219.443 539.63
252 0 86.4309 13.2476 1145 61.8943 219.168 537.603
253 0 87.4919 12.8698 1126 63.3517 219.348 535.092
254 0 90.3418 12.818 1158 63.0423 218.75 534.103
255 0 94.2466 13.1676 1241 62.1878 218.793 534.94
256 0 95.2111 12.8872 1227 63.4417 218.452 531.579
257 0 99.2711 12.9444 1285 63.2864 218.284 529.174
258 0 104.173 13.7559 1433 61.5855 218.291 529.174
259 0 107.488 13.2666 1426 62.1816 218.145 527.861
260 0 109.216 13.7709 1504 62.0578 217.807 525.446
261 1 59.0718 10.3772 613 61.416 216.966 552.794
262 0 61.1411 10.9746 671 60.4918 216.739 550.38
263 0 63.0847 11.2864 712 60.3778 216.74 551.34
264 0 63.2414 11.1794 707 61.232 217.264 551.011
265 0 65.1893 12.2719 800 60.7 217.434 547.516
266 0 66.1938 10.7261 710 63.6775 217.22 547.02
267 0 69.1785 12.634 874 61.6659 217.183 545.997
268 0 69.2748 12.2267 847 63.3648 217.348 544.43
269 0 72.1866 12.2322 883 63.077 217.792 544.04
270 0 75.2356 12.8131 964 62.3869 217.825 543.096
271 0 79.314 12.7216 1009 62.0733 218.002 540.883
272 0 81.3087 12.5448 1020 62.8353 217.329 539.313
273 0 82.2282 13.3044 1094 62.383 217.575 538.745
274 0 84.2338 13.6881 1153 61.9376 217.583 538.127
275 0 87.2349 12.0938 1055 64.4607 217.616 536.243
276 0 90.1789 12.9964 1172 63.7381 218.123 534.866
277 0 91.2248 13.1982 1204 63.9585 217.897 533.842
278 0 95.2741 12.7422 1214 64.5107 218.054 533.105
279 0 99.2215 13.3136 1321 64.1014 217.974 531.245
280 1 50.0556 10.6482 533 63.7355 217.094 553.525
281 0 53.0695 10.5145 558 63.6864 217.149 553.83
282 0 54.0465 11.083 599 63.1002 217.461 552.119
283 0 57.0489 11.4463 653 62.4839 217.787 551.467
284 0 59.3358 12.1175 719 61.6495 218.868 549.588
285 0 60.1848 12.9435 779 61.1451 219.085 548.307
286 0 62.2474 11.888 740 62.2797 218.986 548.212
287 0 64.2061 11.6811 750 62.7493 219.223 546.591
288 0 65.1359 12.3588 805 61.4596 219.391 546.647
289 0 69.2047 12.5281 867 61.1257 219.937 543.058
290 0 69.1402 12.7278 880 61.1966 219.917 544.41
291 0 71.1307 13.0183 926 61.3898 220.054 541.987
292 0 74.1667 12.782 948 62.1656 220.371 540.347
293 0 75.0937 13.0237 978 61.8793 220.342 540.478
294 0 79.1664 12.7832 1012 61.918 220.828 538.508
295 0 82.1336 13.0519 1072 61.9869 220.856 535.741
296 0 83.22 13.1218 1092 62.2491 220.722 535.012
297 0 88.241 13.8938 1226 61.3442 221.19 533.113
298 0 88.0935 13.2132 1164 63.1289 221.428 530.023
299 0 93.2322 12.6566 1180 63.2559 221.707 528.895
300 1 55.0916 10.2556 565 61.8372 220.952 551.598
301 0 56.3348 10.0648 567 62.3104 221.146 550.951
302 0 56.1369 10.4566 587 62.937 220.86 548.078
303 0 59.1639 10.3948 615 62.2211 221.974 548.712
304 0 60.1607 10.4553 629 63.0334 221.501 545.949
305 0 63.0981 10.7927 681 62.8106 221.608 545.153
306 0 64.1395 12.3169 790 60.8848 222.078 543.386
307 0 66.1637 12.4388 823 60.0547 222.92 542.611
308 0 68.1751 12.0279 820 60.0488 222.727 542.948
309 0 68.1869 12.6124 860 60.2756 223.141 540.866
310 0 74.2166 13.0698 970 58.6289 222.472 538.853
311 0 74.2253 11.9366 886 60.6501 222.317 538.736
312 0 76.099 13.1014 997 59.7603 222.607 535.784
313 0 79.16 12.5063 990 60.1061 222.557 535.755
314 0 81.1759 13.2429 1075 58.9637 222.88 534.674
315 0 84.1473 12.2761 1033 60.3233 223.265 531.788
316 0 86.1441 12.1541 1047 61.0735 222.538 530.279
317 0 88.2151 13.3651 1179 60.0314 223.356 526.838
318 0 89.251 11.8542 1058 61.5756 223.587 524.169
319 1 45.0456 9.52369 429 59.7646 223.606 547.382
320 0 49.027 10.688 524 59.958 221.935 549.506
321 0 49.0704 10.7804 529 60.7958 221.945 548.181
322 0 51.0549 11.9871 612 59.1454 221.964 548.575
323 0 53.2338 10.9517 583 59.1218 222.928 548.386
324 0 54.1903 11.4781 622 58.7749 222.728 548.215
325 0 56.2045 12.3656 695 57.4763 222.291 547.961
326 0 59.1224 11.7553 695 58.0288 222.894 546.226
327 0 59.3026 11.298 670 58.2388 223.207 546.125
328 0 60.1217 12.5412 754 57.0066 223.227 546.365
329 0 62.2733 12.6057 785 56.7172 223.231 542.876
330 0 66.2483 13.7664 912 55.2478 223.23 542.323
331 0 66.2386 13.0589 865 56.3584 222.424 543.304
332 0 67.1901 12.0851 812 57.3202 222.443 542.557
333 0 69.1274 13.3088 920 55.8261 222.11 542.625
334 0 72.131 12.3803 893 56.7301 222.203 540.378
335 0 73.2018 12.8139 938 56.4584 222.188 538.957
336 0 77.44 13.0294 1009 55.1952 221.821 538.759
337 0 78.2619 13.557 1061 55.5061 222.104 537.104
338 1 42.2659 9.86612 417 56.5156 221.779 555.137
339 0 44.3524 10.4617 464 55.9698 221.552 554.994
340 0 44.3277 10.3321 458 56.9367 221.76 553.664
341 0 46.1744 9.52908 440 57.8136 221.589 554.009
342 0 46.336 10.726 497 56.8008 221.093 552.38
343 0 50.3119 11.0511 556 55.8022 220.088 553.52
344 0 51.2746 11.5262 591 54.5161 220.267 549.907
345 0 52.268 11.6324 608 54.9095 219.421 549.418
346 0 54.4498 11.8458 645 54.6667 220.236 549.13
347 0 56.2311 12.5376 705 54.4227 219.861 549.81
348 0 57.1658 11.213 641 55.3495 218.743 550.944
349 0 58.1454 12.1248 705 54.8241 218.296 548.169
350 0 61.2407 12.7693 782 54.633 217.85 546.559
351 0 61.1918 11.7826 721 55.7864 217.219 546.669
352 0 65.2112 13.5099 881 54.0874 216.936 544.588
353 0 64.2865 11.9776 770 56.4987 216.556 543.939
354 0 68.2442 12.8509 877 55.2452 216.366 543.834
355 0 71.1498 13.6191 969 54.4747 216.89 543.609
356 0 73.2512 13.9656 1023 54.6364 216.649 542.234
357 0 74.2514 12.2018 906 56.6159 217.231 540.382
358 0 74.219 13.0021 965 56.4694 216.866 541.532
359 0 78.3898 13.2543 1039 55.948 218.015 540.813
360 0 80.2743 13.2047 1060 56.6651 218.147 537.794
361 0 83.4043 12.7451 1063 57.3227 218.031 537.111
362 0 84.3924 13.9231 1175 56.8638 218.763 535.507
363 0 89.4864 13.164 1178 57.236 218.514 533.083
364 0 91.265 14.3648 1311 56.2319 218.991 534.33
365 0 93.3525 13.7222 1281 57.2521 218.793 531.836
366 0 98.3334 14.4813 1424 56.6559 218.748 529.643
367 0 100.227 13.3696 1340 58.3873 218.96 526.949
368 0 103.16 13.6778 1411 57.922 218.809 527.717
369 1 55.2027 10.6154 586 58.4846 218.227 549.833
370 0 57.0524 10.9724 626 58.0288 218.26 550.323
371 0 59.0464 12.3293 728 56.6277 218.374 548.518
372 0 60.1734 13.3614 804 55.1331 219.266 549.184
373 0 63.1918 13.3562 844 55.16 219.339 547.608
374 0 64.1665 13.2468 850 56.18 220.029 545.654
375 0 67.2724 14.1811 954 54.695 220.027 545.15
376 0 67.2111 13.4799 906 55.1965 219.805 543.87
377 0 69.2447 12.9107 894 55.8423 219.705 542.841
378 0 72.1682 13.4962 974 55.4815 219.793 542.331
379 0 74.3152 12.7027 944 56.8803 220.361 539.167
380 0 79.2795 13.7614 1091 55.4079 220.129 538.505
381 0 80.2049 13.5902 1090 56.5734 220.75 537.522
382 0 81.3306 12.8734 1047 57.5817 221.002 537.78
383 0 84.2248 13.2265 1114 57.4829 220.627 534.276
384 0 88.1638 14.0761 1241 56.751 220.952 534.068
385 0 89.2515 12.941 1155 58.8961 220.771 532.334
386 0 92.2511 13.4307 1239 58.5432 220.933 529.082
387 0 97.2611 14.168 1378 57.3157 221.107 529.938
388 0 100.464 13.6367 1370 58.5365 221.238 527.828
389 1 53.1695 10.2126 543 59.3812 221.044 550.435
390 0 56.2715 11.0536 622 58.6158 221.322 549.799
391 0 58.2519 11.7078 682 57.9941 221.616 548.836
392 0 60.3539 12.0953 730 58.7055 221.879 547.025
393 0 61.2028 12.1563 744 59.2688 222.247 545.704
394 0 64.2704 13.0387 838 57.4332 222.394 545.016
395 0 66.2896 13.4561 892 57.5404 222.941 543.967
396 0 65.3522 12.6086 824 59.5097 222.924 542.625
397 0 70.3142 12.3304 867 59.5732 223.343 541.573
398 0 72.4653 12.5439 909 59.0946 223.766 540.702
399 0 74.4548 13.2161 984 58.4837 223.664 539.541
400 0 75.5593 12.8376 970 59.0278 224.327 537.879
401 0 79.4218 13.6864 1087 58.4296 224.282 534.45
402 0 82.5436 12.9144 1066 59.0122 223.98 534.549
