time division length width area intensity CMx CMy
0 0 47.1768 12.5697 593 75.8904 1145.68 576.105
1 0 48.0897 13.2669 638 76.3746 1145.52 574.616
2 0 51.1704 13.5821 695 76.0892 1146 574.295
3 0 51.2274 13.5669 695 77.7755 1146.01 572.647
4 0 54.1341 13.485 730 76.6466 1146.13 571.855
5 0 56.0972 13.5479 760 76.65 1146.07 571.649
6 0 56.1052 13.3143 747 77.5877 1146.06 570.281
7 0 61.2664 14.3961 882 74.4887 1146.06 568.68
8 0 62.0972 13.6238 846 76.9894 1146.43 568.843
9 0 63.2348 14.0903 891 78.0629 1146.38 567.171
10 0 66.1189 13.6572 903 79.5138 1146.9 566.401
11 0 69.111 13.9631 965 78.9192 1146.97 566.253
12 0 71.1592 13.6736 973 80.1716 1146.62 563.83
13 1 35.0453 11.3853 399 80.9048 1146.06 581.078
14 0 35.0641 11.7499 412 82.4223 1145.83 579.291
15 0 37.0469 12.0928 448 79.6562 1146.43 580.261
16 0 40.0187 12.5691 503 78.833 1146.7 579.386
17 0 40.0222 12.568 503 80.159 1146.12 577.316
18 0 41.1869 12.6011 519 79.4605 1147.17 577.501
19 0 43.1351 13.0288 562 78.5747 1146.99 576.415
20 0 44.2108 13.0737 578 79.1142 1147.41 576.531
21 0 45.1955 13.3199 602 78.9585 1147.34 574.646
22 0 47.2048 12.7953 604 78.7003 1147.37 574.566
23 0 50.3138 13.0382 656 77.5061 1147.77 574.213
24 0 48.4505 12.8379 622 79.9228 1147.43 573.121
25 0 53.1602 13.6568 726 76.8471 1147.79 572.871
26 0 52.236 13.4199 701 78.3367 1147.81 571.308
27 0 55.2124 13.7288 758 77.8747 1148.28 569.595
28 0 56.2334 14.0308 789 77.1065 1147.74 569.422
29 0 59.3408 13.5826 806 77.8102 1147.93 567.809
30 0 61.1951 13.5632 830 78.2892 1148.07 566.549
31 0 65.2267 13.5221 882 77.5215 1148.29 566.227
32 0 68.0688 14.0887 959 76.6955 1148.45 564.387
33 0 67.151 13.6856 919 78.7497 1148.61 563.037
34 0 71.0633 13.5091 960 78.3563 1148.6 562.698
35 0 72.0666 13.432 968 79.376 1148.63 561.037
36 0 78.0965 13.9571 1090 76.9174 1148.75 559
37 1 40.0236 11.5182 461 79.4425 1148.23 577.067
38 0 41.0606 11.1543 458 80.9869 1148.47 575.736
39 0 42.0807 12.7612 537 78.5661 1148.36 575.35
40 0 46.1255 11.924 550 78.9945 1148.53 574.382
41 0 46.0648 13.112 604 78.0927 1149 571.864
42 0 47.0988 12.5481 591 78.6954 1148.85 572.453
43 0 49.0461 13.1917 647 77.1113 1148.45 571.76
44 0 52.0814 13.7285 715 75.2126 1148.75 571.309
45 0 52.0662 13.2716 691 75.7815 1149.6 570.632
46 0 55.0121 12.8699 708 76.0904 1149.2 569.189
47 0 56.1814 13.1538 739 75.4357 1149.15 568.118
48 0 58.1362 13.4512 782 74.2545 1149.01 567.444
49 0 59.1048 13.2138 781 74.7401 1148.96 567.079
50 0 60.0667 13.5849 816 74.299 1148.29 565.515
51 0 65.135 13.8175 900 72.4711 1148.72 564.769
52 0 66.1389 13.26 877 72.9361 1148.73 563.219
53 0 67.1674 13.8311 929 72.676 1148.25 561.406
54 0 70.2618 14.6025 1026 63.2086 1147.71 559.177
55 0 72.1819 13.7153 990 65.5939 1147.94 557.932
56 0 75.1516 14.0649 1057 65.6093 1148.3 556.515
57 0 75.1516 13.9984 1052 154.779 1149.3 556.471
58 0 80.3062 14.7187 1182 64.0998 1148.61 552.329
59 0 83.2348 14.0927 1173 65.3734 1148.47 552.692
60 0 85.2229 14.1746 1208 65.7392 1148.71 551.315
61 0 89.1793 14.297 1275 66.1992 1148.79 548.784
62 0 91.2964 14.1846 1295 67.2093 1148.87 546.125
63 1 47.3767 12.2423 580 68.0845 1148.08 570.903
64 0 47.2747 11.4438 541 70.0943 1148.3 569.558
65 0 50.2954 11.8898 598 69.2592 1148.72 568.706
66 0 53.104 12.7862 679 68.6244 1148.66 566.757
67 0 55.192 13.4259 741 68.0135 1149.08 565.757
68 0 55.192 13.4259 741 171.821 1150.08 565.757
69 0 59.2613 13.7695 816 67.3554 1149.58 563.864
70 0 59.2835 13.8318 820 68.111 1149.78 563.941
71 0 62.2518 13.8149 860 68.0291 1150.14 562.702
72 0 65.3253 14.0987 921 67.3702 1150.29 560.541
73 0 66.2494 14.5662 965 67.0881 1150.32 559.683
74 0 69.2381 13.923 964 68.5166 1150.36 558.443
75 0 72.1848 14.546 1050 67.3086 1150.93 556.933
76 0 75.2069 13.8817 1044 68.2126 1150.99 554.939
77 0 77.0984 13.8005 1064 68.6316 1151.22 554.09
78 0 79.0554 13.1427 1039 69.9528 1150.96 552.179
79 0 82.1722 14.3601 1180 68.5263 1151.56 550.204
80 0 86.1095 14.5164 1250 67.7272 1151.56 549.801
81 0 89.1402 14.5726 1299 67.8337 1151.9 546.681
82 0 89.1468 14.0779 1255 69.2845 1152.17 546.712
83 0 95.0709 14.5155 1380 68.1848 1152.72 544.007
84 0 97.1303 14.4342 1402 68.7746 1152.9 543.273
85 0 101.079 14.9587 1512 67.5933 1153.21 540.947
86 1 52.1014 11.5928 604 69.3195 1153.27 565.182
87 0 52.0952 11.4214 595 70.4487 1153.34 563.318
88 0 54.0556 12.1541 657 68.7793 1153.56 563.079
89 0 57.0355 11.2737 643 69.1882 1153.58 560.838
90 0 61.0674 12.4944 763 66.6946 1153.49 559.962
91 0 60.0558 13.2543 796 68.9296 1153.75 558.607
92 0 62.1054 13.0745 812 70.0456 1153.86 558.326
93 0 63.0939 13.5671 856 69.6846 1153.83 554.759
94 0 67.0618 13.1521 882 67.5884 1154.01 556.49
95 0 70.1062 13.3797 938 66.4488 1154.18 553.334
96 0 72.127 12.5473 905 67.0287 1154.35 552.767
97 0 75.0687 12.7483 957 91.3354 1154.27 552.294
98 0 77.1692 13.4898 1041 65.6561 1154.15 548.946
99 0 81.0675 12.6561 1026 65.9727 1153.98 549.69
100 0 82.0901 13.2781 1090 67.1642 1154.37 547.228
101 1 43.032 11.9446 514 65.8191 1154.51 564.514
102 0 43.0254 10.18 438 67.4635 1154.71 564.575
103 0 45.1311 10.4141 470 69.6511 1154.96 562.713
104 0 49.1182 11.1771 549 69.2495 1154.93 561.197
105 0 49.1074 12.0552 592 68.3429 1155.22 562.015
106 0 51.0401 11.8142 603 69.9171 1155.55 559.836
107 0 51.0979 13.1512 672 68.9777 1155.51 559.24
108 0 55.0802 13.7255 756 66.713 1155.09 558.824
109 0 56.0465 13.5602 760 66.5053 1155.47 556.104
110 0 58.1894 13.078 761 66.9159 1155.53 556.675
111 0 59.0877 12.4391 735 69.2612 1154.87 554.624
112 0 60.2413 12.8981 777 68.9562 1154.91 554.336
113 0 63.1083 13.6274 860 67.5 1154.88 552.97
114 0 63.148 13.793 871 67.6602 1155.2 552.879
115 0 66.1577 12.7272 842 70.0784 1155 549.266
116 0 70.0794 13.1993 925 69.0411 1154.97 550.341
117 0 70.088 12.7269 892 71.0818 1154.87 548.672
118 0 74.1215 13.5183 1002 70.016 1154.61 549.078
119 0 77.0618 13.5346 1043 70.092 1154.37 547.865
120 0 82.1512 13.609 1118 69.6825 1154.35 546.728
121 0 81.1993 13.707 1113 70.1132 1154.43 545.518
122 0 87.0712 13.8507 1206 68.9585 1154.58 543.428
123 0 89.1919 13.8017 1231 69.7238 1155.01 540.725
124 0 91.16 13.3392 1216 70.2393 1154.53 541.944
125 0 93.1809 12.9426 1206 71.0614 1154.65 538.107
126 1 49.0732 10.5353 517 68.087 1154.32 562.567
127 0 47.0348 9.46109 445 70.9281 1153.92 561.36
128 0 51.0924 10.8431 554 69.4242 1153.97 560.44
129 0 52.2167 11.3182 591 70.2234 1154.29 560.658
130 0 54.1679 12.1843 660 68.597 1154.16 559.148
131 0 55.1738 12.5059 690 67.8304 1153.87 558.562
132 0 57.1917 11.6975 669 69.858 1153.23 559.55
133 0 61.1735 12.6689 775 67.1716 1153.02 558.578
134 0 63.1856 12.8985 815 66.9902 1153 556.253
135 0 64.2116 12.3965 796 68.8015 1153.02 554.27
136 0 66.0717 13.3037 879 68.1047 1152.42 552.92
137 0 67.0858 12.1486 815 71.2687 1152.33 550.025
138 0 71.0198 13.0527 927 69.343 1152.67 551.638
139 0 74.0995 13.6708 1013 68.6614 1152.39 549.68
140 0 76.1158 13.6897 1042 69.0211 1152.26 547.959
141 0 79.1123 12.6908 1004 70.7171 1151.99 547.648
142 0 80.0816 12.0752 967 72.1148 1152.27 547.632
143 0 85.2151 13.859 1181 68.9534 1152.1 546.495
144 1 40.017 9.29605 372 73.4301 1151.54 567.831
145 0 44.0923 10.4327 460 71.8978 1152.36 566.383
146 0 45.1532 10.6083 479 73 1151.88 564.741
147 0 47.1377 11.0739 522 71.7989 1152.38 564.128
148 0 49.2374 11.3735 560 71.3893 1152.3 563.768
149 0 48.243 11.2141 541 71.4473 1152.46 562.266
150 0 49.0842 11.2867 554 71.583 1152.62 561.014
151 0 51.1757 12.6036 645 71.3209 1152.88 561.947
152 0 52.1498 12.3874 646 72.065 1153 560.238
153 0 55.1503 12.6201 696 71.1149 1152.75 560.899
154 0 54.2197 12.2465 664 73.5437 1153.34 559.389
155 0 58.2807 13.4521 784 70.213 1153.57 559.941
156 0 59.2522 12.3033 729 72.4156 1153.85 558.746
157 0 63.287 11.5031 728 72.5618 1153.9 558.166
158 0 64.2091 12.8954 828 70.907 1153.83 556.37
159 0 68.2651 13.345 911 69.6641 1153.82 554.269
160 0 69.2701 13.5556 939 70.5559 1153.6 554.529
161 0 70.1931 13.3916 940 71.7904 1153.58 553.288
162 0 72.2351 13.1515 950 72.3958 1153.67 551.488
163 0 76.1723 13.3251 1015 71.2099 1153.29 549.718
164 0 78.1829 12.9696 1014 72.4132 1153.29 548.486
165 0 80.1528 12.9004 1034 71.9729 1153.72 547.424
166 1 39.1164 9.81686 384 73.7474 1152.34 566.01
167 0 39.0211 9.14889 357 73.4706 1152.97 564.742
168 0 41.0376 11.4285 469 69.0149 1153.76 564.74
169 0 41.0627 10.5692 434 71.8664 1153.55 564.002
170 0 43.0732 11.4224 492 70.6585 1153.82 560.561
171 0 45.0407 12.1668 548 70.2628 1154.16 563.619
172 0 45.0904 11.8429 534 71.1648 1153.89 562.691
173 0 47.0186 12.1229 570 70.7105 1154.18 561.186
174 0 49.0349 12.5829 617 70.1297 1154.12 560.958
175 0 47.0359 12.246 576 71.408 1154.48 560.788
176 0 50.0344 12.5314 627 70.4083 1154.76 558.707
177 0 52.0928 13.5143 704 68.2969 1155.74 557.401
178 0 54.2412 13.0159 706 69.0411 1156 557.288
179 0 54.1572 13.1654 713 69.1795 1155.64 557.212
180 0 57.154 13.6998 783 68.0128 1155.89 556.72
181 0 57.079 12.8068 731 70.4679 1155.98 554.685
182 0 59.0856 13.4889 797 69.0339 1155.96 554.262
183 0 59.0369 13.3306 787 70.1588 1155.68 552.235
184 0 62.0793 13.9016 863 68.4484 1156.48 553.194
185 0 62.1152 13.5555 842 70.677 1156.25 551.281
186 0 65.0415 13.5452 881 69.9262 1156.81 550.149
187 0 67.0565 13.6303 914 69.372 1156.8 548.218
188 0 66.1519 12.4864 826 71.6889 1157 545.763
189 0 72.1306 13.531 976 69.2387 1156.93 545.358
190 0 73.224 13.0968 959 70.4724 1157.15 544.123
191 0 78.1304 13.6694 1068 69.0197 1157.16 542.961
192 1 42.038 12.2508 515 69.833 1157.55 561.74
193 0 42.0392 11.9175 501 68.5369 1157.63 561.912
194 0 44.0734 11.9119 525 68.0229 1157.71 559.556
195 0 46.2456 13.1472 608 65.074 1158.36 558.013
196 0 46.2456 13.1472 608 158.265 1158.36 558.013
197 0 49.0816 12.4079 609 65.9064 1157.88 557.056
198 0 49.1248 12.5802 618 67.4676 1157.98 557.437
199 0 52.1774 14.0291 732 65.8128 1157.71 555.126
200 0 52.4362 12.8728 675 68.4385 1158 554.753
201 0 54.2763 13.0628 709 68.2144 1158.16 553.876
202 0 57.3244 13.38 767 67.1917 1157.96 554.003
203 0 57.1961 13.952 798 66.9712 1157.78 552.39
204 0 60.2271 13.2831 800 67.9988 1157.76 551.495
205 0 62.2645 14.1814 883 66.3975 1157.97 551.327
206 0 64.0865 14.1839 909 67.4048 1158.01 549.774
207 0 65.3786 13.3377 872 68.8567 1158.05 549.273
208 0 68.1533 14.2766 973 67.9065 1158.35 547.403
209 0 70.1151 13.92 976 68.8699 1158.09 545.557
210 0 72.3786 13.8024 999 69.7037 1158.07 545.077
211 0 75.3713 14.13 1065 68.9746 1157.97 543.503
212 0 75.1487 12.7614 959 72.2304 1157.54 543.8
213 0 80.533 13.659 1100 70.5355 1157.67 543.494
214 0 82.224 13.6578 1123 70.9083 1157.66 541.045
215 1 43.1555 11.5165 497 71.4105 1157.33 560.441
216 0 42.1378 11.32 477 72.7778 1157.15 560.218
217 0 45.0551 12.1407 547 71.7148 1156.65 559.344
218 0 46.0322 12.1219 558 71.2509 1156.32 560.832
219 0 50.0312 13.9113 696 67.7902 1156.26 558.364
220 0 49.0506 13.0885 642 70.9128 1155.26 559.304
221 0 49.0875 12.0397 591 73.1337 1155.21 558.599
222 0 53.071 14.0943 748 68.9439 1155.1 557.525
223 0 53.1643 13.2232 703 70.5832 1155 557.09
224 0 56.0721 13.8572 777 69.1184 1155.26 556.296
225 0 57.0928 13.6445 779 69.6046 1155.07 554.255
226 0 58.076 13.6545 793 70.0757 1154.8 553.554
227 0 58.076 13.6373 792 163.561 1153.83 553.489
228 0 61.052 13.3657 816 70.6814 1154.39 552.743
229 0 63.147 14.0149 885 69.9695 1154.78 551.167
230 0 66.0677 14.0916 931 68.9044 1154.77 551.892
231 0 69.1395 14.0296 970 68.6392 1154.68 551.779
232 0 68.1035 14.1843 966 70.7443 1154.41 548.627
233 0 72.1042 13.6746 986 71.285 1154.63 548.79
234 0 75.1105 13.58 1020 70.7275 1154.39 548.959
235 0 78.0745 14.832 1158 69.1054 1154.54 546.288
236 0 80.0956 14.1081 1130 70.6796 1154.62 544.619
237 0 82.1234 13.5284 1111 72.0396 1154.36 543.389
238 0 86.1359 14.2565 1228 71.3363 1154.29 542.242
239 0 89.1767 14.0956 1257 71.5879 1154.38 540.177
240 1 48.0646 11.0892 533 69.6473 1153.79 563.306
241 0 48.074 11.1079 534 71.7584 1153.33 560.386
242 0 52.1944 12.1277 633 69.5197 1153.17 559.035
243 0 53.0795 12.7356 676 68.3787 1153.01 560.061
244 0 55.1662 12.5802 694 68.8833 1153.35 559.592
245 0 54.152 12.0217 651 71.298 1153.4 559.389
246 0 56.0743 11.5918 650 71.1923 1153.08 559.608
247 0 60.1778 12.7622 768 69.4492 1153.26 555.935
248 0 62.1506 12.872 800 69.495 1153.46 555.754
249 0 64.1517 12.034 772 70.6399 1153.45 555.177
250 0 66.1894 12.706 841 69.3413 1153.43 555.413
251 0 69.1212 13.0351 901 69.5117 1153.51 553.151
252 0 70.0653 12.6882 889 70.0787 1153.53 551.654
253 0 72.2339 12.7226 919 70.6931 1153.72 550.581
254 0 76.1032 13.3766 1018 69.5255 1153.8 550.294
255 0 78.2332 13.153 1029 69.8192 1154.2 549.404
256 0 80.1555 12.4882 1001 71.022 1154.02 547.484
257 0 83.2777 12.1521 1012 72.2945 1153.86 544.757
258 0 85.2905 13.0144 1110 71.7568 1154.14 543.555
259 1 47.1494 10.4561 493 70.57 1154.04 566.919
260 0 48.2592 11.1896 540 69.7741 1153.43 565.407
261 0 50.1837 10.7007 537 71.2886 1153.45 564.51
262 0 52.1627 11.6367 607 70.6112 1153.1 562.45
263 0 51.1075 11.5639 591 71.3503 1152.29 563.279
264 0 54.2264 10.9909 596 71.4698 1152.07 561.93
265 0 57.1238 12.1315 693 69.6364 1152.08 560.605
266 0 58.1503 11.7798 685 71.3314 1152.14 561.073
267 0 59.2039 11.2662 667 72.94 1152.23 559.895
268 0 59.2103 11.6534 690 72.8362 1152.61 558.593
269 0 62.193 11.4 709 73.103 1152.86 557.233
270 0 65.2472 12.2611 800 71.935 1153.38 555.776
271 0 67.2922 12.364 832 71.7608 1153.57 554.981
272 0 68.3165 12.164 831 72.3538 1153.43 555.449
273 0 69.2713 11.3611 787 74.7243 1153.53 552.236
274 0 74.2587 12.2141 907 72.839 1153.64 552.01
275 0 75.2812 12.6326 951 72.6982 1154.13 549.707
276 0 79.3491 12.8168 1017 72.6047 1154.25 548.112
277 1 44.3121 9.86187 437 74.2426 1154.12 566.808
278 0 44.1451 9.83122 434 73.8065 1154.32 567.203
279 0 46.0803 11.5885 534 71.7584 1154.24 565.464
280 0 48.1042 11.4959 553 72.4286 1154.8 563.461
281 0 48.0714 11.5037 553 72.5298 1154.81 563.707
282 0 50.0369 11.1318 557 71.9013 1154.6 561.587
283 0 51.0395 11.834 604 69.6374 1154.18 562.099
284 0 54.0363 11.8254 639 69.2613 1154.18 561.754
285 0 56.0637 11.6296 652 68.8037 1154.19 560.824
286 0 55.1303 11.3549 626 70.2332 1154.84 559.613
287 0 59.0812 12.8129 757 67.037 1154.51 559.573
288 0 60.1176 11.5274 693 69.5051 1154.72 557.423
289 0 62.1362 12.5853 782 67.7468 1155.05 555.196
290 0 63.178 11.5705 731 69.42 1155.61 553.602
291 0 66.053 12.1266 801 69.1298 1155.65 553.65
292 0 68.1719 11.9697 816 69.3934 1156.43 551.685
293 0 68.1719 11.9991 818 165.289 1157.43 551.587
294 0 71.2796 12.7666 910 67.9044 1156.94 548.943
295 0 74.2152 13.3935 994 66.7907 1157.03 548.282
296 0 77.221 12.3801 956 68.069 1157.14 546.633
297 1 41.1016 10.0726 414 68.413 1156.28 563.884
298 0 43.1256 10.597 457 68.1225 1156.29 562.354
299 0 45.0595 10.1643 458 68.0939 1156.91 562.354
300 0 46.1467 11.2251 518 67.3919 1157.28 561.319
301 0 47.1202 11.2903 532 66.735 1157.2 562.639
302 0 49.0694 12.2683 602 66.1545 1157.37 560.633
303 0 49.1098 12.5026 614 65.8111 1157.99 559.264
304 0 51.1396 12.1628 622 65.8923 1157.54 558.13
305 0 52.0662 11.7735 613 66.7847 1158 556.705
306 0 55.093 13.4681 742 63.4043 1158.06 554.453
307 0 56.1299 12.2751 689 65.0755 1158.01 555.697
308 0 56.1195 12.0457 676 66.1967 1158.19 555.291
309 0 58.1249 12.6624 736 65.7745 1158.35 553.333
310 0 61.1432 13.0677 799 64.4018 1158.32 553.048
311 0 59.0764 12.8986 762 66.5223 1157.78 552.545
312 0 59.0764 12.9155 763 162.189 1157.77 552.578
313 0 64.151 12.6888 814 66.414 1157.88 551.451
314 0 66.1056 14.0986 932 64.5697 1157.88 551.151
315 0 68.2171 13.4717 919 65.6703 1157.65 550.502
316 0 68.2171 13.457 918 165.02 1156.64 550.495
317 0 73.1345 15.1092 1105 63.6896 1157.55 547.798
318 0 75.1922 13.6716 1028 65.8833 1157.82 546.413
319 0 75.0865 13.8507 1040 66.9558 1157.84 545.626
320 0 75.0832 13.4251 1008 68.8383 1157.69 544.53
321 0 80.0472 13.9043 1113 67.2489 1157.83 544.158
322 0 83.176 14.0906 1172 66.8891 1157.67 542.717
323 0 85.3484 14.0717 1201 67.5154 1157.82 541.47
324 1 44.308 11.5103 510 68.8098 1157.25 560.853
325 0 45.2591 11.2906 511 69.9119 1156.88 560.456
326 0 48.2625 11.6239 561 68.959 1156.9 559.529
327 0 49.2074 11.0756 545 70.0477 1157.23 559.319
328 0 51.2516 11.5509 592 70.1943 1157.14 557.389
329 0 53.2781 12.4254 662 69.7568 1156.96 556.921
330 0 55.1945 13.1354 725 68.0441 1156.41 556.548
331 0 57.1221 14.1451 808 66.4975 1155.79 555.588
332 0 60.146 13.9161 837 66.7384 1156.46 555.393
333 0 59.1249 12.5328 741 69.9892 1156.21 554.76
334 0 62.2599 13.7649 857 68.175 1155.91 552.979
335 0 65.2167 12.6195 823 69.6197 1155.91 554.426
336 0 64.2072 12.3195 791 70.7598 1155.58 551.407
337 0 68.1957 13.2853 906 68.5773 1155.36 549.509
338 0 72.2071 13.5582 979 66.8069 1155.3 551.448
339 0 71.3017 13.1974 941 69.0021 1155.01 546.305
340 0 75.3794 13.6509 1029 67.7862 1155.03 547.752
341 0 77.1533 13.4667 1039 68.6372 1154.84 545.411
342 0 78.4487 13.1551 1032 69.0591 1155 544.111
343 0 83.1933 13.4626 1120 68.0036 1154.84 543.729
344 0 86.2211 13.7669 1187 67.8197 1154.57 541.671
345 1 42.0754 9.8157 413 70.7361 1154.35 562.845
346 0 44.1504 11.5288 509 69.0648 1154.73 560.367
347 0 46.155 11.613 536 68.1101 1153.98 561.996
348 0 48.0567 12.2564 589 67.0662 1153.8 561.53
349 0 48.174 12.7247 613 68.907 1154.75 560.104
350 0 49.2399 13.3428 657 68.3668 1155.63 560.551
351 0 52.1682 12.3639 645 69.1891 1155.38 558.76
352 0 54.2024 12.8408 696 68.6422 1155.46 558.125
353 0 55.1891 13.4628 743 68.0296 1155.08 558.571
354 0 56.2134 13.1819 741 69.135 1155.49 557.233
355 0 59.2122 13.2067 782 68.5192 1155.37 557.354
356 0 58.1596 12.5001 727 70.7868 1154.58 557.103
357 0 60.1291 13.1218 789 70.1052 1153.94 555.831
358 0 62.2097 12.9079 803 70.6364 1153.35 555.644
359 0 64.1787 13.6182 874 69.6579 1153.64 554.895
360 0 68.1394 13.6338 929 69.1959 1153.94 554.441
361 0 70.1915 13.6911 961 69.3007 1153.89 551.924
362 0 72.2969 13.5137 977 70.4033 1153.76 549.803
363 0 73.1943 14.6186 1070 68.6607 1153.82 549.951
364 0 75.1508 13.9453 1048 70.7576 1154.02 547.529
365 0 79.1269 13.8764 1098 70.3179 1153.91 547.035
366 0 81.171 13.835 1123 70.9849 1154.56 546.149
367 0 82.1198 14.077 1156 71.0242 1154.5 544.514
368 0 86.1013 13.8558 1193 71.5817 1154.41 543.047
369 0 87.1485 13.6549 1190 72.0387 1155.06 543.694
370 0 91.1056 15.1034 1376 69.4637 1155.59 541.209
371 0 93.0988 14.3718 1338 70.9851 1155.26 539.999
372 0 97.0946 14.5837 1416 70.8743 1155.54 536.928
373 0 99.1915 14.5779 1446 70.8098 1155.46 536.786
374 0 102.28 13.6097 1392 73.0582 1155.3 532.186
375 0 108.175 14.9388 1616 69.8323 1154.89 532.335
376 0 111.142 13.5683 1508 70.7434 1154.75 530.817
377 1 63.1607 11.6528 736 70.0666 1154.1 554.745
378 0 65.159 12.3083 802 68.9514 1154.76 554
379 0 67.1053 13.0392 875 67.6571 1154.78 552.053
380 0 68.2035 11.7296 800 69.6188 1154.79 551.066
381 0 70.2449 12.1717 855 69.3942 1155.49 551.298
382 0 76.1364 13.0818 996 66.5201 1155.39 551.06
383 0 77.1727 12.5563 969 68.6429 1155.43 547.372
384 0 78.1945 12.5968 985 68.9736 1155.87 546.008
385 0 80.1779 12.0981 970 70.0918 1155.91 545.434
386 0 83.2615 12.8991 1074 68.4814 1156.45 544.236
387 0 87.2893 12.3841 1081 69.2868 1156.88 542.152
388 0 92.2043 13.3833 1234 67.3428 1157.11 539.382
389 1 49.0657 10.6999 525 67.5676 1156.31 560.72
390 0 50.1322 11.2901 566 66.0318 1156.13 559.599
391 0 53.0882 11.0382 586 66.5034 1156.37 559.241
392 0 54.1393 11.8398 641 66.2574 1156.23 557.842
393 0 56.1449 11.2566 632 66.1234 1156.32 557.873
394 0 60.1939 11.8949 716 66.1159 1157.28 555.825
395 0 59.2338 12.189 722 66.4792 1157.31 552.788
396 0 61.2638 12.5849 771 65.5733 1158.23 553.219
397 0 64.1868 12.7752 820 64.4317 1157.89 551.388
398 0 66.3364 12.5572 833 64.2329 1158.49 552.618
399 0 70.2243 12.4173 872 63.7706 1158 550.96
400 0 71.1279 12.7095 904 63.7434 1158.35 548.056
401 0 72.2009 11.7312 847 65.1511 1158.47 546.396
402 0 76.202 12.3356 940 64.3106 1158.62 545.094
403 0 79.3127 13.1631 1044 62.9569 1158.31 544.102
