time division length width area intensity CMx CMy
0 0 64.0791 13.1556 843 70.9336 610.617 581.007
1 0 67.0855 13.4008 899 71.2881 609.526 578.809
2 0 67.0855 13.371 897 165.417 608.513 578.768
3 0 73.2632 13.1853 966 71.2267 609.686 576.762
4 0 76.1152 12.9541 986 70.929 609.738 575.825
5 0 79.1618 14.5146 1149 68.9547 610.097 574.296
6 1 42.0502 11.1058 467 71.9829 609.537 593.54
7 0 45.0276 9.83841 443 73.2867 609.702 592
8 0 49.102 11.8936 584 71.2979 609.457 590.901
9 0 48.038 12.5526 603 72.7711 609.434 588.093
10 0 51.1087 12.0527 616 73.5422 609.977 589.62
11 0 52.2869 12.374 647 74.1221 611.433 587.513
12 0 54.214 12.2109 662 74.2417 611.085 586.169
13 0 54.1724 12.7556 691 74.2663 611.265 584.86
14 0 58.2117 13.0214 758 72.252 611.136 585.579
15 0 59.1074 12.9764 767 72.0978 611.386 582.974
16 0 61.1134 13.6631 835 70.8431 610.849 582.935
17 0 63.0815 13.1734 831 71.8303 611.155 580.907
18 0 65.0707 13.5699 883 69.974 611.296 581.208
19 0 66.1613 13.0439 863 71.4496 611.591 579.531
20 0 68.1593 13.0576 890 71.2225 611.26 578.89
21 0 70.3238 13.4378 945 70.6815 611.628 576.39
22 0 75.1765 13.6745 1028 69.4805 611.33 576.858
23 0 77.1249 14.4441 1114 68.0539 611.415 576.312
24 1 42.0925 10.4294 439 70.6173 610.672 592.599
25 0 42.0371 10.348 435 70.1356 610.802 594.214
26 0 43.0786 11.3281 488 69.1189 611.652 592.191
27 0 45.0215 12.1942 549 68.1913 611.809 590.541
28 0 47.129 13.3464 629 66.0223 610.86 589.103
29 0 48.0972 13.348 642 66.366 611.195 587.424
30 0 50.1942 12.2524 615 67.3252 611.971 589.724
31 0 51.0848 13.0567 667 67.2024 611.952 589.498
32 0 50.1358 13.0645 655 68.5053 612.044 587.75
33 0 51.1366 12.8284 656 68.9756 612.152 587.244
34 0 54.0824 13.0727 707 69.1909 611.977 584.58
35 0 54.0753 12.8525 695 70.2705 612.178 584.917
36 0 58.1047 13.4757 783 68.9144 612.031 583.29
37 0 60.1532 13.0999 788 70.0038 612.135 583.853
38 0 60.1511 13.7487 827 69.9359 612.614 582.819
39 0 61.067 14.263 871 70.2113 612.522 581.617
40 0 63.0531 13.9089 877 70.4857 612.714 582.503
41 0 66.0704 13.8943 918 70.9978 612.831 580.5
42 0 65.2307 13.3679 872 73.375 613.023 577.931
43 0 70.1184 13.848 971 71.4459 612.717 577.903
44 0 73.2059 13.3323 976 72.8811 613.04 576.925
45 0 74.2511 13.5352 1005 73.2259 613.919 574.991
46 1 39.2094 10.9923 431 71.9281 614.183 594.701
47 0 39.1279 11.1941 438 72.7991 613.973 594.228
48 0 41.1633 11.005 453 73.7483 614.181 593.872
49 0 42.2302 12.5029 528 72.5246 613.926 592.511
50 0 43.1912 13.7296 593 70.6594 613.516 592.352
51 0 45.2474 12.0007 543 73.6703 613.613 592.799
52 0 45.0842 12.1328 547 74.7569 613.101 591.971
53 0 47.3021 12.3673 585 74.1863 612.961 591.01
54 0 49.209 13.3106 655 65.6153 612.279 589.872
55 0 51.2059 13.2407 678 65.5339 612.668 589.904
56 0 49.1072 12.5033 614 68.9967 612.679 588.793
57 0 51.1245 13.1053 670 68.3149 612.891 588.267
58 0 54.1074 13.159 712 67.4424 613.049 587.246
59 0 55.2162 12.4782 689 69.1988 613.313 585.698
60 0 56.1455 12.432 698 69.3811 613.258 584.911
61 0 58.1585 13.1193 763 69.3224 613.308 583.135
62 0 59.1099 12.5867 744 70.3427 613.176 582.458
63 0 63.0932 13.1551 830 69.1687 612.401 581.402
64 0 66.0991 12.5418 829 69.9023 612.622 578.704
65 0 68.0817 13.0138 886 69.4752 612.834 578.74
66 1 34.017 9.70104 330 72.4 612.318 594.903
67 0 36.0385 11.9039 429 69.4476 612.841 593.741
68 0 38.0662 10.8495 413 70.9564 613.361 594.196
69 0 37.0265 11.5323 427 71.3724 613.672 592.571
70 0 40.1244 11.1653 448 70.8571 613.145 592.297
71 0 41.181 12.4815 514 69.9864 614.173 591.412
72 0 42.2081 12.3199 520 70.2885 614.187 590.15
73 0 43.1811 12.4592 538 69.7546 614.546 589.874
74 0 45.177 12.772 577 69.3969 614.591 587.906
75 0 46.1907 13.2494 612 69.1814 615.297 587.168
76 0 45.2394 11.627 526 72.1046 615.032 587.369
77 0 50.1654 13.4954 677 68.2718 615.708 585.916
78 0 50.1674 12.1792 611 70.2029 615.237 584.946
79 0 52.1261 12.9877 677 68.9409 615.882 584.303
80 0 53.1958 12.5386 667 70.6942 616.258 582.981
81 0 53.1958 12.5198 666 157.713 617.261 582.943
82 0 58.1819 13.0625 760 69.4724 616.25 579.517
83 0 58.134 12.2648 713 71.352 616.477 578.948
84 0 61.1977 12.9253 791 70.4046 616.526 578.348
85 0 62.106 12.7041 789 70.9861 616.864 576.236
86 0 67.1026 12.1009 812 71.1022 617.023 575.181
87 1 35.1318 11.2718 396 69.096 616.553 590.202
88 0 36.1687 11.1699 404 69.8119 616.889 587.861
89 0 37.1127 12.0444 447 69.1924 617.459 586.177
90 0 39.2228 12.4417 488 67.3033 618.127 586.592
91 0 39.1652 11.8983 466 72.4442 618.775 586.712
92 0 39.1935 12.2469 480 75.8375 618.879 585.292
93 0 43.2836 13.0765 566 73.6219 618.675 584.143
94 0 44.2843 12.3068 545 72.6826 618.754 584.206
95 0 45.2921 13.1369 595 70.2437 618.533 582.289
96 0 47.2518 13.0365 616 68.6802 618.701 581.437
97 0 48.184 13.1579 634 68.4117 618.219 580.584
98 0 49.2164 12.9428 637 68.3124 618.259 580.829
99 0 51.1912 12.4631 638 69.5078 617.677 579.373
100 0 54.1377 12.302 666 69.7733 618.332 578.83
101 0 54.0895 13.2743 718 69.3663 617.624 577.536
102 0 56.1581 13.088 735 69.8612 617.857 576.793
103 0 57.052 13.6717 780 71.0346 618.14 574.682
104 0 59.0547 13.6992 809 71.869 617.96 574.252
105 0 60.2447 13.6941 825 73.2024 618.223 573.714
106 0 64.1701 12.9967 834 72.8118 618.55 571.683
107 0 66.1337 13.1249 868 72.2823 618.425 572.135
108 0 67.2308 12.7918 860 73.2942 618.627 571.058
109 1 34.0772 10.7403 366 71.8224 618.617 586.749
110 0 35.0845 11.23 394 74.6015 618.711 584.921
111 0 39.2496 11.4396 449 71.5033 618.294 585.147
112 0 39.1795 10.7965 423 72.8558 617.792 584.234
113 0 40.1007 11.6207 466 70.8219 617.929 583.524
114 0 42.0822 12.1192 510 70.6078 618.194 582.763
115 0 43.1565 11.9101 514 71.1031 617.636 582.432
116 0 44.1213 13.0096 574 70.6603 618.385 581.573
117 0 47.0793 13.7215 646 68.6687 618.285 581.019
118 0 48.2221 12.6291 609 71.2693 618.264 580.494
119 0 48.1116 13.5934 654 70.052 617.894 579.711
120 0 48.1116 13.5934 654 157.555 616.894 579.711
121 0 52.2047 13.9068 726 69.2452 618.373 577.328
122 0 51.1804 12.9542 663 71.1267 618.074 578.249
123 0 55.2679 13.6245 753 68.6547 618.256 576.398
124 0 56.0645 13.2883 745 70.0403 617.894 574.464
125 0 58.2516 12.5833 733 70.307 618.161 574.701
126 0 58.159 13.1192 763 70.2018 618.178 573.092
127 0 60.1839 13.0101 783 69.8352 617.964 573.792
128 0 62.2406 12.3071 766 71.2232 617.457 571.298
129 0 66.2354 13.1501 871 69.1975 617.381 570.526
130 0 67.3602 13.3313 898 69.1281 617.308 568.442
131 0 71.3897 13.9096 993 68.0655 617.243 569.346
132 0 73.1956 13.6484 999 68.3323 617.014 568.087
133 0 74.2349 13.821 1026 68.6793 617.132 565.02
134 0 77.1713 13.2692 1024 69.3545 616.972 565.154
135 1 40.1618 10.881 437 71.1876 617.094 582.059
136 0 42.2738 10.3374 437 70.643 617.03 583.217
137 0 44.2315 12.0502 533 70.3302 616.927 581.116
138 0 48.0969 12.3293 593 68.9494 616.857 580.45
139 0 47.1558 12.0664 569 69.9262 616.977 579.677
140 0 50.1009 13.0537 654 68.1239 616.761 577.87
141 0 51.1102 12.9915 664 68.2169 616.941 579.381
142 0 51.0652 12.6896 648 70.1127 617.008 577.801
143 0 55.0237 12.958 713 68.9453 617.013 576.604
144 0 55.1145 13.0637 720 69.1958 616.378 575.415
145 0 58.2143 13.6049 792 68.5404 616.433 574.823
146 0 60.139 13.1529 791 69.1909 616.22 574.63
147 0 60.1783 13.4434 809 69.5179 616.507 573.429
148 0 64.2995 13.9659 898 68.7817 616.286 573.137
149 0 64.1002 13.4165 860 70.4163 616.088 570.795
150 0 66.1021 13.6002 899 70.0267 616.205 570.574
151 0 70.2396 14.2227 999 69.5876 615.826 568.974
152 0 72.2942 15.0081 1085 69.0267 616.026 567.181
153 0 75.2618 13.9646 1051 70.4405 615.773 566.332
154 0 76.2092 13.7254 1046 71.4685 616.09 566.413
155 0 78.2818 13.9241 1090 71.8459 616.162 564.438
156 0 82.3674 13.3791 1102 72.7795 616.113 561.997
157 0 87.239 14.5462 1269 70.2947 616.151 562.047
158 1 45.2362 11.3847 515 73.1476 616.05 581.854
159 0 47.2266 10.9896 519 73.3815 616.509 582.173
160 0 47.1679 11.6181 548 73.8668 615.781 580.901
161 0 49.307 12.9393 638 71.5909 616.063 579.603
162 0 53.2841 13.3623 712 70.1545 616.108 576.573
163 0 53.138 13.0227 692 71.6749 616.134 576.984
164 0 56.0802 13.2667 744 70.2406 616.044 576.958
165 0 58.1256 14.159 823 68.9781 615.79 574.791
166 0 59.1631 13.4881 798 70.2231 616.138 574.653
167 0 62.2536 12.8988 803 70.7958 615.879 572.752
168 0 64.1766 13.7122 880 69.4466 616.258 571.516
169 0 67.1102 13.9025 933 68.8435 616.621 568.591
170 0 71.2345 13.9539 994 67.7082 616.715 569.134
171 0 70.1101 13.4788 945 69.7333 617.119 567.832
172 0 75.148 14.212 1068 67.5066 616.661 566.696
173 0 78.1824 13.7755 1077 68.3482 616.909 566.096
174 0 81.1117 14.1287 1146 67.6798 616.682 563.675
175 0 81.1283 13.3862 1086 69.4484 616.985 562.443
176 0 85.2312 13.5748 1157 68.5514 617.506 561.337
177 1 45.1177 11.4368 516 68.2558 617.161 580.537
178 0 48.152 11.9414 575 67.2817 617.501 580.864
179 0 47.1244 11.7985 556 68.7032 617.288 579.703
180 0 50.1289 12.9865 651 67.1705 617.21 577.134
181 0 52.0808 13.4407 700 66.3386 617.283 576.301
182 0 51.0871 13.1344 671 68.1043 618.115 574.213
183 0 54.0737 13.5371 732 66.3716 617.888 574.276
184 0 57.125 13.1466 751 66.5366 617.795 573.682
185 0 56.1004 12.9411 726 67.8072 617.912 571.14
186 0 60.0744 13.9327 837 64.6559 618.49 572.707
187 0 63.0927 13.6783 863 65.5991 618.194 571.265
188 0 64.1065 13.462 863 66.0997 618.171 569.307
189 0 65.207 13.5108 881 66.143 618.226 568.674
190 0 69.1041 14.0078 968 65.8678 618.957 567.885
191 0 70.2366 14.38 1010 66.6624 618.727 565.523
192 0 72.1636 13.7465 992 67.245 618.895 565.839
193 0 75.2494 14.02 1055 65.4531 619.155 564.709
194 0 76.2297 14.2202 1084 64.3413 618.958 563.099
195 0 81.2959 15.4251 1254 61.3525 619.152 563.025
196 0 83.1731 14.7524 1227 62.5069 619.068 560.759
197 0 86.293 14.4739 1249 64.8303 619.063 558.038
198 0 89.166 14.187 1265 66.7225 619.126 557.904
199 0 92.1507 14.7693 1361 66.5445 619.3 555.148
200 0 94.1664 14.485 1364 67.739 619.811 554.168
201 1 50.0742 12.102 606 69.066 619.515 575.295
202 0 51.0142 11.8791 606 68.3053 619.449 576.295
203 0 53.0668 12.4748 662 67.1752 619.077 575.219
204 0 55.0926 12.7603 703 67.8535 619.151 573.408
205 0 57.1891 12.8696 736 68.1576 619.632 571.732
206 0 58.0707 13.6213 791 67.8508 619.804 571.228
207 0 58.1004 12.7194 739 69.23 619.616 572.139
208 0 61.1681 12.5229 766 69.9373 620.262 570.099
209 0 63.121 13.6722 863 67.8992 620.203 568.735
210 0 67.127 13.184 885 68.2927 620.246 566.433
211 0 70.1363 14.0441 985 66.8701 620.099 565.147
212 0 71.1175 14.2581 1014 67.0878 620.106 565.359
213 0 72.1273 14.1555 1021 67.3516 620.08 565.579
214 0 75.1154 13.9918 1051 67.3939 620.006 563.948
215 0 77.1574 13.79 1064 68.485 619.626 563.005
216 0 81.0806 13.8628 1124 67.9448 619.54 560.786
217 1 43.0673 12.0974 521 67.8177 618.578 579.712
218 0 46.0372 11.5124 530 67.4623 618.64 579.315
219 0 46.047 11.4448 527 68.7476 618.763 579.249
220 0 47.0217 11.6542 548 69.5474 618.69 579.179
221 0 48.0586 12.9009 620 67.6597 618.739 578.908
222 0 51.2673 13.927 714 65.9594 619.125 577.227
223 0 49.116 12.1345 596 69.943 618.198 576.529
224 0 52.1061 13.3766 697 68.3529 618.887 575.415
225 0 52.2099 13.101 684 69.2515 618.209 574.68
226 0 55.2018 13.3691 738 67.6477 618.003 574.928
227 0 57.1756 13.6422 780 67.9397 617.714 573.91
228 0 59.0979 13.6891 809 68.1063 617.937 573.129
229 0 59.1706 14.0441 831 68.1576 617.528 572.13
230 0 60.073 13.3504 802 69.7369 617.562 571.041
231 0 63.1396 13.5414 855 69.2082 617.841 569.545
232 0 64.1164 13.4755 864 70.3727 617.458 570.453
233 0 68.1144 13.7122 934 69.637 617.691 569.299
234 0 69.113 13.7456 950 70.1 617.68 567.704
235 0 72.1349 14.2927 1031 69.1969 617.375 566.459
236 0 73.1646 13.9002 1017 70.8722 617.455 565.752
237 0 75.2004 13.5771 1021 71.5926 616.968 563.772
238 0 78.1653 14.1879 1109 70.7926 616.885 562.243
239 0 80.2267 13.9231 1117 71.684 617.3 562.335
240 0 83.0776 14.9739 1244 69.6833 617.329 562.163
241 0 85.0997 14.0306 1194 72.1977 617.095 560.13
242 0 88.2183 14.8722 1312 70.8384 617.143 559.007
243 1 45.1193 11.3034 510 72.6725 616.559 581.888
244 0 49.0572 12.2306 600 73.1067 616.287 579.292
245 0 50.066 12.7831 640 72.8172 616.573 578.936
246 0 52.1056 12.9928 677 72.8198 616.888 577.068
247 0 52.1602 13.171 687 73.163 616.942 576.076
248 0 56.2092 13.2363 744 71.9099 616.997 575.731
249 0 56.2127 13.5912 764 71.5275 617.147 575.705
250 0 58.152 12.8628 748 73.0775 616.955 575.337
251 0 60.1076 13.4259 807 72.316 617.302 573.731
252 0 62.0953 13.7691 855 71.3579 617.044 573.105
253 0 65.1629 13.5507 883 71.7022 617.381 572.102
254 0 65.1773 13.3942 873 72.425 617.455 571.186
255 0 69.0657 13.5813 938 71.8028 617.562 569.366
256 0 72.0608 15.029 1083 69.4007 617.428 568.687
257 0 74.1084 13.2779 984 71.5894 617.35 569.146
258 0 75.0998 13.9681 1049 71.4881 616.767 566.476
259 0 78.215 13.3862 1047 72.1767 616.392 566.237
260 0 80.2367 13.672 1097 71.9626 616.525 565.155
261 0 82.1693 13.8738 1140 71.7526 616.529 565.107
262 0 85.1546 13.2465 1128 72.4885 615.988 562.758
263 0 90.3031 14.0527 1269 70.6572 616.386 561.557
264 1 47.1244 11.8622 559 72.3685 616.336 583.304
265 0 50.0719 12.2224 612 71.5621 616.453 581.188
266 0 51.0649 11.0448 564 73.9167 616.745 581.011
267 0 52.1665 13.2461 691 70.9711 616.744 579.777
268 0 53.1172 13.7808 732 70.4235 617.56 578.648
269 0 54.1062 13.1963 714 71.3375 617.658 578.619
270 0 55.1175 13.1174 723 72.0221 618.069 577.351
271 0 58.1156 12.5095 727 72.2091 618.296 576.78
272 0 60.1159 13.5239 813 70.5609 617.932 575.582
273 0 62.0957 12.6901 788 71.7348 618.165 574.459
274 0 65.1348 12.9577 844 71.4313 617.963 573.462
275 0 67.035 13.0529 875 71.6206 618.353 572.289
276 0 71.0637 13.5372 962 70.3316 618.634 569.896
277 0 73.074 13.4658 984 70.7734 618.674 569.389
278 0 75.0919 13.8098 1037 70.7473 618.409 567.168
279 0 78.1122 14.0311 1096 70.4325 619.094 566.809
280 0 81.0383 14.2032 1151 69.9218 618.984 564.543
281 0 85.1388 14.6584 1248 68.3293 619.182 563.523
282 0 87.3128 14.7974 1292 68.2245 619.256 560.575
283 1 46.056 11.942 550 70.9491 619.4 580.464
284 0 49.0353 11.7262 575 70.1009 619.965 581.118
285 0 50.1343 12.5862 631 69.2282 619.878 578.3
286 0 52.1704 12.9959 678 68.7979 620.034 577.183
287 0 53.146 13.096 696 69.0287 619.365 577.218
288 0 55.0897 14.0135 772 67.5337 619.619 575.411
289 0 57.0892 13.1373 750 67.88 620.033 574.319
290 0 60.0932 13.712 824 66.5243 620.199 572.717
291 0 61.1351 12.9713 793 67.739 620.66 572.393
292 0 63.1112 13.6584 862 66.5186 621.035 571.305
293 0 65.1522 14.2129 926 66.121 620.916 569.703
294 0 67.0727 14.8048 993 65.2669 621.217 568.298
295 0 68.2886 13.4137 916 67.8657 621.479 567.515
296 0 71.0823 14.026 997 67.0481 621.681 566.045
297 0 75.1255 14.2162 1068 66.7753 621.359 563.879
298 0 77.2228 14.2186 1098 66.6111 621.836 563.607
299 1 37.0293 12.1796 451 68.5078 622.062 582.064
300 0 40.0105 12.2468 490 68.5143 622.157 581.837
301 0 43.0478 13.2643 571 66.4133 622.45 580.331
302 0 45.0696 13.3127 600 67.1133 622.467 580.4
303 0 44.0235 14.2424 627 66.8293 622.778 579.914
304 0 47.1242 14.1753 668 66.8174 622 577.975
305 0 49.1008 14.2768 701 66.1398 622.207 576.719
306 0 48.0298 14.2412 684 66.886 622.358 576.664
307 0 50.1429 14.7179 738 66.4526 622.57 575.1
308 0 51.0583 13.7686 703 68.4879 622.376 573.7
309 0 54.049 14.1353 764 67.4516 622.703 573.363
310 0 56.0409 14.5073 813 66.3235 622.948 572.401
311 0 57.3168 14.5507 834 66.5815 622.506 571.013
312 0 58.133 14.3464 834 67.0528 622.257 571.333
313 0 62.0788 14.5782 905 65.8773 622.79 570.474
314 0 62.1274 15.2268 946 65.9789 621.871 567.327
315 0 65.067 14.7386 959 66.3462 622.252 567.532
316 0 66.1088 15.3535 1015 65.5172 622.261 566.105
317 0 70.1402 15.0556 1056 65.3598 621.991 565.483
318 0 71.0858 15.4602 1099 66.0018 621.384 563.402
319 0 72.1615 14.3428 1035 68.086 621.966 562.645
320 0 77.0775 15.0628 1161 66.6348 621.866 562.772
321 0 79.2003 15.4545 1224 66.6095 621.579 559.237
322 1 38.0284 12.9903 494 68.7955 622.057 580.492
323 0 40.059 13.3054 533 68.8949 621.814 579.525
324 0 41.1041 13.5023 555 69.8631 621.517 578.369
325 0 45.0613 13.87 625 68.9696 621.395 576.955
326 0 44.0517 14.4149 635 69.6346 621.762 576.394
327 0 45.0223 14.0153 631 70.7163 621.526 576.241
328 0 49.1385 15.1409 744 68.4167 621.48 575.749
329 0 50.1315 14.8609 745 69.6349 620.772 574
330 0 52.0426 14.7187 766 69.5522 620.548 574.542
331 0 53.0633 15.1517 804 69.653 620.239 573.118
332 0 54.0794 15.4957 838 69.7804 620.297 573.224
333 0 55.0749 15.252 840 70.6798 619.983 570.899
334 0 57.151 14.5054 829 72.4692 620.455 571.79
335 0 59.1267 14.8664 879 72.2981 620.114 570.92
336 0 60.0972 15.242 916 72.2052 619.695 570.341
337 0 63.1135 14.8463 937 72.6425 619.414 570.935
338 0 63.0619 15.0963 952 73.4286 619.683 570.513
339 0 67.1731 16.197 1088 71.943 619.418 566.813
340 0 69.1245 14.9874 1036 74.2297 619.689 566.126
341 0 72.0813 15.6906 1131 73.5729 619.263 565.417
342 0 75.1036 15.3122 1150 74.4157 619.037 565.118
343 0 76.07 15.3674 1169 75.1121 619.117 563.604
344 1 35.0386 13.6136 477 78.8197 619.254 582.711
345 0 36.0348 15.0133 541 78.5767 619.651 581.505
346 0 38.1946 14.3476 548 79.2464 619.922 580.022
347 0 40.2589 16.1952 652 77.3574 619.561 580.313
348 0 41.216 16.4014 676 77.0266 619.428 579.565
349 0 42.044 16.2211 682 78.412 619.304 578.965
350 0 45.1915 16.1756 731 77.2394 619.499 578.523
351 0 45.0376 16.3641 737 78.2795 619.251 577.161
352 0 47.0878 16.3099 768 77.6263 619.561 576.763
353 0 48.1989 16.1415 778 78.8098 619.068 576.402
354 0 50.1176 17 852 76.9918 619.38 575.911
355 0 52.4865 16.4423 863 77.6721 619.6 576.015
356 0 54.1059 16.2459 879 78.7679 619.47 574.242
357 0 57.3451 16.2699 933 78.0354 619.479 573.436
358 0 60.1969 16.4959 993 76.6173 619.689 572.479
359 0 63.3698 16.5063 1046 76.2027 619.436 571.813
360 0 63.3759 15.8893 1007 78.6385 619.387 570.023
361 0 67.3713 15.615 1052 78.0922 619.133 569.18
362 0 68.4133 15.7279 1076 78.6924 619.324 567.624
363 0 70.5377 16.1616 1140 77.8675 618.546 567.168
364 0 75.3737 16.7034 1259 75.7752 618.668 564.44
365 0 76.5508 16.12 1234 77.3355 618.495 564.994
366 0 81.2205 16.2644 1321 75.9508 618.855 562.593
367 1 36.458 16.0733 586 77.6962 619.212 582.935
368 0 37.4267 16.2985 610 77.8852 619.515 583.025
369 0 39.3131 16.3559 643 76.9456 619.855 583.558
370 0 40.3245 15.1521 611 80.0966 619.905 581.422
371 0 38.2931 16.6349 637 79.5196 619.984 581.339
372 0 42.3081 16.1198 682 78.5821 619.968 581.059
373 0 45.271 16.2577 736 76.8913 619.757 580.549
374 0 45.4884 15.9161 724 79.1616 619.972 579.539
375 0 45.4333 16.7278 760 78.4553 619.979 579.839
376 0 47.4122 16.578 786 77.3333 619.894 578.663
377 0 49.4485 15.9155 787 78.1449 620.37 578.211
378 0 49.4485 15.8751 785 180.141 620.368 578.255
379 0 51.4297 16.2941 838 78.778 620.779 576.067
380 0 55.6017 16.6722 927 76.575 620.669 575.767
381 0 55.5693 16.178 899 78.6752 621.278 575.471
382 0 55.5693 16.232 902 177.011 622.284 575.491
383 0 59.4539 16.3488 972 77.8405 621.308 573.082
384 0 62.6225 16.32 1022 76.953 621.781 572.805
385 0 65.5111 16.3026 1068 76.6648 621.638 570.928
386 1 29.4556 14.7001 433 78.0092 621.358 586.473
387 0 32.1891 14.6944 473 77.7252 621.218 585.457
388 0 33.5118 15.3379 514 74.8988 621.541 586.008
389 0 31.2492 16.0004 500 76.91 621.712 584.96
390 0 34.4357 15.8556 546 75.9048 622.33 584.61
391 0 35.4533 16.1057 571 75.6427 622.678 583.65
392 0 36.5642 16.4915 603 74.8441 622.559 584.181
393 0 37.5501 16.0319 602 75.4651 622.812 583.668
394 0 37.5082 15.7032 589 76.8065 622.499 583.81
395 0 39.5367 17.0727 675 74.3096 622.674 582.028
396 0 38.5968 16.9703 655 75.658 622.682 581.649
397 0 41.7679 16.7593 700 74.7929 622.793 581.754
398 0 41.4363 15.9039 659 76.915 623.341 581.449
399 0 42.412 16.7877 712 76.0772 623.265 580.131
400 0 45.7632 17.0006 778 74.4936 623.485 579.036
401 0 47.5544 16.8439 801 74.8764 623.549 579.175
402 0 46.2042 16.1457 746 77.2574 623.35 578.31
403 0 46.3798 16.3649 759 78.2688 623.659 577.433
