time division length width area intensity CMx CMy
0 0 115.27 13.1864 1520 73.5237 1378.14 550.181
1 0 119.206 13.3886 1596 74.0871 1377.15 548.11
2 0 119.206 13.397 1597 175.02 1377.15 548.184
3 0 130.204 13.932 1814 72.1797 1377.34 547.389
4 0 128.175 14.0433 1800 172.916 1377.37 545.018
5 0 136.31 13.7555 1875 72.1365 1377.71 540.653
6 0 140.243 14.0756 1974 71.191 1377.88 539.138
7 1 83.2495 11.4715 955 71.6576 1377.66 568.753
8 0 86.3206 12.3261 1064 72.7312 1377.48 565.99
9 0 88.2148 12.4242 1096 74.687 1377.78 563.444
10 0 90.2512 12.6093 1138 75.0413 1378.24 563.028
11 0 93.321 13.3196 1243 74.9646 1378.99 559.261
12 0 95.5067 12.9834 1240 75.5573 1378.84 559.859
13 0 98.4778 12.8049 1261 76.1753 1378.98 557.332
14 0 102.293 13.3343 1364 74.7661 1379.05 554.331
15 0 106.46 13.6295 1451 73.1854 1379.33 553.133
16 0 107.34 12.875 1382 74.6397 1378.76 551.988
17 0 110.464 13.226 1461 73.9268 1379.03 550.312
18 0 114.267 11.727 1340 74.9679 1379.21 550.095
19 0 115.377 12.9402 1493 73.4709 1379.38 548.687
20 0 118.388 12.2057 1445 74.3882 1379.12 545.675
21 0 123.45 13.4954 1666 71.9022 1379.55 543.874
22 0 126.368 12.9621 1638 73.0293 1379.31 542.49
23 0 131.403 13.12 1724 72.0354 1379.21 539.456
24 0 133.329 12.6454 1686 72.9389 1379.3 535.474
25 0 139.208 14.0366 1954 71.065 1379.27 534.068
26 0 145.357 12.6241 1835 72.6109 1379.31 533.084
27 0 147.23 12.8371 1890 73.6757 1379.38 526.442
28 0 154.325 13.2512 2045 72.4274 1378.8 526.317
29 0 158.37 12.957 2052 72.8041 1378.66 522.808
30 0 164.492 13.484 2218 72.5703 1379.36 520.386
31 0 169.388 13.4839 2284 72.2482 1379.36 519.457
32 0 175.249 13.0158 2281 72.8974 1379.55 516.06
33 0 182.285 13.3089 2426 72.0387 1379.77 511.288
34 0 188.372 12.4647 2348 73.1133 1379.5 506.306
35 0 194.299 13.4792 2619 71.7957 1379.72 501.757
36 0 200.447 13.5348 2713 71.599 1379.72 498.421
37 0 207.357 13.103 2717 71.9441 1379.77 497.855
38 0 212.446 12.6244 2682 72.5641 1380.24 493.746
39 0 222.285 12.9608 2881 71.983 1380.12 488.593
40 1 52.0686 8.73846 455 64.1934 1380.72 575.864
41 0 49.088 7.61897 374 65.2193 1380.74 573.372
42 0 50.0735 9.96535 499 63.5711 1380.7 570.204
43 0 56.2949 9.69892 546 62.7436 1379.58 572.277
44 0 61.1845 11.686 715 59.751 1379.82 573.541
45 0 62.2664 9.61996 599 62.0718 1380.66 574.262
46 0 64.2383 11.0837 712 61.0042 1380.63 574.695
47 0 66.2231 10.7515 712 62.0337 1380.27 573.173
48 0 69.2995 11.1256 771 61.2244 1380.52 573.082
49 0 72.2044 10.7888 779 61.9294 1380.35 570.225
50 0 72.2222 10.9385 790 62.0532 1379.75 570.463
51 0 76.3383 11.0822 846 61.4894 1379.95 569.512
52 0 77.1576 11.0942 856 62.0981 1379.54 567.134
53 1 46.057 8.77173 404 60.4109 1378.34 585.564
54 0 47.0328 8.46218 398 54.9925 1377.7 584.462
55 0 48.0583 9.25959 445 54.7551 1378.36 582.991
56 0 52.131 9.32267 486 55.1955 1378.78 579.901
57 0 53.3841 9.64706 515 55.1961 1380.02 581.214
58 0 54.1656 9.80327 531 54.6798 1379.75 579.719
59 0 55.2693 10.4579 578 53.9602 1379.91 579.292
60 0 57.2069 11.5196 659 53.2473 1379.72 575.411
61 0 59.2726 10.1227 600 54.895 1379.65 575.205
62 0 62.1778 10.679 664 54.5994 1379.54 573.857
63 0 64.2294 10.6182 682 55.0132 1378.87 574.833
64 0 64.3956 10.5752 681 55.6344 1379.36 571.524
65 0 67.2327 12.0328 809 54.5352 1379.75 570.575
66 0 68.1733 11.5441 787 55.2529 1379.92 569.231
67 0 72.1672 12.3186 889 53.6254 1380.26 571.917
68 0 73.2162 12.1967 893 54.3303 1381.14 568.889
69 0 77.2011 12.4221 959 54.3274 1381.84 567.526
70 0 77.222 12.8072 989 54.6552 1381.43 564.884
71 0 80.3291 12.5982 1012 54.8656 1381.78 564.736
72 0 82.3848 12.0532 993 55.2659 1381.9 564.863
73 0 85.3219 12.3181 1051 55.2322 1382.26 561.724
74 0 85.2129 12.1578 1036 55.7761 1381.94 562.556
75 0 89.3403 12.8609 1149 55.1932 1382.76 559.985
76 0 91.2259 12.4526 1136 56.1725 1382.6 557.051
77 0 93.2255 12.8184 1195 55.4167 1383.33 556.619
78 0 97.2412 13.0295 1267 54.5714 1382.96 555.403
79 1 53.2623 9.55648 509 54.8369 1383.53 577.568
80 0 53.353 8.30319 443 57.07 1384.06 576.515
81 0 55.5737 11.0484 614 54.7671 1383.77 572.98
82 0 58.3923 11.4741 670 54.006 1383.96 571.322
83 0 59.3186 11.4804 681 54.63 1384.49 571.251
84 0 58.1641 10.5907 616 56.6006 1383.51 571.021
85 0 62.0607 11.6982 726 55.1006 1383.98 569.561
86 0 62.0663 11.1977 695 56.1094 1384.15 568.127
87 0 65.1737 12.5204 816 53.5049 1384.39 566.468
88 0 66.2922 12.6561 839 53.8355 1384.6 564.509
89 0 67.1417 11.8406 795 54.0818 1384.75 564.955
90 0 69.1906 11.3166 783 54.3103 1385.57 562.856
91 0 70.1449 11.3479 796 57.1118 1386.47 563.56
92 0 72.2433 11.8627 857 58.8308 1386.75 561.546
93 0 75.2184 11.8588 892 59.3049 1386.77 559.435
94 0 77.419 11.5734 896 57.9699 1386.96 558.568
95 0 80.1979 11.6711 936 56.7991 1386.49 556.653
96 0 83.2782 12.7885 1065 54.7474 1386.8 554.649
97 0 86.2298 12.8262 1106 54.6483 1386.18 553.063
98 1 48.058 8.6562 416 55.0817 1385.08 572.786
99 0 50.1089 10.1778 510 54.3706 1384.36 571.814
100 0 53.0584 10.8937 578 53.8564 1385.07 570.17
101 0 55.1006 11.7059 645 53.1752 1384.85 570.71
102 0 56.232 11.2214 631 55.6165 1385.69 569.274
103 0 56.1818 12.5485 705 55.9404 1385.92 567.119
104 0 58.1035 11.8926 691 57.4761 1385.67 566.8
105 0 58.1665 11.4499 666 59.1486 1385.76 566.369
106 0 61.1523 11.6758 714 57.3347 1385.95 565.167
107 0 60.1389 11.8393 712 58.0183 1385.77 565.171
108 0 62.1165 12.1707 756 56.746 1385.76 565.484
109 0 62.1074 12.7521 792 54.779 1386.02 564.294
110 0 67.0949 12.4898 838 55.8126 1385.9 562.828
111 0 69.205 12.08 836 56.3026 1385.44 561.019
112 0 70.2539 13.0669 918 55.2026 1385.08 558.34
113 0 73.0792 12.0554 881 55.1725 1384.95 561.577
114 0 75.1063 11.7966 886 55.6941 1385.6 558.252
115 0 77.1113 12.9683 1000 54.933 1385 556.944
116 0 79.1461 12.9381 1024 55.0098 1385.49 554.593
117 0 81.127 11.858 962 56.2755 1385.21 555.483
118 0 85.1356 12.7444 1085 56.2359 1385.1 551.137
119 0 90.1761 12.2649 1106 56.9204 1384.59 551.588
120 1 47.0701 12.0459 567 54.3933 1384.74 571.437
121 0 47.0604 10.1997 480 55.7479 1384.59 571.227
122 0 47.0342 9.37615 441 56.7347 1384.51 571.376
123 0 48.1874 10.0649 485 55.7814 1384.34 571.705
124 0 50.0409 11.9302 597 54.8409 1384.2 568.965
125 0 51.1566 11.0641 566 55.6519 1384.51 569.329
126 0 54.0578 10.4518 565 56.0425 1384.51 567.354
127 0 54.0408 10.5106 568 56.6673 1384.28 567.935
128 0 55.124 10.9027 601 56.6489 1383.86 566.1
129 0 56.1082 12.6898 712 55.4312 1383.86 564.688
130 0 59.0635 10.9035 644 56.9161 1383.58 564.373
131 0 61.0775 12.7379 778 55.5938 1383.81 564.733
132 0 62.1872 11.2724 701 57.2653 1383.59 564.359
133 0 64.1551 11.0046 706 57.8229 1383.69 563.397
134 0 65.1515 11.2354 732 58.1571 1383.76 563.154
135 0 67.1343 12.6463 849 57.0377 1383.89 562.217
136 0 72.2059 12.9629 936 56.7521 1383.96 559.917
137 0 71.2326 11.5256 821 58.9805 1383.61 561.381
138 0 73.1231 11.9251 872 59.1651 1383.85 560.247
139 0 76.1633 12.1975 929 59.1668 1383.8 556.747
140 0 79.1499 11.813 935 59.169 1383.77 554.949
141 0 82.1307 12.7358 1046 58.6415 1384.16 555.044
142 0 84.1468 13.2507 1115 58.5363 1384.42 554.998
143 0 86.1821 12.3227 1062 60.3748 1384.55 551.848
144 1 48.1316 12.2788 591 57.1861 1383.8 573.301
145 0 48.2511 10.4868 506 59.83 1383.42 574.668
146 0 49.2644 11.9356 588 59.1361 1382.96 571.638
147 0 51.2085 11.2091 574 60.0976 1383.28 571.606
148 0 56.204 11.6718 656 58.8201 1382.97 572.226
149 0 53.1383 11.8935 632 59.8212 1382.93 569.759
150 0 56.2994 12.3092 693 58.71 1383.06 569.071
151 0 57.3483 11.7004 671 59.7794 1382.79 569.255
152 0 59.1987 12.6185 747 59.2731 1383.01 567.304
153 0 60.2251 11.54 695 60.3554 1383.01 566.778
154 0 61.209 11.5833 709 61.1298 1383.41 565.883
155 0 65.3337 12.1377 793 59.3266 1383.45 566.055
156 0 66.4217 11.2313 746 60.8244 1383.48 566.011
157 0 68.2781 12.8738 879 60.2105 1383.53 564.267
158 0 68.2781 12.947 884 144.597 1383.52 564.369
159 0 71.3199 12.6192 900 61.2867 1383.74 561.456
160 0 74.4245 11.9584 890 61.7124 1383.02 562.14
161 0 77.3675 11.9818 927 61.3592 1383.4 561.012
162 0 79.2893 12.6625 1004 61.007 1383.48 557.48
163 0 81.4528 13.9958 1140 59.8044 1383.51 556.118
164 0 83.2526 12.2639 1021 61.5034 1383.48 558.467
165 0 87.3736 11.8457 1035 62.3401 1383.34 555.402
166 0 90.3577 13.0039 1175 60.9566 1383.93 553.54
167 0 92.3458 12.1392 1121 62.1249 1383.61 552.574
168 1 46.254 9.1884 425 63.0376 1383.4 575.647
169 0 50.2733 10.7811 542 61.6513 1383.9 572.803
170 0 52.3187 11.1815 585 60.3812 1384.15 573.115
171 0 51.4479 11.3707 585 61.1709 1384.42 572.643
172 0 54.3822 11.8605 645 60.2853 1383.83 572.735
173 0 56.3753 12.4345 701 59.388 1384.2 571.479
174 0 59.4732 12.2912 731 59.9453 1384.04 569.126
175 0 58.2564 12.3592 720 60.6889 1384.44 567.217
176 0 62.233 12.3246 767 59.811 1384.79 567.626
177 0 64.2294 12.1595 781 60.2433 1384.75 564.155
178 0 64.1915 11.5124 739 60.9783 1385.04 565.564
179 0 66.3685 12.5059 830 59.5494 1384.67 562.388
180 0 68.2066 12.3448 842 59.5974 1384.51 563.314
181 0 70.1379 11.9336 837 60.1219 1384.61 562.412
182 0 73.2081 13.2499 970 59.2206 1385.48 559.797
183 0 75.291 12.7638 961 60.1415 1385.18 558.341
184 0 76.2139 12.6486 964 60.6649 1385.22 559.394
185 0 79.3367 13.9658 1108 59.4964 1385.29 558.042
186 0 82.316 13.436 1106 60.5145 1386 555.468
187 0 82.3117 12.6714 1043 61.6088 1385.81 557.121
188 0 85.3769 13.0949 1118 61.3488 1385.81 551.486
189 0 89.2707 12.6357 1128 61.7775 1385.85 551.559
190 0 90.2237 13.2338 1194 62.1072 1386.48 551.275
191 0 98.3011 11.7293 1153 63.9879 1386.24 548.615
192 0 99.441 12.0574 1199 63.1776 1386.39 548.617
193 0 99.1423 14.3329 1421 60.3483 1386.69 545.714
194 0 100.177 12.8074 1283 61.3203 1386.45 544.657
195 0 105.37 14.2925 1506 58.4011 1386.81 542.678
196 0 106.317 13.6667 1453 58.6972 1386.8 541.647
197 0 111.337 13.5894 1513 59.7112 1386.7 540.102
198 0 118.303 10.9718 1298 63.5 1386.8 540.672
199 0 117.235 12.3001 1442 63.5153 1386.91 535.234
200 0 122.287 12.1763 1489 63.9523 1387.49 534.486
201 1 62.3638 12.379 772 61.7396 1387.15 561.098
202 0 65.1697 12.4905 814 61.0307 1387.13 560.756
203 0 66.1545 12.3801 819 60.7326 1386.58 561.388
204 0 71.1884 13.1342 935 60.0374 1386.59 560.72
205 0 73.1737 12.7368 932 61.2779 1387.01 558.02
206 0 74.1814 13.7905 1023 61.6588 1387.25 555.356
207 0 77.1272 13.1082 1011 62.2967 1387.15 555.35
208 0 80.1264 12.5177 1003 63.5194 1387.66 554.244
209 0 85.1796 14.1466 1205 60.839 1387.56 554.841
210 0 85.1722 13.2555 1129 63.2205 1387.57 550.448
211 0 88.1868 13.1426 1159 63.3865 1387.47 549.86
212 0 91.2136 13.5616 1237 63.2393 1387.65 549.535
213 0 94.197 13.132 1237 63.9701 1387.73 547.728
214 0 96.1852 13.6507 1313 63.8736 1387.76 547.206
215 0 99.1821 13.6113 1350 64.7311 1387.54 544.086
216 0 103.18 14.7606 1523 62.218 1387.44 544.831
217 0 106.332 13.5519 1441 64.2012 1386.95 542.492
218 1 59.1755 9.93655 588 64.4354 1386.86 566.951
219 0 60.1682 12.3155 741 62.8435 1387.18 564.335
220 0 63.1898 11.4734 725 63.8593 1387.2 565.895
221 0 62.0896 11.8055 733 64.412 1386.53 564.683
222 0 66.0773 11.9103 787 63.7357 1386.74 564.451
223 0 66.1843 12.4954 827 63.3615 1386.02 561.707
224 0 69.224 12.5968 872 62.906 1386.74 561.903
225 0 72.1508 13.5272 976 61.7018 1386.22 559.151
226 0 73.2533 12.5592 920 63.1967 1386.22 558.479
227 0 76.1998 12.2048 930 63.5946 1385.9 558.106
228 0 77.3281 12.1431 939 64.4505 1386.16 555.462
229 0 80.2208 12.5902 1010 63.8069 1385.78 555.744
230 0 82.2949 12.9656 1067 63.5276 1385.76 553.931
231 0 86.2527 12.8112 1105 63.1421 1386.06 554.181
232 0 91.3854 12.7591 1166 63.4623 1385.89 550.334
233 0 93.3952 12.8379 1199 63.3987 1386.08 550.932
234 0 95.3669 12.8242 1223 63.3818 1386.07 547.655
235 0 98.3498 12.8623 1265 63.5415 1385.62 547.648
236 1 53.3404 11.0798 591 61.7479 1385.78 571.007
237 0 52.1265 10.2059 532 63.6898 1385.45 569.502
238 0 55.2172 11.5363 637 62.1099 1385.22 568.287
239 0 58.2319 12.1068 705 60.3872 1385.24 568.365
240 0 58.2268 11.6269 677 61.6529 1385.29 566.871
241 0 61.1698 12.4408 761 60.707 1385.15 566.997
242 0 61.1789 11.4419 700 62.2729 1385.08 565.786
243 0 65.3325 12.6736 828 60.5036 1384.98 565.087
244 0 67.2506 12.8772 866 60.9273 1384.62 563.291
245 0 68.397 12.1058 828 61.9493 1384.67 566.031
246 0 69.2552 12.5767 871 62.4443 1384.93 562.312
247 0 73.2898 12.6621 928 61.9353 1384.84 561.94
248 0 75.1924 13.5386 1018 61.4892 1385.01 559.482
249 0 78.1332 14.3473 1121 60.6619 1384.87 558.034
250 0 80.1832 12.1846 977 63.0829 1384.53 560.217
251 0 82.1896 12.2887 1010 63.6634 1384.78 556.869
252 0 84.1814 13.6966 1153 61.8742 1384.58 555.67
253 0 88.1909 13.2893 1172 62.4275 1384.85 553.526
254 1 47.2232 11.3504 536 61.5019 1384.35 574.285
255 0 49.1496 11.0886 545 61.3908 1384.72 574.976
256 0 51.1603 11.2587 576 62.5226 1384.95 573.304
257 0 53.119 12.199 648 61.9028 1385.01 571.057
258 0 55.0263 12.3941 682 61.6481 1383.92 570.767
259 0 56.0928 12.9785 728 60.8571 1383.59 571.187
260 0 58.1283 11.9391 694 62.7176 1383.77 570.023
261 0 59.1102 11.9776 708 62.9096 1384.01 568.126
262 0 60.0753 12.8006 769 62.4408 1383.45 567.485
263 0 63.1727 13.3127 841 61.4495 1383.86 568.209
264 0 64.0708 12.7671 818 62.4352 1383.88 570.792
265 0 63.1875 12.7557 806 64.294 1383.77 566.773
266 0 68.0924 13.7167 934 63.121 1384.18 564.927
267 0 68.1125 13.0519 889 64.7649 1383.97 564.726
268 0 71.1921 14.1448 1007 63.7527 1384.22 563.168
269 0 72.2315 12.7507 921 66.0945 1384.25 563.064
270 0 74.2623 13.6543 1014 65.7653 1384.66 560.718
271 0 77.2771 12.8757 995 67.4291 1384.87 558.952
272 0 77.1684 12.3755 955 69.0398 1384.54 559.032
273 0 81.1384 13.3845 1086 67.9061 1384.58 557.59
274 0 84.3022 12.4077 1046 70.3413 1384.47 555.37
275 0 89.1045 14.1295 1259 67.3153 1384.94 554.723
276 0 91.2024 12.9273 1179 69.6039 1385.21 552.916
277 1 48.0796 10.961 527 67.4099 1384.69 575.825
278 0 46.0682 10.441 481 70.0374 1384.56 574.216
279 0 50.0481 12.3281 617 68.0908 1385.25 572.47
280 0 51.0324 12.3255 629 68.6248 1385.21 571.059
281 0 51.1479 11.9849 613 69.7945 1386.23 572.346
282 0 51.1082 11.4072 583 71.8748 1386.68 570.65
283 0 54.1205 11.8809 643 70.409 1386.68 571.198
284 0 54.2233 12.7436 691 71.1954 1387.54 568.124
285 0 58.1812 13.0798 761 69.795 1387.29 567.917
286 0 59.1619 13.0151 770 70.7896 1387.56 567.927
287 0 66.1914 13.9142 921 67.2866 1386.97 570.139
288 0 62.1577 13.2244 822 72.1995 1387.32 565.01
289 0 68.2184 13.7793 940 69.7553 1387.69 566.023
290 0 68.1807 13.5229 922 71.8698 1387.79 562.331
291 0 70.1394 13.8439 971 71.8074 1388.11 562.355
292 0 73.2369 15.0744 1104 69.7174 1388.67 561.987
293 0 75.1883 14.7097 1106 70.8888 1388.44 559.542
294 0 80.2312 15.6922 1259 68.5965 1388.7 559.103
295 0 80.2312 15.7171 1261 172.822 1388.69 559.179
296 0 83.2731 13.798 1149 72.8573 1388.86 556.217
297 0 86.3285 14.2479 1230 71.9821 1388.69 554.615
298 1 52.2354 12.0799 631 70.8051 1389.08 572.596
299 0 53.2486 13.0144 693 68.886 1389.13 572.951
300 0 55.3101 13.3068 736 69.6019 1389.24 571.399
301 0 55.199 13.3879 739 67.9946 1389.58 573.211
302 0 55.199 13.243 731 170.309 1389.59 573.057
303 0 60.2538 13.0448 786 69.8575 1390.26 570.407
304 0 60.2407 14.3259 863 67.5353 1389.11 570.896
305 0 60.0776 12.9 775 71.2374 1389.4 567.83
306 0 61.1594 13.5711 830 69.7614 1389.72 567.299
307 0 65.1899 13.8058 900 68.3567 1389.87 566.826
308 0 66.2231 13.6357 903 69.3411 1389.71 565.174
309 0 68.1268 12.8437 875 70.1543 1390.13 564.807
310 0 71.2824 15.4877 1104 65.4665 1389.93 563.784
311 0 72.1085 12.814 924 70.1374 1389.57 563.315
312 0 72.2736 13.7533 994 69.1771 1389.22 562.49
313 0 78.1792 13.0086 1017 69.2763 1389.7 561.569
314 0 81.1256 13.5962 1103 67.4887 1388.77 559.704
315 0 78.23 13.5754 1062 69.6911 1389.31 557.063
316 0 81.2186 14.0731 1143 67.8793 1389.37 557.57
317 0 82.2539 13.9081 1144 69.0009 1389.13 555.153
318 0 83.1995 14.0986 1173 69.0503 1388.58 553.745
319 0 85.3333 13.9805 1193 69.1282 1389.29 552.422
320 0 86.2271 14.1603 1221 68.0385 1389.01 554.767
321 0 92.1713 13.8655 1278 68.2347 1388.93 550.513
322 0 98.2753 16.5352 1625 62.4252 1389.35 552.998
323 0 101.232 14.6198 1480 65.0777 1388.99 551.049
324 0 100.276 13.6323 1367 66.8903 1388.72 550.153
325 0 102.222 14.1554 1447 67.5964 1388.48 544.178
326 1 56.2369 11.2737 634 67.5331 1388.23 567.842
327 0 61.1157 12.5991 770 63.5636 1388.04 568.278
328 0 61.1065 12.6664 774 65.3424 1388.3 564.218
329 0 66.1411 13.6375 902 62.6075 1387.96 565.237
330 0 68.2825 12.4776 852 63.5153 1387.71 563.744
331 0 66.0812 12.5149 827 65.2551 1387.55 559.053
332 0 68.2072 12.5793 858 65.148 1387.67 558.755
333 0 74.1453 13.9726 1036 61.6448 1387.55 560.882
334 0 77.1221 14.7429 1137 60.7643 1388.06 559.311
335 0 76.298 13.7749 1051 62.9981 1387.6 558.49
336 0 78.2059 12.9914 1016 64.3967 1387.18 555.8
337 0 80.206 13.4155 1076 64.0771 1386.85 553.6
338 0 83.2076 12.1263 1009 65.1576 1387.03 553.689
339 0 90.2279 14.0533 1268 61.7997 1386.73 553.609
340 1 45.0447 9.76808 440 64.45 1386.21 573.057
341 0 45.0469 12.0541 543 63.7182 1385.83 570.893
342 0 48.0608 10.7988 519 63.9037 1385.64 572.68
343 0 50.1345 10.6713 535 65.3963 1385.98 570.432
344 0 50.1608 11.822 593 65.0556 1386.13 569.336
345 0 52.1915 11.841 618 64.2977 1386.71 567.29
346 0 55.1779 11.6895 645 64.2651 1386.99 565.829
347 0 60.1038 12.6781 762 61.3885 1386.43 568.505
348 0 59.1061 12.7736 755 62.6225 1386.34 564.36
349 0 58.1482 11.2299 653 65.0904 1386.25 564.513
350 0 60.1007 11.8634 713 64.1038 1386.39 562.254
351 0 64.0598 12.3322 790 63.6291 1385.91 561.909
352 0 66.0784 12.4398 822 63.337 1386.35 560.783
353 0 68.0295 13.5529 922 62.2701 1385.83 558.418
354 0 71.0676 12.1574 864 63.6829 1386.1 559.699
355 0 71.0555 11.9766 851 64.7709 1386.75 558.348
356 0 75.0741 13.9462 1047 61.7966 1386.59 557.287
357 0 77.0439 13.4988 1040 62.674 1386.72 555.974
358 0 81.0682 12.6437 1025 62.9161 1387.05 555.854
359 0 82.0993 12.6311 1037 63.1157 1386.69 553.135
360 1 48.0155 9.60107 461 59.0976 1385.9 575.696
361 0 47.0518 10.2015 480 60.2042 1385.68 573.596
362 0 45.0615 10.1861 459 61.2723 1385.95 571.983
363 0 47.0202 10.7826 507 61.0927 1385.3 569.381
364 0 51.0493 11.8121 603 58.6451 1385.58 570.415
365 0 51.0264 11.641 594 60.3232 1385.36 567.736
366 0 53.0611 12.1181 643 59.0591 1385.64 566.602
367 0 53.064 11.1187 590 60.6475 1386.09 567.131
368 0 57.1153 12.0458 688 59.8663 1386.83 565.983
369 0 55.0509 12.7518 702 60.1823 1387.18 566.128
370 0 59.097 12.6402 747 59.9036 1387.22 563.776
371 0 62.0982 13.0117 808 59.0149 1387.27 562.298
372 0 61.1351 12.5296 766 60.077 1387.27 561.966
373 0 67.2516 13.7097 922 57.5108 1387.13 561.749
374 0 66.1301 13.6247 901 59.4595 1387.52 557.932
375 0 75.2082 14.307 1076 56.2026 1387.71 561.462
376 0 71.2316 13.1683 938 58.5021 1387.56 558.018
377 0 78.1916 14.0424 1098 56.6794 1388.16 557.659
378 0 80.3125 14.9665 1202 55.4992 1388.55 556.801
379 0 86.2286 13.8353 1193 56.3152 1388.77 555.199
380 1 48.1135 12.5121 602 52.9452 1388.19 572.937
381 0 43.0443 12.1503 523 56.9637 1388.19 572.14
382 0 47.0613 11.9419 562 57.2331 1388 573.281
383 0 52.0864 13.2664 691 55.2952 1388.3 571.201
384 0 61.3358 11.2822 692 53.6951 1388.91 575.785
385 0 60.2436 14.043 846 52.169 1388.8 573.619
386 0 54.1653 12.5911 682 56.4106 1388.99 570.109
387 0 55.129 13.2417 730 56.8534 1389.09 567.053
388 0 58.0924 13.1342 763 56.1586 1389.43 567.25
389 0 66.1698 17.0622 1129 47.7671 1389.74 573.652
390 0 68.164 13.7169 935 52.7294 1390.15 567.67
391 0 72.1049 13.4388 969 52.2167 1390.49 566.853
392 0 67.1646 13.8168 928 53.4978 1390.28 566.986
393 0 64.1014 13.8843 890 54.5809 1390.33 565.675
394 0 76.1786 15.398 1173 50.6624 1390.51 566.213
395 0 81.229 13.505 1097 52.9453 1390.37 561.441
396 0 82.5191 14.4815 1195 51.2469 1390.49 563.748
397 0 87.3419 14.0826 1230 52.287 1390.61 559.175
398 0 89.3026 13.5494 1210 52.1785 1391.05 560.849
399 0 84.2116 13.6679 1151 53.8123 1390.91 557.597
400 0 94.3723 14.1249 1333 51.4854 1391.24 557.214
401 0 96.3004 15.1401 1458 51.2188 1391.3 554.544
