time division length width area intensity CMx CMy
0 0 39.2009 11.3008 443 75.2032 1058.99 581.738
1 0 41.1237 10.6994 440 75.5977 1058.8 581.58
2 0 43.1775 10.839 468 75.7009 1058.76 581.015
3 0 45.1122 11.8593 535 74.8935 1058.95 579.886
4 0 45.1676 12.4868 564 74.3138 1058.7 580.113
5 0 47.1921 12.9471 611 73.9133 1058.61 579.124
6 0 48.1509 12.4816 601 74.7604 1058.36 578.569
7 0 50.2017 12.6689 636 75.0425 1058.57 576.717
8 0 51.1937 13.1461 673 75.1828 1058.92 575.736
9 0 52.2469 12.6515 661 76.938 1058.92 575.679
10 0 54.1031 12.9752 702 76.7721 1058.86 574.809
11 0 56.0342 13.0635 732 76.4617 1058.73 574.27
12 0 56.0297 12.7254 713 78.3394 1059.03 573.027
13 0 60.0383 13.1416 789 76.9861 1058.83 571.522
14 0 60.102 13.0944 787 77.7319 1059.01 570.525
15 0 63.0993 13.3757 844 77.1611 1059.48 569.222
16 0 65.1419 13.3094 867 76.714 1059.12 569.131
17 0 68.1125 13.5511 923 76.5471 1059.32 567.661
18 0 70.2603 13.4642 946 76.87 1059.34 567.001
19 0 73.1771 13.1735 964 77.4969 1059.17 566.657
20 0 73.1484 13.001 951 78.5657 1059.73 564.855
21 0 76.1768 13.6918 1043 77.8121 1059.63 563.822
22 0 80.1779 13.6072 1091 77.791 1059.81 562.139
23 0 83.1291 14.0625 1169 77.4217 1060.26 560.121
24 0 86.3312 13.3671 1154 78.1759 1060.12 559.184
25 1 46.1595 11.4386 528 78.3939 1059.45 580.93
26 0 49.2053 11.828 582 78.6838 1059.41 579.376
27 0 51.2046 12.3817 634 100.347 1059.65 577.968
28 0 51.1241 12.2643 627 79.3907 1059.52 576.04
29 0 52.0907 13.2461 690 78.3725 1059.95 574.929
30 0 56.1092 12.9747 728 78.3283 1060.32 574.368
31 0 58.1271 13.2124 768 77.4492 1059.99 573.406
32 0 56.1793 12.7627 717 79.4282 1060.16 573.48
33 0 60.0512 13.7882 828 76.2971 1060.33 572.844
34 0 63.1647 12.8236 810 77.0617 1060.2 570.427
35 0 66.0973 13.5406 895 74.7229 1060.71 569.476
36 0 67.2122 13.197 887 75.3664 1061.08 569.733
37 0 70.1076 13.736 963 73.9346 1060.8 567.542
38 0 71.2158 13.101 933 75.3451 1060.76 566.729
39 0 74.1529 13.1215 973 75.7924 1061.18 565.473
40 0 76.1552 13.5644 1033 74.3456 1061.7 564.913
41 0 79.2106 13.3821 1060 74.5726 1061.1 563.818
42 0 82.2697 13.2005 1086 74.4199 1061.31 561.805
43 0 85.203 13.4972 1150 74.0148 1061.25 558.127
44 0 88.1757 13.6999 1208 73.0993 1061.32 558.135
45 1 45.02 10.8174 487 75.5462 1061.71 579.138
46 0 47.0354 11.8847 559 75.0572 1061.71 577.191
47 0 49.041 12.1531 596 74.4312 1061.82 576.52
48 0 50.027 12.4333 622 74.1383 1061.39 576.471
49 0 52.076 12.8274 668 73.7754 1061.62 574.636
50 0 53.1139 13.2357 703 73.266 1061.33 575.317
51 0 54.0523 12.6359 683 74.9239 1062.19 573.318
52 0 56.1006 13.1728 739 74.4384 1061.87 572.697
53 0 58.1172 13.1803 766 74.393 1061.45 571.231
54 0 61.0935 12.7182 777 67.3269 1061.04 570.216
55 0 63.0857 13.2835 838 66.8091 1061.62 571.147
56 0 65.0649 12.6643 824 68.483 1062.14 570.289
57 0 67.1173 13.8116 927 65.7238 1062.35 568.997
58 0 68.1423 13.149 896 66.3348 1062.03 567.946
59 0 70.0663 13.8298 969 65.8421 1062.34 566.725
60 0 73.2457 13.5844 995 66.3226 1062.91 564.581
61 0 77.1511 14.504 1119 65.4629 1063.2 561.534
62 0 81.1443 13.4452 1091 66.8213 1063.09 560.014
63 0 82.1646 13.3147 1094 67.5411 1062.39 558.921
64 0 87.0961 13.6057 1185 66.8717 1063 556.851
65 0 89.0959 13.7941 1229 66.4378 1063.15 555.722
66 0 91.3098 13.602 1242 66.9549 1062.86 553.368
67 0 95.1615 13.2301 1259 67.7482 1063.47 553.076
68 1 49.1999 10.6301 523 68.6941 1063.58 576.837
69 0 50.1829 11.7171 588 68.2653 1064.22 575.281
70 0 53.0599 11.8168 627 67.9219 1063.61 573.791
71 0 52.1466 11.9663 624 68.2612 1063.93 574.072
72 0 56.1254 11.7594 660 68.8121 1064.25 571.33
73 0 56.1412 12.5576 705 68.034 1064.31 570.885
74 0 57.1989 12.1681 696 68.4971 1063.81 569.477
75 0 61.0521 13.8406 845 65.955 1064.32 568.114
76 0 62.1466 13.1141 815 67.6393 1063.77 567.467
77 0 65.1309 12.9739 845 68.1041 1064.64 566.299
78 0 66.2308 13.4077 888 67.7365 1064.18 566.755
79 0 69.1554 13.8962 961 66.9209 1064.72 564.078
80 0 71.1243 13.2303 941 68.1775 1064.56 563.003
81 0 74.1855 13.5876 1008 67.9782 1064.59 559.688
82 0 73.1267 13.1689 963 70.215 1065.46 559.688
83 0 76.2759 12.9792 990 70.5667 1065.82 557.544
84 0 80.4127 13.8162 1111 68.8335 1065.87 556.448
85 0 83.2612 13.2475 1103 69.7171 1066.45 555.268
86 1 44.2173 11.4435 506 70.087 1065.87 573.81
87 0 46.0801 11.4583 528 69.1155 1066.19 573.502
88 0 46.1486 11.268 520 69.3019 1066.83 573.048
89 0 49.0382 12.8063 628 67.7675 1066.97 571.065
90 0 50.0441 11.6297 582 69.5464 1067.76 570.83
91 0 50.1053 12.3939 621 70.3366 1068.33 567.939
92 0 51.1647 12.9386 662 69.6148 1068.12 567.068
93 0 52.0679 12.2532 638 69.9592 1068.19 565.665
94 0 54.0745 13.0191 704 69.1165 1067.97 566.413
95 0 60.0509 13.0389 783 67.5275 1067.98 564.547
96 0 60.1333 13.4867 811 67.4464 1068.4 561.894
97 0 63.2261 12.9693 820 67.3341 1067.95 562.098
98 0 64.135 12.2866 788 68.7805 1067.56 561.302
99 0 67.0523 13.1986 885 67.5119 1066.98 559.427
100 0 68.1205 13.7991 940 67.2383 1067.23 557.819
101 0 71.1153 13.5976 967 67.7466 1067.81 557.885
102 0 73.1342 12.9351 946 69.2812 1067.81 556.957
103 0 76.1071 13.4022 1020 70.2206 1067.28 553.782
104 0 78.1674 13.3048 1040 70.7394 1067.09 552.136
105 0 80.195 13.8163 1108 70.9305 1067.47 551.615
106 0 81.1153 12.6856 1029 72.7493 1067.48 551.226
107 0 87.1089 13.8907 1210 70.4727 1067.61 547.818
108 1 44.0414 9.76354 430 73.6791 1067.19 570.505
109 0 46.0385 10.7953 497 71.9517 1067.38 569.388
110 0 48.0301 11.4303 549 71.2113 1067.17 568.12
111 0 49.1903 11.8519 583 70.7959 1066.58 567.427
112 0 51.1338 11.4992 588 72.3827 1066.7 565.704
113 0 52.1091 12.1476 633 70.9463 1066.77 565.539
114 0 54.1196 12.6387 684 69.9152 1066.54 563.898
115 0 55.115 11.9024 656 71.2287 1066.56 564.226
116 0 58.1637 12.0694 702 70.604 1066.56 563.05
117 0 59.0525 12.074 713 70.4951 1066.36 562.708
118 0 61.115 12.5828 769 70.4161 1066.65 560.875
119 0 61.1492 12.4123 759 71.4822 1066.3 560.813
120 0 65.0713 12.0022 781 70.8015 1066.71 561.27
121 0 67.1198 12.2319 821 70.3045 1066.66 558.216
122 0 69.0778 12.2905 849 70.3369 1066.53 556.674
123 0 73.0881 13.2853 971 68.8733 1066.09 554.478
124 0 75.1232 12.2466 920 70.6837 1066.2 555.292
125 0 77.1915 12.7475 984 70.0254 1066.69 551.578
126 0 83.1619 13.7563 1144 67.3855 1065.69 552.599
127 0 83.1831 12.8151 1066 69.8752 1065.49 551.46
128 1 46.0243 10.0164 461 71.0824 1064.93 569.421
129 0 45.0177 10.9068 491 71.5112 1064.85 568.711
130 0 47.0451 10.5006 494 71.6599 1064.37 567.737
131 0 51.0462 10.5786 540 71.7389 1064.79 566.807
132 0 53.0776 11.4926 610 69.7262 1064.95 566.866
133 0 54.0287 12.0677 652 68.8282 1064.07 565.526
134 0 53.1357 12.0823 642 69.866 1065.21 565.12
135 0 56.1367 12.1667 683 69.0322 1065.06 564.184
136 0 57.1756 12.3654 707 69.1867 1065.22 564.465
137 0 59.0642 12.5457 741 69.5317 1065.17 563.85
138 0 61.083 12.5239 765 69.1085 1065.49 563.193
139 0 65.1236 13.0214 848 66.9139 1065.56 561.159
140 0 67.1213 13.1255 881 67.0114 1065.13 559.314
141 0 67.1213 13.1255 881 149.523 1065.13 559.314
142 0 71.0725 12.832 912 67.8542 1065.48 556.479
143 0 73.0757 12.795 935 68.0695 1065.14 556.544
144 0 75.1771 12.424 934 68.5707 1065.06 556.521
145 0 78.1475 12.566 982 68.4175 1065.01 555.825
146 0 79.0783 12.4307 983 69.4883 1064.96 553.961
147 1 42.0269 10.4457 439 68.6788 1064.22 572.695
148 0 44.0607 9.60039 423 69.6407 1063.98 572.792
149 0 43.0835 11.8143 509 66.7151 1063.88 572.409
150 0 44.0221 11.3579 500 67.512 1063.79 571.598
151 0 46.0157 11.3005 520 68.3096 1063.56 570.746
152 0 48.0948 11.706 563 67.3606 1062.99 568.917
153 0 49.0622 12.0052 589 67.5722 1062.99 568.75
154 0 49.1509 11.9632 588 67.9966 1062.8 568.519
155 0 52.0766 11.4639 597 68.66 1062.96 567.658
156 0 52.0685 11.7345 611 68.3175 1063.42 567.478
157 0 54.208 12.5074 678 67.41 1063.43 567.108
158 0 56.1436 12.6461 710 67.2944 1063.64 564.297
159 0 57.0884 13.1901 753 66.2829 1064.08 565.199
160 0 59.0729 12.2391 723 68.0747 1063.88 564.43
161 0 60.0369 13.2585 796 67.2161 1064.09 562.05
162 0 61.1078 13.0098 795 68.0013 1063.56 562.347
163 0 63.1204 12.9752 819 68.3871 1063.83 561.294
164 0 66.1312 13.7454 909 66.9307 1063.52 560.565
165 0 68.0286 12.8475 874 69.1808 1064.23 558.735
166 0 69.0469 12.9767 896 70.1931 1064.14 558.489
167 0 71.1595 13.5611 965 69.9585 1063.87 557.595
168 0 71.1229 12.6963 903 72.0853 1063.78 557.813
169 0 76.1793 13.2057 1006 70.7117 1064.29 556.414
170 0 79.2949 13.2922 1054 70.4023 1064.19 554.585
171 0 81.1498 14.0604 1141 69.4847 1064.55 552.419
172 0 83.1814 13.3564 1111 71.2763 1065.06 550.968
173 0 86.1902 13.4354 1158 71.0967 1065.41 549.821
174 1 44.1209 10.9472 483 71.617 1064.99 570.47
175 0 44.0898 10.8188 477 72.956 1065.35 568.201
176 0 48.2355 11.2158 541 70.8078 1065.28 568.654
177 0 48.1584 10.6939 515 72.5359 1065.64 567.165
178 0 51.1377 11.2441 575 71.6313 1066.03 567.043
179 0 51.1872 12.2882 629 71.3847 1066.31 564.051
180 0 54.1093 12.0866 654 71.5474 1066.26 564.786
181 0 57.1764 12.6101 721 70.0569 1066.48 564.204
182 0 57.0981 12.785 730 70.6822 1067.01 562.456
183 0 59.0917 12.3198 728 71.6786 1066.99 561.14
184 0 60.2516 12.6138 760 71.7605 1066.98 561.717
185 0 62.1162 13.4265 834 70.7098 1066.89 560.012
186 0 63.3941 12.446 789 72.8251 1067.64 556.873
187 0 65.1569 12.6617 825 72.4667 1067.2 558.741
188 0 67.1776 12.7275 855 72.883 1067.64 555.593
189 0 69.0886 12.7083 878 72.8838 1067.24 556.542
190 0 72.0425 13.3255 960 71.1521 1068.06 555.266
191 0 74.1645 13.2813 985 71.9472 1068.04 553.306
192 0 76.1759 12.9437 986 71.7241 1068.23 552.281
193 0 76.1759 12.9175 984 164.619 1068.23 552.349
194 0 81.2867 13.5323 1100 68.6845 1068.43 551.38
195 0 83.1211 13.1134 1090 68.8972 1068.86 549.604
196 0 86.1618 13.8576 1194 66.8819 1068.9 546.599
197 0 87.2427 12.6314 1102 69.5064 1069.17 546.996
198 0 90.1839 13.2507 1195 70.3029 1069.21 544.196
199 0 94.2124 13.4483 1267 70.8777 1069.41 542.856
200 0 96.1718 13.2887 1278 72.0501 1069.72 540.554
201 1 51.1729 11.0019 563 72.5702 1069.48 562.643
202 0 54.0925 10.0938 546 73.7527 1069.6 562.046
203 0 55.0757 10.5128 579 72.9171 1069.24 562.972
204 0 58.1465 11.9698 696 71.4641 1069.24 562.056
205 0 58.1277 11.5264 670 71.9 1069.53 561.122
206 0 62.1171 12.3798 769 70.6359 1069.7 558.637
207 0 64.1193 12.2896 788 70.7234 1069.68 559.867
208 0 65.1698 12.337 804 70.8843 1069.67 557.163
209 0 68.1764 12.9517 883 69.3511 1069.71 556.426
210 0 70.282 12.6633 890 69.964 1069.75 554.696
211 0 72.2013 12.4236 897 71.0045 1069.42 552.381
212 0 75.161 12.5464 943 70.6002 1069.34 553.215
213 0 75.1476 12.4422 935 72.1059 1069.31 550.095
214 0 79.2157 12.5985 998 71.0561 1069.27 550.953
215 0 84.2342 13.2369 1115 70.1874 1069.42 547.413
216 0 87.175 12.2397 1067 71.2099 1069.67 546.966
217 1 42.0973 10.9033 459 71.6993 1069.12 567.083
218 0 46.1935 11.1488 515 69.6738 1068.95 566.528
219 0 45.0445 11.8327 533 70.7824 1068.65 565.306
220 0 49.0776 12.2255 600 69.7217 1068.24 565.378
221 0 50.0844 12.419 622 69.6093 1068.3 566.891
222 0 50.0844 12.3392 618 164.456 1067.29 566.888
223 0 50.081 12.0205 602 71.9751 1068.22 566.06
224 0 51.0734 12.1981 623 72.1364 1068.14 565.437
225 0 53.13 12.9682 689 71.5123 1067.73 563.044
226 0 55.1475 12.53 691 72.3227 1067.42 563.472
227 0 59.1334 12.8354 759 70.4256 1066.99 562.478
228 0 59.1588 12.5256 741 72.2375 1067.28 563.263
229 0 61.1484 12.2325 748 72.8757 1066.61 561.084
230 0 63.0938 13.9475 880 70.65 1066.95 559.974
231 0 63.0546 12.3385 778 75.0463 1066.96 558.631
232 0 67.1274 12.9008 866 73.485 1066.6 558.385
233 0 68.0601 13.1942 898 73.7116 1066.92 556.396
234 0 70.1464 12.7876 897 74.379 1066.78 554.804
235 0 71.107 12.8398 913 74.6846 1065.92 554.561
236 0 75.0797 12.893 968 74.032 1065.74 552.919
237 0 77.0663 13.2224 1019 73.1923 1065.55 553.039
238 0 81.0668 13.5074 1095 72.3936 1065.71 550.921
239 1 41.0405 10.0389 412 74.1238 1065.59 571.027
240 0 43.0568 11.4732 494 71.2571 1065.98 571.581
241 0 43.048 10.4767 451 73.5344 1065.91 570.519
242 0 45.034 10.9029 491 73.6517 1065.94 569.892
243 0 45.0342 12.435 560 71.2125 1066.27 569.311
244 0 48.1528 11.8166 569 71.1248 1066.05 568.525
245 0 47.0883 12.8694 606 70.3317 1066.51 568.482
246 0 49.0922 11.9978 589 70.8472 1066.1 567.998
247 0 51.092 12.4873 638 69.9843 1065.89 566.781
248 0 50.0927 12.1774 610 164.357 1064.89 566.27
249 0 51.1344 12.2814 628 72.0366 1066.14 566.623
250 0 52.0661 12.2921 640 72.1359 1066.4 565.925
251 0 55.1059 12.4306 685 71.4657 1066.32 565.492
252 0 58.1428 12.5553 730 70.4274 1066.34 564.707
253 0 57.0444 12.9022 736 71.2255 1066.85 564.367
254 0 60.1017 13.2109 794 70.102 1066.26 562.772
255 0 61.0452 13.3835 817 69.9596 1066.63 562.344
256 0 62.0853 12.0157 746 72.2869 1067.26 563.359
257 0 67.1337 13.138 882 69.7279 1067.31 562.085
258 0 67.1037 12.8011 859 70.61 1067.12 561.024
259 0 69.0748 13.5071 933 69.7535 1067.01 559.946
260 0 73.2326 13.4503 985 69.5604 1066.62 558.099
261 0 75.224 13.3069 1001 70.5165 1066.53 557.656
262 0 76.1516 13.0135 991 71.6589 1066.26 556.171
263 0 77.2063 13.5999 1050 71.7533 1066.7 554.451
264 0 83.2096 13.2797 1105 71.7629 1066.33 554.391
265 0 83.233 13.264 1104 73.0154 1065.71 552.547
266 0 88.1489 12.8986 1137 73.7221 1066.02 551.602
267 0 89.2066 13.9227 1242 72.4742 1066.29 549.3
268 1 46.1926 11.2789 521 74.142 1066.32 571.023
269 0 46.2121 10.2787 475 75.7053 1066.18 571.427
270 0 49.3558 11.1436 550 74.0509 1066.59 570.811
271 0 50.2153 11.9286 599 72.7412 1066.47 569.482
272 0 51.1282 10.992 562 74.4822 1067 568.347
273 0 51.1112 11.9935 613 73.0881 1066.91 568.093
274 0 54.1303 11.9157 645 72.8682 1066.74 567.344
275 0 55.1724 11.89 656 73.2317 1067.21 565.852
276 0 57.0989 12.2069 697 72.241 1067.4 564.802
277 0 60.0206 12.0792 725 71.7752 1067.67 563.988
278 0 62.0904 13.0294 809 70.2299 1067.4 560.695
279 0 63.1356 12.291 776 71.4704 1067.49 560.407
280 0 66.1928 12.7506 844 70.0498 1067.58 559.128
281 0 68.128 13.2104 900 68.9389 1067.3 557.683
282 0 71.1571 12.4935 889 70.117 1067.56 556.852
283 0 72.119 13.3945 966 69.4576 1067.99 554.707
284 0 75.1454 12.6422 950 70.4968 1067.91 554.226
285 0 78.1094 13.4043 1047 69.2923 1067.8 552.826
286 0 79.1954 12.6775 1004 71.2311 1068.18 552.066
287 0 82.105 13.3609 1097 70.3582 1067.93 549.83
288 0 83.181 12.1662 1012 72.3132 1068.06 548.978
289 1 47.0717 11.748 553 70.8608 1068.2 567.058
290 0 50.0832 11.6207 582 70.3832 1068.47 566.177
291 0 50.0458 11.4096 571 72.7023 1068.74 563.632
292 0 51.0609 11.3198 578 72.4516 1069.05 564.093
293 0 55.0188 12.632 695 69.3612 1069.56 562.594
294 0 56.1104 12.6714 711 69.4613 1070.1 561.134
295 0 58.067 13.14 763 69.2647 1070.86 560.072
296 0 60.0649 12.4532 748 70.2099 1070.71 558.307
297 0 62.0728 13.3714 830 68.9566 1070.93 555.977
298 0 63.0849 12.1741 768 70.0807 1071.3 556.654
299 0 67.0886 11.6413 781 69.9616 1071.03 556.077
300 0 69.1844 13.3267 922 67.0705 1071.55 554.751
301 0 72.1847 13.7702 994 65.9376 1071.54 553.188
302 0 74.0896 13.2947 985 66.9695 1071.85 551.379
303 0 75.0886 12.2122 917 69.0131 1071.54 550.671
304 0 77.0868 12.7778 985 67.8437 1071.58 550.411
305 0 80.1908 13.0813 1049 67.164 1071.77 549.448
306 0 83.1494 13.3014 1106 66.2794 1071.95 549.197
307 0 87.1249 13.6241 1187 65.6546 1071.64 546.166
308 0 89.1922 13.2299 1180 66.339 1071.42 544.752
309 1 44.0907 11.1588 492 65.9919 1070.95 567.024
310 0 45.0833 10.5582 476 67.1176 1071.24 565.693
311 0 47.197 11.6745 551 64.4229 1070.22 565.563
312 0 48.0345 12.1163 582 64.8763 1070.06 564.388
313 0 50.0614 12.4048 621 63.9726 1070.49 563.494
314 0 50.0383 11.8909 595 66.0874 1070.56 560.605
315 0 53.1792 12.0724 642 64.9922 1070.16 560.447
316 0 54.1138 12.0857 654 64.6911 1070.36 560.485
317 0 56.0744 12.0911 678 65.0103 1070.19 560.263
318 0 56.0385 11.849 664 66.2575 1070.08 558.577
319 0 58.108 12.8898 749 64.8518 1069.92 558.142
320 0 62.2085 13.085 814 64.0762 1070.6 557.009
321 0 62.227 13.1615 819 64.5238 1069.7 556.195
322 0 63.3059 12.6213 799 65.8185 1069.96 555.761
323 0 67.149 13.0456 876 65.089 1069.83 554.941
324 0 67.1876 12.9042 867 66.3495 1070.11 553.037
325 0 67.1876 12.9191 868 168.382 1069.1 553.055
326 0 70.1289 12.9618 909 66.8933 1070.05 553.043
327 0 74.1677 13.5638 1006 65.8618 1069.53 550.275
328 0 73.2104 11.5421 845 69.6911 1069.64 550.497
329 0 79.2425 13.7174 1087 65.7213 1068.94 549.709
330 1 41.1464 9.64847 397 68.2418 1068.45 566.756
331 0 41.1616 10.4223 429 67.5594 1068.63 566.501
332 0 42.1639 10.1746 429 68.2937 1068.3 566.485
333 0 46.3267 11.3326 525 65.5124 1068.25 566.227
334 0 47.0819 12.1915 574 64.2178 1068.7 565.97
335 0 48.1057 12.3478 594 64.4461 1068.77 564.554
336 0 50.0702 12.2428 613 64.0522 1067.79 564.821
337 0 51.0982 12.2901 628 64.551 1067.89 564.158
338 0 52.1124 12.1468 633 65.2591 1068.3 561.837
339 0 52.0677 12.0612 628 65.6131 1067.87 563.303
340 0 53.0969 12.4113 659 65.6722 1067.77 561.904
341 0 56.1774 13.1725 740 64.023 1067.77 560.53
342 0 55.1824 12.0872 667 66.5697 1067.61 559.303
343 0 60.117 13.4904 811 63.3613 1067.63 559.351
344 0 60.117 13.5236 813 156.961 1067.63 559.321
345 0 61.225 11.7272 718 66.1657 1067.81 557.911
346 0 61.225 11.7272 718 167.882 1067.81 557.891
347 0 65.0872 13.044 849 64.9847 1067.51 555.146
348 0 66.1086 13.1602 870 64.9989 1067.39 554.813
349 0 69.1086 12.2561 847 66.2373 1067.39 552.222
350 0 72.2134 12.92 933 65.0761 1067.32 551.905
351 1 37.015 9.67175 358 66.9274 1067.08 569.176
352 0 38.035 10.6744 406 65.6059 1067.22 569.135
353 0 38.0477 10.6445 405 67.0148 1067.17 567.669
354 0 40.0445 11.687 468 64.4573 1067.62 568.282
355 0 42.0489 11.4153 480 65.5333 1067.64 566.852
356 0 43.055 11.7756 507 64.641 1067.71 567.369
357 0 45.0814 13.3093 600 62.405 1067.85 567.908
358 0 44.0676 12.0497 531 65.4896 1068.12 567.966
359 0 45.1021 12.5271 565 65.1611 1068.02 566.864
360 0 45.0972 11.5972 523 67.8031 1068.07 565.96
361 0 49.0883 12.7118 624 64.9696 1067.93 566.138
362 0 49.1002 11.5478 567 67.328 1068.12 566.305
363 0 52.0198 12.8797 670 65.0985 1068.11 563.957
364 0 51.0798 12.6665 647 66.3431 1068.24 563.845
365 0 54.0655 12.5033 676 66.463 1067.81 563.641
366 0 54.0511 13.4502 727 65.9945 1068.46 561.887
367 0 57.0385 13.9905 798 64.5125 1068.62 561.712
368 0 57.0385 14.0081 799 157.537 1069.63 561.701
369 0 59.1057 12.7399 753 67.3028 1069.06 559.742
370 0 61.0554 12.6934 775 67.5665 1068.82 557.778
371 0 62.0595 13.5193 839 65.8284 1069.33 558.206
372 0 66.0892 13.6936 905 65.4431 1069.15 555.4
373 0 66.0885 12.9523 856 66.7617 1069.33 554.779
374 0 70.0682 13.2157 926 65.7559 1069.43 554.168
375 0 73.0765 13.3285 974 65.1335 1069 553.134
376 0 75.0552 12.6174 947 64.6895 1069.33 551.61
377 0 75.057 12.5638 943 64.772 1069.64 551.632
378 1 41.029 11.1385 457 64.4179 1069.27 567.484
379 0 42.0538 11.6755 491 64.0652 1069.55 566.8
380 0 43.0395 11.7334 505 64.1802 1069.01 566.818
381 0 44.1294 12.5313 553 63.4557 1069.39 566.427
382 0 46.0723 11.9378 550 63.8345 1069.39 566.38
383 0 47.1054 11.4424 539 64.3692 1069.76 565.399
384 0 49.0615 12.4334 610 63.2328 1070.03 563.475
385 0 52.0823 12.461 649 63.1094 1070.12 563.336
386 0 52.064 13.1569 685 62.0088 1070.59 563.212
387 0 55.1579 13.3979 739 61.0541 1070.74 561.253
388 0 55.0471 12.9344 712 62.5702 1070.93 560.215
389 0 57.0999 12.6445 722 62.9765 1071.35 559.353
390 0 60.0369 12.7755 767 63.0378 1071.35 557.735
391 0 62.0344 13.0411 809 62.4635 1071.71 556.714
392 0 63.0782 13.2534 836 62.5969 1071.59 555.108
393 0 65.0723 12.3248 802 63.818 1071.69 554.183
394 0 65.1612 13.106 854 63.6183 1071.71 554.297
395 0 69.1744 12.5046 865 63.9988 1071.61 550.862
396 0 71.2945 13.1847 940 63.1489 1071.96 551.488
397 0 73.1217 12.5134 915 64.6055 1072.1 550.832
398 0 75.1535 12.9468 973 64.1357 1072.17 549.377
399 1 43.1542 10.1497 438 65.4041 1071.74 565.171
400 0 44.0778 10.5042 463 65.1857 1071.83 564.449
401 0 46.151 10.7257 495 64.7818 1072 565.501
402 0 47.0941 11.063 521 64.3301 1072.08 565.167
403 0 47.0294 11.546 543 64.1676 1071.89 563.7
