time division length width area intensity CMx CMy
703 0 47.0172 10.762 506 56.2036 1147.3 509.545
704 0 51.1716 11.5298 590 55.3356 1146.18 514.129
705 0 52.1228 12.2787 640 54.3922 1145.9 518.819
706 0 54.0577 11.8947 643 54.1509 1145.63 523.891
707 0 54.0836 11.5377 624 55.141 1145.57 525.699
708 0 55.1892 11.977 661 54.475 1146.52 529.113
709 0 58.0536 12.1267 704 60.6861 1146.05 533.445
710 0 58.0492 11.8865 690 66.8493 1145.42 536.941
711 0 60.253 12.2318 737 66.6119 1145.49 540.962
712 0 61.1107 12.5019 764 66.6885 1145.55 543.741
713 0 64.1082 12.3385 791 66.6776 1145.54 548.78
714 0 66.1813 12.4355 823 67.3597 1145.34 552.872
715 0 67.2516 11.8213 795 69.2931 1145.5 550.938
716 0 69.2643 12.3585 856 69.0514 1145.52 551.193
717 0 72.2658 11.7206 847 69.8867 1144.92 549.105
718 1 36.1078 9.55471 345 69.4464 1144.61 565.249
719 0 36.0244 8.93838 322 69.7981 1145.24 565.186
720 0 40.081 10.6784 428 68.9182 1145.66 566.292
721 0 40.1223 9.81997 394 70.4518 1145.3 565.668
722 0 41.1584 10.6175 437 69.4645 1144.57 566.709
723 0 43.1801 9.8425 425 70.3741 1144.37 567.494
724 0 46.2443 10.9851 508 69.1417 1144.21 565.524
725 0 46.1284 10.254 473 70.5201 1144.07 565.353
726 0 47.2375 11.0717 523 69.1855 1143.92 565.38
727 0 47.1045 9.42584 444 71.8153 1144 563.829
728 0 48.2617 10.5674 510 71.8745 1143.78 561.629
729 0 50.1668 11.4219 573 71.2478 1143.28 561.726
730 0 51.1431 11.067 566 71.8392 1143.74 563.042
731 0 52.1829 11.3064 590 72.6034 1143.51 563.642
732 0 55.146 11.2066 618 73.6084 1144.21 561.176
733 0 56.321 11.2747 635 74.3528 1143.52 560.329
734 0 58.2799 11.4105 665 75.0391 1143.74 560.31
735 0 56.0992 10.7666 604 76.5861 1144.51 559.391
736 0 58.0943 11.9633 695 76.4849 1143.65 558.601
737 0 60.1056 12.0288 723 76.6238 1143.81 556.068
738 0 63.15 11.8923 751 77.1372 1143.54 557.916
739 0 65.1336 10.8393 706 78.932 1143.84 556.986
740 0 63.267 10.8271 685 80.5664 1143.41 554.012
741 0 69.1079 12.1983 843 78.7331 1143.47 555.582
742 0 70.1636 13.6823 960 78.4708 1143.46 553.54
743 0 72.1703 13.385 966 79.146 1143.05 552.703
744 0 73.1019 12.0106 878 81.5535 1143.43 552.485
745 0 76.1631 11.9087 907 81.5105 1143.09 551.928
746 0 78.2405 12.2187 956 82.3285 1143.03 549.505
747 1 40.0768 9.83112 394 81.9695 1143.3 569.627
748 0 47.1776 10.6194 501 80.1238 1143.59 569.443
749 0 47.0928 11.127 524 79.9447 1143.55 569.91
750 0 46.059 11.7458 541 81.5712 1143.04 567.29
751 0 48.1499 11.8796 572 81.6731 1142.91 566.89
752 0 47.0529 11.6465 548 79.9015 1144.05 566.672
753 0 49.1146 12.2367 601 79.0682 1144.04 566.777
754 0 52.1792 11.863 619 80.0388 1143.53 565.065
755 0 51.1584 12.1388 621 80.8824 1143.38 564.124
756 0 52.1195 11.2626 587 81.8382 1142.99 565.397
757 0 55.1374 11.5167 635 82.3937 1143.33 563.381
758 0 56.1704 10.753 604 84.4884 1143.23 564.505
759 0 60.0551 12.705 763 81.8283 1142.74 564.083
760 0 61.2457 12.0988 741 80.9514 1143.2 563.105
761 0 61.1166 11.6826 714 82.6737 1143.36 560.013
762 0 63.081 14.3783 907 79.5469 1143.95 559.38
763 0 63.2915 11.4233 723 83.5754 1143.76 559.101
764 0 68.1324 14.1049 961 80.2789 1143.61 559.791
765 0 67.1275 12.5731 844 83.7808 1143.31 557.859
766 0 68.2426 12.6167 861 83.9756 1143.02 556.792
767 0 72.1559 12.4314 897 84.0435 1142.73 558.319
768 0 74.2974 12.5307 931 83.9538 1142.36 555.967
769 0 75.4689 12.1772 919 84.9173 1142.15 554.064
770 0 79.3052 13.5552 1075 81.5209 1141.76 552.518
771 0 81.4075 12.333 1004 82.8217 1142.48 551.354
772 0 81.4075 12.3944 1009 141.173 1143.48 551.396
773 1 43.1264 11.3851 491 81.0468 1142.31 570.69
774 0 44.1133 9.06756 400 82.525 1142.88 571.35
775 0 46.067 10.7886 497 82.3803 1143.2 569.825
776 0 48.0495 11.6547 560 81.4786 1143.06 569.391
777 0 49.0502 11.0499 542 82.0092 1143.08 568.76
778 0 51.1453 11.7899 603 80.2023 1143.13 567.511
779 0 51.0367 11.6975 597 80.9347 1143.43 567.352
780 0 53.0301 11.3332 601 70.8469 1143.5 567.612
781 0 54.0913 11.5545 625 71.3744 1143.69 565.094
782 0 57.0837 12.6306 721 70.5687 1143.41 563.842
783 0 58.1327 12.2134 710 72.4366 1143.16 564.148
784 0 59.2386 12.3568 732 73.6148 1143.59 562.149
785 0 61.0387 13.0737 798 73.6178 1143.49 560.382
786 0 63.1677 12.8863 814 74.3857 1143.78 558.291
787 0 65.088 11.6919 761 76.2286 1143.42 559.673
788 0 67.0827 12.3579 829 76.971 1143.69 557.425
789 0 71.2591 13.4158 956 75.8473 1144.47 555.793
790 0 73.3653 13.6168 999 76.3353 1144.23 556.153
791 0 73.378 12.6877 931 78.5145 1144.87 554.416
792 1 40.0252 10.2935 412 76.915 1144.79 574.546
793 0 40.1384 10.2146 410 80.2439 1144.91 570.734
794 0 43.0461 11.3831 490 79.9 1144.42 571.147
795 0 42.1182 11.3253 477 81.1635 1144.36 570.396
796 0 44.1381 11.9851 529 81.1096 1144.64 567.964
797 0 47.1506 10.6043 500 82.794 1144.02 567.932
798 0 47.1332 12.2843 579 73.2124 1144.34 566.736
799 0 49.3011 12.3121 607 74.4217 1144.06 565.794
800 0 51.0918 12.3895 633 74.0174 1144.58 566.499
801 0 50.1959 11.6942 587 76.2112 1144.84 566.499
802 0 52.1738 12.4775 651 75.6359 1144.98 565.1
803 0 54.1184 13.1563 712 74.941 1144.95 565.166
804 0 56.1692 11.6434 654 77.7737 1144.92 564.315
805 0 56.0526 12.5775 705 77.1986 1145.07 562.539
806 0 57.1744 11.7885 674 78.5089 1145.71 561.855
807 0 62.1849 12.9613 806 76.6042 1145.53 560.797
808 0 64.1478 12.175 781 78.4545 1145.64 560.558
809 0 66.1062 13.0396 862 77.1125 1145.62 559.979
810 0 66.1468 13.3037 880 78.5568 1146.1 557.748
811 0 68.1803 12.687 865 79.4012 1146.68 557.888
812 0 69.1424 12.1199 838 80.8067 1146.85 557.023
813 0 72.2717 11.3322 819 82.0501 1146.6 555.758
814 0 73.266 13.0347 955 80.3864 1146.85 554.968
815 0 76.1558 13.2754 1011 81.0643 1146.64 552.775
816 0 78.1691 14.1872 1109 79.9495 1146.5 553.382
817 0 82.119 13.9432 1145 80.4454 1146.39 551.43
818 0 82.1347 13.0761 1074 82.202 1146.37 549.831
819 0 85.1895 14.3445 1222 81.3224 1146.82 549.489
820 0 88.1777 13.5862 1198 82.8715 1146.54 546.625
821 0 91.125 11.8848 1083 84.5873 1146.82 546.514
822 1 48.0952 11.7683 566 82.0495 1147.58 566.539
823 0 48.0545 11.5286 554 82.9657 1147.23 566.711
824 0 51.117 12.2073 624 80.8462 1146.17 564.619
825 0 51.2529 12.5652 644 80.1972 1146.36 563.988
826 0 54.1872 10.5745 573 81.9878 1146.19 565.26
827 0 54.104 12.5129 677 81.6041 1145.88 562.659
828 0 55.2296 11.2259 620 83.1403 1146.06 563.044
829 0 59.1791 12.2847 727 80.7744 1146.38 563.525
830 0 58.1353 11.7829 685 82.0131 1146 561.667
831 0 60.1621 12.6492 761 80.8541 1146.21 560.134
832 0 60.1587 11.0375 664 82.8163 1146.18 562.096
833 0 63.2271 13.3329 843 81.0368 1145.93 556.822
834 0 66.211 11.9467 791 83.2794 1146.17 556.925
835 0 67.1044 10.5507 708 84.6864 1146.12 558.246
836 0 68.1289 11.6397 793 98.7844 1145.86 553.373
837 0 71.1031 10.2808 731 98.5705 1146.27 556.562
838 0 73.2088 11.0642 810 95.9741 1145.9 553.32
839 0 76.218 10.4831 799 94.9161 1145.97 553.538
840 0 78.13 11.0713 865 93.5908 1145.75 551.564
841 1 45.1204 9.66303 436 89.9702 1146.14 568.58
842 0 45.0372 10.347 466 88.4034 1146.73 567.931
843 0 44.0865 10.1165 446 85.7735 1146.59 566.915
844 0 48.0393 10.5747 508 84.6772 1146.46 565.301
845 0 50.1098 11.2154 562 83.7936 1146.12 564.605
846 0 50.0455 10.8301 542 84.7675 1146.25 564.625
847 0 52.0802 11.4823 598 83.5184 1145.45 564.333
848 0 54.0599 11.9867 648 83.0694 1145.55 562.994
849 0 56.1916 11.2294 631 84.8225 1145.37 562.536
850 0 56.082 10.8413 608 85.301 1145.31 560.788
851 0 58.0854 10.9322 635 84.2047 1145.73 562.557
852 0 59.1904 11.5221 682 83.5176 1145.3 561.271
853 0 62.1013 11.4007 708 82.7274 1144.82 559.532
854 0 63.2772 12.6586 801 81.6417 1144.99 556.933
855 0 66.3189 12.6962 842 81.0309 1144.56 556.182
856 0 65.2551 11.2328 733 83.161 1144.62 557.285
857 0 70.3092 12.6015 886 81.1479 1145.1 554.72
858 0 70.2897 11.3388 797 83.2183 1144.76 554.156
859 0 75.1628 11.8543 891 82.1886 1144.42 554.24
860 1 42.1329 9.5175 401 81.8304 1144.61 569.731
861 0 44.0779 10.1184 446 80.3049 1144.11 571.453
862 0 45.2047 10.3087 466 80.6373 1144.06 569.627
863 0 46.1229 11.4694 529 80.3081 1144.21 568.949
864 0 45.1277 12.1212 547 81.649 1143.85 566.503
865 0 49.0126 11.1604 547 83.777 1144.1 567.488
866 0 50.0597 11.0468 553 89.311 1143.93 567.063
867 0 48.0686 10.2354 492 92.5081 1143.53 565.197
868 0 48.0686 10.381 499 125.359 1142.53 565.144
869 0 52.2136 10.9167 570 97.0684 1144.04 564.046
870 0 54.0776 11.2431 608 97.1875 1143.64 564.028
871 0 57.1316 11.6223 664 96.2756 1144.06 564.405
872 0 57.1189 10.697 611 97.1277 1143.88 564.007
873 0 58.1293 10.8723 632 97.8133 1144.1 561.44
874 0 60.1018 11.9464 718 96.8565 1142.93 560.915
875 0 63.2086 11.1694 706 98.3399 1143.26 560.069
876 0 66.0374 12.0083 793 97.3077 1143.04 559.873
877 0 64.0905 11.7646 754 96.6751 1142.52 555.263
878 0 65.2402 10.3464 675 91.6119 1143.4 556.828
879 0 73.3471 12.734 934 69.6071 1143.27 554.597
880 0 76.3176 12.8935 984 67.3232 1143.19 555.544
881 1 38.2849 10.4219 399 66.8571 1142.91 574.213
882 0 40.1691 10.2317 411 66.4136 1143 572.852
883 0 41.1132 10.994 452 64.5575 1142.41 572.761
884 0 42.2874 11.0671 468 63.6218 1142.76 571.485
885 0 43.1096 12.2015 526 60.7357 1142.67 571.116
886 0 45.1843 11.3756 514 60.144 1142.15 571.237
887 0 47.1731 11.8288 558 60.1219 1142.03 570.079
888 0 46.2288 12.1569 562 59.9199 1142.47 568.42
889 0 48.1448 11.1746 538 61.4498 1142.51 568.519
890 0 51.2279 12.1809 624 59.6154 1142.54 566.543
891 0 52.2138 11.6827 610 61.7918 1142.84 566.502
892 0 52.173 12.8611 671 60.6557 1143.42 565.513
893 0 53.3116 12.6051 672 61.1994 1143.67 566.485
894 0 54.1314 12.6729 686 61.9184 1143.62 564.608
895 0 56.2843 12.4546 701 62.6961 1144.36 564.058
896 0 58.1601 11.967 696 64.1624 1144.21 561.114
897 0 60.2997 13.2173 797 62.4065 1144.59 561.705
898 0 61.1192 12.222 747 64.3213 1144.41 560.726
899 0 63.2006 12.6581 800 63.4325 1144.7 560.511
900 0 64.1966 13.6923 879 62.8305 1144.65 557.861
901 0 64.1608 12.9674 832 65.0841 1144.81 556.965
902 0 69.1162 13.6003 940 63.2596 1145.21 556.463
903 0 71.201 12.9352 921 63.937 1145.06 554.447
904 0 73.3089 13.2044 968 63.9318 1145.45 554.231
905 0 74.213 13.1109 973 64.5745 1145.7 552.193
906 0 77.2375 12.7788 987 64.6434 1145.93 551.706
907 0 78.2502 12.3195 964 65.4232 1145.72 549.56
908 1 41.1278 10.4066 428 65.5607 1146.42 568.54
909 0 40.274 10.4534 421 65.9596 1146.51 568.843
910 0 45.1935 11.1742 505 64.6594 1146.65 567.418
911 0 45.0737 11.1595 503 64.0318 1147.29 566.425
912 0 47.1186 11.8212 557 63.6822 1147.12 565.253
913 0 48.2355 12.0243 580 63.569 1146.3 565.024
914 0 48.0918 12.185 586 63.814 1146.37 563.753
915 0 52.1142 12.511 652 63.0046 1147.18 563.239
916 0 51.1581 11.9434 611 64.1735 1147.55 561.966
917 0 54.1836 12.4207 673 62.6686 1147.68 560.3
918 0 56.0895 12.6405 709 62.7236 1147.88 559.755
919 0 58.1272 12.6619 736 62.7514 1148.04 559.293
920 0 60.066 12.6361 759 62.7036 1148.23 558.385
921 0 61.1121 12.3216 753 63.498 1148.21 557.793
922 0 65.0937 13.1349 855 61.3064 1148.15 556.908
923 0 65.1121 13.0698 851 61.9248 1148.24 555.816
924 0 68.1982 12.9622 884 62.4129 1148.23 553.792
925 0 69.091 12.6355 873 62.9565 1147.9 554.162
926 0 72.1506 13.0699 943 62.1092 1148.29 554.48
927 0 75.0929 13.49 1013 61.7009 1148.08 552.224
928 0 77.114 13.7718 1062 61.6234 1148.52 551.564
929 0 79.3204 13.5778 1077 62.2321 1148.78 550.168
930 1 41.1764 10.7586 443 64.5282 1148.18 567.591
931 0 43.1299 11.8943 513 63.883 1147.92 565.897
932 0 44.1735 11.9076 526 64.3669 1147.9 566.228
933 0 46.2166 11.7707 544 64.2812 1147.48 565.419
934 0 48.1234 12.468 600 63.8567 1147.63 563.605
935 0 49.0829 13.2633 651 62.702 1147.84 563.733
936 0 51.1796 12.8372 657 63.5601 1148.19 562.887
937 0 51.148 12.7473 652 64.2883 1148.1 563.262
938 0 54.1733 12.5338 679 64.3166 1147.79 562.844
939 0 54.1726 12.294 666 65.467 1147.26 561.515
940 0 56.0818 12.7671 716 64.4316 1147.41 560.605
941 0 59.2861 12.6505 750 64.9827 1146.86 559.471
942 0 60.2378 12.7993 771 63.987 1146.91 559.581
943 0 62.208 12.9565 806 63.7581 1146.6 559.094
944 0 64.2088 13.7053 880 62.9102 1146.25 556.747
945 0 67.1324 13.3765 898 63.0178 1146.29 557.263
946 0 67.1869 13.4103 901 63.2264 1146.49 555.384
947 0 71.373 13.3384 952 63.2763 1145.98 552.59
948 0 72.2919 13.1273 949 63.8915 1146.01 551.98
949 0 74.2765 12.9381 961 63.7898 1146.13 551.358
950 0 77.2218 12.6001 973 63.8746 1145.79 550.576
951 0 81.3374 13.3026 1082 62.134 1145.45 550.528
952 0 84.3856 13.1421 1109 62.8656 1145.29 548.711
953 1 43.1133 11.3654 490 62.5245 1145.91 568.698
954 0 42.0829 10.7169 451 63.3171 1145.6 567.907
955 0 42.0829 10.6932 450 163.584 1145.59 567.927
956 0 47.1313 11.4574 540 62.9593 1145.91 564.952
957 0 49.1712 11.9379 587 62.3748 1145.75 565.358
958 0 48.0839 12.0623 580 63.169 1145.77 564.207
959 0 51.183 12.934 662 61.6299 1144.93 563.133
960 0 53.1394 12.6084 670 62.1493 1144.46 563.363
961 0 53.1394 12.6084 670 158.04 1144.46 563.363
962 0 55.1526 13.3085 734 61.2398 1144.84 562.232
963 0 58.1905 12.2185 711 61.9845 1144.9 562.224
964 0 62.2827 12.8286 799 61.209 1145.31 560.87
965 0 60.3203 12.3507 745 63.0792 1145.12 559.793
966 0 62.1933 14.0691 875 60.7669 1144.99 557.101
967 0 65.3153 13.5037 882 61.8469 1145.07 555.937
968 0 68.3146 12.8816 880 62.3841 1144.78 557.049
969 0 71.2923 13.3254 950 61.3526 1144.46 556.242
970 0 72.2493 13.2873 960 62.5344 1144.73 553.453
971 0 74.208 13.2465 983 63.1526 1144.6 552.747
972 0 76.2086 13.463 1026 62.7992 1144.82 552.249
973 0 79.2578 13.311 1055 63.2834 1144.67 551.239
974 0 81.0844 12.9988 1054 63.9469 1144.66 550.7
975 0 84.2467 14.327 1207 62.512 1144.45 547.398
976 0 88.296 13.6586 1206 63.2023 1144.38 547.612
977 0 89.3686 13.0359 1165 64.6944 1143.91 546.397
978 1 49.1677 10.7388 528 65.9678 1143.4 566.403
979 0 50.1362 11.4887 576 65.8819 1143.03 565.821
980 0 53.1564 11.7954 627 65.1053 1143.22 565.707
981 0 54.0845 12.2956 665 64.8872 1143.19 562.865
982 0 57.2313 12.4757 714 63.9902 1143.24 563.342
983 0 58.2199 12.1436 707 65.3649 1143.21 561.082
984 0 59.0996 12.1321 717 64.9079 1143.33 561.031
985 0 63.1157 13.2297 835 63.1497 1143.5 559.441
986 0 66.3194 12.4549 826 63.4855 1143.13 559.611
987 0 69.3347 13.6151 944 61.9354 1143.05 558.202
988 0 70.3365 13.3785 941 62.5441 1143.28 557.071
989 0 70.3365 13.3501 939 159.6 1144.28 557.059
990 0 74.3594 14.2416 1059 62.1974 1143.59 553.998
991 0 76.4817 14.0295 1073 62.3206 1143.17 553.549
992 0 80.2429 14.1819 1138 62.1766 1143.06 552.513
993 0 82.3544 14.2433 1173 62.5217 1142.87 550.35
994 0 83.4657 13.1072 1094 64.8483 1143.05 550.371
995 0 87.1841 13.202 1151 64.8341 1143.38 549.726
996 0 92.3205 14.0814 1300 63.4669 1143.64 549.065
997 0 94.3223 12.6587 1194 65.3191 1143.28 548.401
998 0 97.4736 13.5626 1322 64.1717 1143.43 546.083
999 1 46.1857 11.8218 546 67.9176 1143.23 568.678
1000 0 48.1856 12.4518 600 66.8867 1143.64 567.678
1001 0 51.1144 12.5796 643 66.4463 1143.51 567.33
1002 0 51.1959 14.0636 720 64.2694 1143.4 566.467
1003 0 53.1818 13.5761 722 64.6787 1143.59 566.789
1004 0 54.2355 13.4229 728 64.8626 1143.48 565.629
1005 0 58.1271 14.0898 819 63.42 1143.23 564.447
1006 0 59.2461 14.1613 839 63.4863 1143.19 563.017
1007 0 63.2877 13.4939 854 63.2471 1143.28 563.989
1008 0 63.4085 13.9571 885 63.1028 1143.31 562.59
1009 0 66.2777 13.9564 925 62.8865 1143.26 560.056
1010 0 68.2527 14.4317 985 62.2345 1143.32 559.041
1011 0 71.2412 14.9211 1063 62.4779 1143.54 558.53
1012 0 76.2365 14.2714 1088 62.6654 1143.46 557.653
1013 0 77.3229 14.7434 1140 62.8518 1143.19 556.518
1014 0 79.1836 14.6874 1163 63.2502 1143.56 556
1015 0 82.1174 15.1125 1241 62.3328 1143.04 553.724
1016 1 41.0471 11.9131 489 66.4335 1143.3 575.546
1017 0 44.0777 12.4099 547 65.8867 1143.63 573.329
1018 0 44.0596 12.2561 540 66.4759 1143.56 572.467
1019 0 45.0189 12.2615 552 66.3913 1143.88 572.487
1020 0 46.0177 13.0602 601 66.6689 1143.69 571.266
1021 0 48.145 13.7086 660 64.8545 1144.44 571.739
1022 0 50.3105 13.9335 701 64.6662 1144.53 568.973
1023 0 51.1829 13.1489 673 65.6152 1144.6 569.807
1024 0 52.0563 14.5611 758 63.7137 1144.69 569.231
1025 0 54.2352 13.7365 745 64.6913 1144.74 568.56
1026 0 55.2238 14.5408 803 63.5006 1144.97 566.331
1027 0 57.1868 15.0909 863 62.4287 1144.89 565.902
1028 0 59.2416 14.2974 847 63.9091 1145.03 564.229
1029 0 63.3657 14.6136 926 62.4665 1145.38 563.739
1030 0 65.543 15.425 1011 61.3383 1145.44 561.633
1031 0 65.3025 14.1648 925 63.7124 1145.26 561.204
1032 0 71.3783 14.7524 1053 61.3466 1145.26 560.609
1033 0 71.4276 15.2462 1089 61.6933 1146.09 557.903
1034 0 71.4276 15.2462 1089 168.297 1147.09 557.903
1035 0 76.34 14.1472 1080 63.2944 1146.35 556.977
1036 0 79.3494 14.3416 1138 63.2373 1146.42 554.29
1037 0 81.2222 14.4911 1177 63.5276 1146.82 553.379
1038 0 85.5091 14.3026 1223 63.2756 1146.69 552.123
1039 0 88.2668 14.1503 1249 63.7822 1146.88 549.154
1040 1 42.1073 12.3969 522 66.59 1146.87 570.787
1041 0 45.2795 12.6989 575 66.1043 1147.01 569.111
1042 0 47.2464 13.6942 647 65.5641 1147.44 568.403
1043 0 47.1399 13.7251 647 66.1252 1147.13 568.688
1044 0 50.2771 14.0422 706 65.4802 1147.58 566.907
1045 0 52.33 13.7397 719 65.5452 1147.69 566.483
1046 0 53.2306 15.0102 799 63.2804 1148.17 565.867
1047 0 55.3593 15.2458 844 63.0545 1147.76 564.463
1048 0 57.2233 14.8541 850 63.9859 1147.76 562.588
1049 0 59.3149 14.482 859 64.2666 1147.79 561.944
1050 0 64.4002 16.1335 1039 61.1386 1147.75 560.431
1051 0 64.4278 14.8538 957 64.0763 1147.98 558.887
1052 0 66.5405 14.4874 964 64.7127 1148.38 558.924
1053 0 66.3081 15.3827 1020 64.148 1148.26 558.46
1054 0 70.4659 14.8015 1043 65.0192 1148.48 555.535
1055 0 72.3959 14.6417 1060 65.4811 1148.61 555.032
1056 0 75.5108 15.1634 1145 64.9389 1148.43 552.066
1057 1 40.468 11.7129 474 68.0316 1148.53 570.821
1058 0 40.151 11.9051 478 69.0983 1148.19 569.172
1059 0 42.3073 13.0947 554 67.7419 1148.72 567.978
1060 0 45.2823 13.0735 592 67.1402 1148.46 567.233
1061 0 47.5164 12.7956 608 67.3372 1148.88 565.382
1062 0 48.3654 13.6668 661 66.112 1148.35 566.08
1063 0 49.1544 13.8543 681 66.6858 1148.34 564.699
1064 0 52.4767 14.597 766 65.1893 1148.15 561.661
1065 0 55.4431 13.5454 751 65.9667 1148.4 561.771
1066 0 56.3546 13.9119 784 65.6288 1148.35 559.957
1067 0 59.5761 14.0996 840 65.0619 1148.05 558.899
1068 0 60.2602 13.4417 810 65.6136 1148.08 559.364
1069 0 65.3778 14.4697 946 62.9461 1148.29 558.067
1070 0 66.3898 14.4299 958 63.2568 1147.8 556.76
1071 0 66.407 13.1763 875 65.5669 1147.83 553.807
1072 0 70.4031 13.3091 937 64.6958 1147.8 552.883
1073 0 72.2471 13.1355 949 64.8166 1147.87 553.693
1074 0 76.2445 14.3092 1091 62.7727 1148.08 551.53
1075 1 39.2971 10.9932 432 65.2245 1148.06 568.488
1076 0 43.2217 11.7071 506 62.9743 1147.54 568.407
1077 0 43.1194 10.8536 468 64.4038 1147.35 568.361
1078 0 42.0567 12.0314 506 64.2036 1147.15 567.443
1079 0 47.2106 13.1326 620 61.6855 1146.92 566.635
1080 0 45.1141 12.7455 575 63.8713 1147.1 564.551
1081 0 49.0616 12.2295 600 63.0583 1147.29 565.325
1082 0 49.2307 12.9797 639 63.0501 1147.11 563.083
1083 0 50.1837 13.0919 657 62.9893 1146.98 561.877
1084 0 54.1921 12.917 700 62.4857 1147 561.309
1085 0 55.1151 13.2632 731 62.4432 1147 561.518
1086 0 56.1276 13.1486 738 62.8306 1147.34 559.897
1087 0 56.2113 13.4137 754 62.931 1147.16 558.647
1088 0 59.1557 12.9827 768 63.0807 1146.99 557.095
1089 0 61.2096 12.7921 783 62.9425 1147.03 558.67
1090 0 65.0797 13.737 894 61.4843 1146.55 556.191
1091 0 65.1554 13.2913 866 62.7725 1147.02 556.191
1092 0 66.1208 13.6417 902 62.908 1147.46 555.951
1093 0 70.0861 13.141 921 63.1802 1147.21 555.643
1094 0 73.0656 13.1389 960 63.3458 1147.17 550.76
1095 0 74.0468 12.5326 928 64.5539 1147.42 549.853
1096 0 78.2429 13.7393 1075 62.5777 1147.06 550.71
1097 0 79.114 13.6133 1077 63.4095 1146.96 548.103
1098 0 83.1117 12.8502 1068 63.9195 1147.01 544.882
1099 0 85.039 12.994 1105 63.819 1146.82 544.047
1100 0 90.1635 12.6104 1137 64.1697 1146.61 543.771
1101 1 49.1472 9.74624 479 63.3424 1146.67 564.605
1102 0 51.0373 9.24814 472 63.6822 1146.64 563.746
