time division length width area intensity CMx CMy
0 0 66.1969 13.3239 882 80.3923 117.183 558.787
1 0 68.1964 13.8277 943 79.4952 117.322 556.351
2 1 35.2309 11.7794 415 80.1639 117.795 572.222
3 0 38.1532 11.0082 420 79.7976 117.84 572.193
4 0 36.2168 11.4311 414 80.8382 117.816 570.942
5 0 40.0614 11.8568 475 78.0021 117.661 570.827
6 0 40.2561 12.6192 508 77.6654 117.266 569.26
7 0 41.2122 11.5742 477 79.2432 117.744 569.996
8 0 42.1846 12.2083 515 79.8757 118.019 568.666
9 0 45.1517 12.4469 562 79.71 117.902 568.507
10 0 46.1172 12.8369 592 80.3007 117.427 566.514
11 0 46.1926 12.4262 574 81.2265 117.796 567.348
12 0 49.0568 12.9442 635 80.211 117.962 566.446
13 0 51.0997 12.2701 627 80.5598 118.061 564.892
14 0 50.0991 12.3954 621 168.625 119.029 565.016
15 0 52.2013 13.0265 680 77.6912 117.774 563.504
16 0 54.086 13.1827 713 77.5372 117.498 561.56
17 0 55.0539 12.4605 686 78.7901 117.213 561.179
18 0 57.0512 13.3214 760 76.4526 117.33 561.449
19 0 57.0214 13.644 778 76.7044 117.298 558.974
20 0 62.1409 12.9705 806 76.0546 117.881 558.409
21 0 63.0687 13.5566 855 76.1088 117.884 556.009
22 0 67.0985 13.8453 929 75.2594 117.607 555.524
23 0 67.056 13.0041 872 77.0711 118.041 555.083
24 0 69.0453 13.4694 930 76.3677 117.828 553.754
25 0 73.0943 13.6536 998 75.8006 118.007 553.154
26 0 73.1742 12.7641 934 77.8362 118.015 552.285
27 0 78.1222 12.5957 984 102.049 118.139 551.877
28 1 40.0352 11.7147 469 75.6695 118.403 568.861
29 0 42.0588 11.4602 482 76.5809 118.662 568.232
30 0 43.0431 11.9648 515 76.6252 118.786 567.586
31 0 44.0278 11.3337 499 77.9259 118.259 566.916
32 0 46.0202 13.0812 602 75.3754 118.449 565.146
33 0 47.0829 12.9559 610 76.2689 118.528 564.116
34 0 49.0559 12.2921 603 77.3682 119.01 564.741
35 0 50.0663 12.3636 619 77.7076 118.987 563.355
36 0 53.0251 12.7675 677 76.8405 119.419 561.623
37 0 52.0298 12.7235 662 78.3565 119.175 561.872
38 0 55.0454 12.7531 702 78.3946 119.16 561.832
39 0 58.076 13.7406 798 76.9223 119.356 560.996
40 0 57.0854 13.0857 747 78.6372 119.598 560.173
41 0 60.0648 13.8684 833 76.9784 119.466 558.585
42 0 62.025 13.3011 825 77.5115 119.207 558.273
43 0 65.1437 13.4472 876 77.5616 119.352 556.808
44 0 66.073 12.6981 839 79.317 119.573 557.026
45 0 70.0338 12.5796 881 78.9796 119.476 554.703
46 0 71.1083 14.1052 1003 77.6321 119.556 552.806
47 1 38.066 11.2962 430 79.2465 119.953 568.605
48 0 38.0803 11.2131 427 78.466 120.148 570.119
49 0 38.0828 10.7135 408 80.1838 119.86 569.571
50 0 40.0518 11.6599 467 79.2827 119.985 569.585
51 0 44.0106 12.6106 555 77.0829 120.292 568.236
52 0 44.1136 11.5611 510 80.3333 120.414 567.408
53 0 46.097 12.3218 568 78.3275 119.285 567.079
54 0 47.0641 12.4511 586 70.7389 119.304 566.348
55 0 46.0615 12.3313 568 72.9683 119.683 565.111
56 0 48.0628 11.9219 573 72.3717 119.92 565.398
57 0 49.152 12.1663 598 73.0669 120.005 564.156
58 0 52.0476 12.6039 656 72.5595 119.883 563.18
59 0 54.0858 12.8684 696 71.7672 119.947 562.494
60 0 56.0938 13.0139 730 71.8877 120.429 561.311
61 0 56.1331 13.3255 748 72.2781 119.658 562.087
62 0 59.0735 12.3575 730 74.1644 119.829 559.751
63 0 60.0481 12.3901 744 73.7621 119.444 559.778
64 0 64.0641 12.8309 822 72.7178 119.633 558.083
65 1 34.0333 10.3722 353 73.5666 120.51 571.694
66 0 35.0303 10.6479 373 72.6649 120.517 571.434
67 0 36.017 11.0503 398 73.1508 121.078 570.49
68 0 37.0472 11.9307 442 72.2081 120.914 567.774
69 0 40.045 11.587 464 70.9181 120.681 569.61
70 0 39.0281 11.7608 459 72.6427 120.436 567.569
71 0 41.0948 12.4103 510 71.8745 120.765 566.145
72 0 42.2044 11.8708 501 73.2415 121.022 565.573
73 0 43.1539 12.8841 556 71.1151 121.372 564.559
74 0 46.0978 12.3433 569 71.6608 121.828 564.091
75 0 47.1044 12.2069 575 72.5965 122.148 562.035
76 0 48.0526 12.3823 595 72.0252 122.015 562.728
77 0 48.0665 11.9834 576 73.4392 121.865 561.545
78 0 50.1244 11.671 585 74.2701 122.159 560.918
79 0 51.0737 12.2764 627 73.0781 122.107 559.692
80 0 52.192 13.0097 679 73.0457 122.187 557.206
81 0 55.0829 13.634 751 71.0053 122.288 557.562
82 0 55.0419 12.5541 691 73.7742 122.301 556.084
83 0 59.1389 12.9018 763 72.4495 122.537 555.35
84 0 62.1105 13.5565 842 71.8349 123.338 553.525
85 0 60.042 12.7078 763 75.021 123.89 552.394
86 0 63.1885 12.7238 804 73.5634 124.141 551.489
87 0 65.1926 13.928 908 71.8899 124.331 547.988
88 0 69.3509 13.9868 970 70.8814 124.722 548.105
89 0 72.3713 14.3289 1037 70.6374 124.932 546.271
90 0 74.2806 12.8028 951 74.2524 125.263 545.519
91 0 75.2556 13.009 979 74.6456 125.535 543.422
92 0 78.2953 12.1846 954 77.7044 126.049 542.14
93 1 43.0956 11.7181 505 74.3822 126.374 559.899
94 0 42.1304 9.20951 388 76.5232 126.392 561.474
95 0 45.0342 10.6364 479 73.5219 125.923 558.994
96 0 46.0378 11.7078 539 71.4712 125.97 557.942
97 0 47.0105 10.4657 492 73.0346 125.907 556.337
98 0 50.1022 12.0753 605 69.5851 125.423 555.36
99 0 50.1018 11.277 565 71.0212 125.503 555.205
100 0 53.0455 12.5741 667 69.7886 125.348 552.913
101 0 54.0448 12.0826 653 71.6524 125.505 553.282
102 0 56.1269 11.8838 667 73.0225 125.492 551.573
103 0 57.1218 12.4121 709 73.1566 125.121 550.035
104 0 60.0999 12.4293 747 72.593 125.817 548.635
105 0 60.1004 11.5307 693 72.9293 125.664 548.674
106 0 62.1066 11.8345 735 71.5415 126.076 548.627
107 0 66.0521 13.3077 879 68.9579 125.861 547.875
108 0 65.1438 12.2191 796 72.1256 125.923 545.954
109 0 69.0469 13.3677 923 69.4691 125.502 543.917
110 0 71.0758 12.9158 918 69.6754 125.69 543.846
111 0 73.113 12.3507 903 69.9801 125.337 540.672
112 0 77.0706 13.2346 1020 67.2647 125.46 539.375
113 0 78.0809 13.0762 1021 66.904 125.45 539.42
114 0 82.0449 12.3225 1011 66.9159 125.847 538.017
115 0 85.1187 13.675 1164 64.482 125.209 535.437
116 0 87.0948 12.8021 1115 65.6861 125.088 533.45
117 0 89.0958 10.9545 976 67.1035 125.623 535.483
118 1 48.0462 9.26193 445 67.5506 124.879 551.775
119 0 51.0779 10.8266 553 65.1935 124.79 553.785
120 0 49.0489 10.1939 500 68.04 125.442 552.29
121 0 51.0393 11.3442 579 66.0915 125.264 549.908
122 0 54.0941 11.9422 646 64.3545 125.426 550.043
123 0 56.1531 12.6084 708 63.5452 125.595 548.989
124 0 57.1718 12.5412 717 63.7838 124.768 549.512
125 0 58.1772 12.4963 727 64.5516 124.898 548.624
126 0 61.2075 13.4297 822 63.0158 124.905 546.757
127 0 63.121 12.6424 798 63.7707 124.519 545.462
128 0 65.2732 13.7269 896 62.0335 124.328 545.321
129 0 66.2596 12.9943 861 63.8513 124.329 543.338
130 0 69.2823 13.4233 930 63.2194 123.78 540.981
131 0 70.2389 12.9415 909 64.4763 124.182 542.001
132 0 72.1724 12.9551 935 64.8342 124.419 539.059
133 0 77.2419 12.7521 985 64.9787 124.25 540.931
134 0 79.3567 13.244 1051 64.4101 124.637 537.206
135 0 82.3963 13.8599 1142 63.5166 124.636 536.455
136 0 84.3362 12.794 1079 64.7108 124.187 534.175
137 1 44.1493 9.92089 438 66.2192 124.071 555.1
138 0 46.2122 9.47801 438 65.3447 123.639 554.26
139 0 47.1677 9.75243 460 66.1565 123.407 552.033
140 0 50.1512 10.8671 545 64.3706 123.547 551.835
141 0 53.0893 11.8668 630 62.7571 123.784 551.286
142 0 54.0695 11.5407 624 62.7356 124.361 551.811
143 0 56.093 12.408 696 61.8851 123.626 549.73
144 0 58.0506 12.2996 714 62.2941 123.517 547.457
145 0 60.0729 11.5027 691 62.8365 124.03 548.923
146 0 62.1912 13.0404 811 60.5919 123.58 545.92
147 0 62.1118 12.5258 778 62.536 123.456 544.12
148 0 66.1145 14.006 926 59.7873 123.494 544.7
149 0 67.1474 12.8821 865 61.0208 123.479 544.702
150 0 67.1132 12.2182 820 62.4268 123.677 542.318
151 0 70.0461 12.3062 862 61.935 123.239 541.447
152 0 72.1159 11.1903 807 63.5663 123.461 538.763
153 0 76.1685 13.0763 996 61.0412 123.047 538.416
154 0 77.1992 12.6426 976 62.0738 123.249 537.18
155 0 78.1766 11.9857 937 63.6329 123.377 534.229
156 0 82.189 12.5564 1032 63.0727 123.285 533.441
157 0 85.2203 13.0603 1113 63.1941 123.555 531.311
158 1 44.1167 9.63354 425 63.0047 122.682 555.718
159 0 47.117 11.3123 533 61.5216 123.135 554.574
160 0 46.045 11.9448 550 62.3527 123.142 553.278
161 0 48.008 10.7482 516 62.3256 123.452 550.888
162 0 49.0875 12.2842 603 63.529 123.561 552.856
163 0 51.0292 12.3851 632 63.5269 123.913 552.487
164 0 53.0358 12.2936 652 63.4923 123.684 552.353
165 0 54.0401 12.3057 665 64.7053 123.725 549.962
166 0 54.0414 12.2499 662 65.4199 123.76 549.943
167 0 56.0539 11.6495 653 66.1516 124.217 550.678
168 0 59.0528 12.9714 766 64.6514 124.616 548.413
169 0 59.0475 12.6847 749 65.8011 124.728 546.903
170 0 60.0279 12.9773 779 66.4339 124.935 546.078
171 0 64.0872 13.2944 852 64.6655 125.025 545.486
172 0 66.1132 13.25 876 65.1256 125.466 545.745
173 0 67.0382 13.5147 906 65.1115 125.563 544.275
174 0 69.1238 13.295 919 65.8825 125.869 542.942
175 0 72.1722 13.5648 979 65.3412 126.034 542.037
176 0 74.1598 13.4574 998 65.3697 125.977 540.888
177 0 76.0516 13.149 1000 66 126 539.388
178 0 79.1122 13.4113 1061 65.6645 126.41 538.967
179 0 81.1379 14.2227 1154 65.565 126.148 535.131
180 1 43.05 9.4309 406 67.9901 126.643 557.414
181 0 44.1083 10.3835 458 67.8275 126.282 554.59
182 0 47.1149 10.2728 484 66.9607 126.07 554.514
183 0 48.0613 10.9028 524 67.1756 126.433 552.429
184 0 50.0553 12.0267 602 65.7924 126.846 553.017
185 0 51.0842 11.8824 607 66.5519 126.639 551.249
186 0 52.0323 11.8772 618 66.4337 126.294 551.466
187 0 53.1279 12.6111 670 65.0463 126.928 549.888
188 0 54.0929 11.2399 608 66.9589 127.007 550.569
189 0 58.0448 12.8694 747 64.1995 127.032 549.028
190 0 58.0723 12.5705 730 65.2452 126.879 545.577
191 0 61.067 12.6255 771 64.6589 127.258 546.598
192 0 64.0952 12.8871 826 64.2785 127.358 544.226
193 0 64.0973 12.4966 801 64.4831 127.698 543.895
194 0 64.1059 11.8398 759 63.9051 127.592 543.358
195 0 66.1125 12.8871 852 61.6009 127.745 543.059
196 0 68.047 13.6817 931 60.8206 127.971 540.992
197 0 70.0967 11.9121 835 64.3126 127.8 540.105
198 0 75.0877 12.7984 961 64.3247 127.966 539.664
199 0 77.0633 13.2618 1022 64.6644 127.946 538.507
200 0 78.0647 12.6434 987 66.5127 128.263 537.026
201 0 81.0877 12.5913 1021 66.6415 128.249 534.628
202 0 83.2509 13.0689 1088 66.205 128.456 533.97
203 1 47.0318 10.7799 507 64.4753 128.815 551.647
204 0 48.0486 10.5518 507 64.6016 128.884 553.68
205 0 48.0449 10.4278 501 65.1577 128.607 551.477
206 0 52.0838 12.5375 653 62.34 128.505 550.086
207 0 53.0946 12.28 652 62.8942 128.971 549.13
208 0 53.0435 10.5762 561 65.4848 128.781 548.868
209 0 53.1421 11.9867 637 63.0251 128.669 549.942
210 0 57.0418 12.3068 702 61.5783 128.922 549.969
211 0 56.2068 11.3865 640 63.5953 129.094 547.748
212 0 60.1094 12.2942 739 62.2706 129.212 547.526
213 0 61.109 13.0259 796 61.7425 129.039 545.93
214 0 62.1027 12.9785 806 62 129.257 544.393
215 0 63.0926 12.4579 786 63.8181 128.715 544.581
216 0 66.1839 12.4502 824 63.3386 128.589 542.863
217 0 67.3502 11.8782 800 64.6675 128.402 542.378
218 0 69.2051 11.95 827 64.7485 127.975 541.761
219 0 71.1713 12.4207 884 64.3281 127.923 541.548
220 0 75.1981 12.7131 956 63.5146 127.611 541.753
221 0 75.3308 11.5889 873 65.9714 127.302 538.055
222 0 80.3254 12.3373 991 64.8113 127.465 536.556
223 0 82.3329 12.7167 1047 64.532 127.305 536.713
224 0 83.3371 11.9635 997 66.2096 127.425 535.072
225 0 87.3638 12.7398 1113 65.2174 126.853 532.824
226 1 48.1049 9.9574 479 65.1587 127.543 554.524
227 0 50.202 10.4179 523 64.2447 126.981 552.134
228 0 50.1119 11.634 583 63.6878 126.955 552.858
229 0 52.2074 11.5501 603 63.5788 126.383 551.252
230 0 52.1295 11.5865 604 63.9007 126.52 551.121
231 0 56.0838 11.8929 667 62.5757 127.007 549.867
232 0 57.0623 12.1972 696 63.0216 126.966 549.121
233 0 58.046 11.8182 686 63.8105 126.711 548.103
234 0 59.1251 11.4334 676 64.8373 126.929 547.623
235 0 62.1421 11.5059 715 65.0601 126.713 546.211
236 0 63.0954 13.123 828 63.3406 126.123 545.256
237 0 65.0499 12.452 810 64.8309 126.283 545.086
238 0 68.0968 12.6438 861 63.6272 126.242 545.762
239 0 68.0396 12.2282 832 64.9435 126.19 545.656
240 0 68.055 12.2695 835 65.9365 125.92 543.975
241 0 71.1572 12.4232 884 65.9321 125.951 543.594
242 0 74.1373 12.1396 900 66.6467 125.63 542.719
243 0 76.1274 13.8978 1058 63.9329 125.279 541.869
244 0 78.0537 12.9911 1014 65.7416 125.531 540.505
245 0 82.1233 12.6882 1042 65.9299 125.569 540.45
246 0 84.0955 13.5798 1142 64.7671 125.509 539.136
247 0 86.1436 13.1525 1133 65.6973 125.786 536.892
248 0 89.0894 12.5492 1118 66.4714 125.731 535.563
249 1 47.1454 10.7964 509 66.0157 125.766 558.255
250 0 50.0501 10.8691 544 65.7096 125.807 558.493
251 0 52.0848 11.0781 577 65.1594 125.893 556.144
252 0 54.0682 11.652 630 64.7206 125.324 553.794
253 0 54.0282 12.9747 701 63.0942 125.057 554.116
254 0 54.1182 11.7151 634 64.5221 124.555 553.371
255 0 56.0379 12.4916 700 63.0343 124.596 552.887
256 0 57.0756 12.3696 706 63.0779 124.167 551.452
257 0 60.1083 13.0598 785 62.1121 124.86 551.088
258 0 61.1119 12.6162 771 62.4747 124.106 550.064
259 0 65.0986 11.3827 741 63.0931 124.443 549.981
260 0 66.1418 11.9894 793 62.7314 124.482 548.991
261 0 68.1653 12.9685 884 61.3473 124.316 547.965
262 0 70.1713 13.239 929 60.9031 123.954 545.981
263 0 73.1895 12.7751 935 61.184 123.788 546.032
264 0 72.1136 12.5635 906 62.3775 123.786 545.274
265 0 75.1353 12.2978 924 62.9708 122.981 543.165
266 1 39.034 9.96568 389 63.0514 122.591 560.982
267 0 39.0579 8.98666 351 64.3419 122.704 561.328
268 0 42.0407 9.68108 407 63.0713 122.943 560.828
269 0 44.0137 11.1556 491 62.334 122.815 559.446
270 0 44.022 11.8577 522 62.592 122.937 557.517
271 0 47.0682 12.0039 565 62.1469 123.101 558.177
272 0 48.0381 11.7615 565 62.869 123.189 555.83
273 0 48.178 12.2255 589 62.8014 122.929 555.126
274 0 52.0817 13.7668 717 60.622 122.912 555.644
275 0 53.1732 12.7508 678 62.3186 123.417 554.426
276 0 54.1768 13.3267 722 61.8476 123.427 555.514
277 0 55.1944 12.4107 685 63.7489 123.582 554.115
278 0 57.2806 12.3602 708 63.459 123.576 552.02
279 0 59.2133 13.2572 785 62.9032 123.454 551.022
280 0 60.1538 13.1662 792 62.952 124.122 549.798
281 0 64.2545 13.2131 849 62.3333 124.147 548.005
282 0 64.2163 12.6292 811 63.3194 124.603 548.196
283 0 68.2809 13.8545 946 61.4249 124.558 546.541
284 0 70.2454 13.6948 962 61.1476 124.666 546.29
285 0 74.3465 14.4997 1078 59.9286 124.88 542.88
286 0 75.3102 13.9955 1054 60.8416 124.667 541.793
287 0 78.4191 13.9889 1097 61.0428 124.605 539.323
288 0 79.4297 13.0807 1039 62.8922 124.623 539.965
289 1 43.1659 10.6102 458 63.0655 124.616 559.681
290 0 45.1308 11.3226 511 63.0352 125.114 557.558
291 0 47.0969 12.3363 581 62.5404 125.785 555.558
292 0 47.1169 12.3098 580 63.169 125.445 556.098
293 0 49.0639 11.1895 549 63.8798 125.375 554.572
294 0 52.0902 11.7872 614 63.5651 125.883 554.13
295 0 52.1297 12.6416 659 63.1168 126.531 552.942
296 0 53.04 13.1787 699 63.4864 126.717 551.545
297 0 55.1151 13.0636 720 64.4847 126.61 550.178
298 0 59.1704 13.233 783 63.834 127.152 548.704
299 0 60.1935 12.1774 733 65.7162 127.029 546.479
300 0 62.1857 13.1542 818 64.3729 127.441 546.039
301 0 60.0747 12.2015 733 68.0778 127.172 543.353
302 0 63.1107 12.8663 812 67.0185 127.58 543.475
303 0 65.1421 13.5857 885 65.6497 127.663 544.385
304 0 67.2379 13.8166 929 65.5931 127.22 542.8
305 0 68.1719 12.6445 862 67.9316 127.386 540.427
306 0 72.3986 13.8815 1005 65.1612 127.364 540.617
307 0 76.3381 13.545 1034 65.3878 127.39 537.704
308 0 77.2442 13.5156 1044 66.3228 127.574 535.777
309 0 81.2214 13.4201 1090 66.5679 127.488 534.965
310 0 82.1957 13.5774 1116 66.4534 127.435 535.133
311 1 43.0471 10.686 460 67.3174 127.272 554.593
312 0 44.1039 10.2259 451 68.7029 127.415 553.186
313 0 48.1786 10.9177 526 67.1863 127.335 552.644
314 0 48.1362 11.5506 556 66.5917 127.667 550.941
315 0 48.0814 11.1686 537 68.2756 127.223 551.453
316 0 52.104 12.6478 659 65.0546 127.848 549.293
317 0 54.1078 12.3088 666 65.8363 127.41 549.559
318 0 54.0388 12.3245 666 65.976 127.793 548.128
319 0 57.1402 13.5106 772 64.4637 128.016 545.801
320 0 57.0629 13.196 753 64.9469 127.619 546.996
321 0 61.1365 13.1836 806 64.361 127.696 546.493
322 0 62.0575 13.0846 812 64.7734 127.436 545.989
323 0 64.0895 13.3875 858 64.324 127.469 544.797
324 0 66.0516 13.5046 892 64.3509 127.114 543.009
325 0 65.0679 13.6627 889 64.8943 126.944 540.612
326 0 67.1185 13.8412 929 65.0969 127.113 539.296
327 0 70.0537 14.3461 1005 64.1542 126.941 538.896
328 0 72.1235 13.0332 940 66.3436 126.512 539.319
329 0 75.0795 13.7321 1031 65.6363 126.425 536.185
330 0 76.1568 13.6166 1037 65.8091 126.244 537.205
331 0 78.0599 14.2455 1112 66.0917 126.006 534.39
332 0 82.2596 14.0288 1154 65.9835 125.567 534.789
333 0 85.238 14.3833 1226 65.4396 125.308 533.286
334 0 87.2108 13.9432 1216 66.7122 125.363 532.332
335 0 90.2827 14.4435 1304 66.4264 125.314 530.089
336 0 93.2136 14.1288 1317 66.6257 125.462 530.112
337 0 94.2834 14.1382 1333 67.9107 125.707 526.613
338 0 98.1481 14.58 1431 67.4983 125.755 527.243
339 0 99.1225 14.1038 1398 68.8047 125.589 525.192
340 0 103.091 13.9197 1435 69.2418 125.341 524.673
341 0 104.362 14.3251 1495 69.2435 125 525.35
342 0 107.212 14.4947 1554 69.5882 125.317 521.038
343 0 112.133 14.6612 1644 68.9629 124.966 520.787
344 0 112.156 13.9003 1559 71.4144 125.128 518.648
345 0 117.275 14.9477 1753 68.9709 125.091 518.432
346 0 121.302 14.6577 1778 69.9432 125.308 514.785
347 0 123.49 14.406 1779 70.3524 124.643 513.158
348 0 127.258 14.5296 1849 70.0087 124.703 513.963
349 0 133.224 15.5453 2071 68.0507 125.009 511.217
350 1 75.0984 11.8378 889 70.9539 125.06 540.985
351 0 79.3114 11.5746 918 71.5708 124.993 537.879
352 0 82.129 13.6006 1117 69.385 124.604 535.685
353 0 86.2428 13.7982 1190 68.737 124.92 535.129
354 0 88.2287 14.3264 1264 68.7532 124.671 531.685
355 0 90.2554 13.2291 1194 70.1516 125.142 530.618
356 0 97.1284 13.8374 1344 68.6317 125.17 528.954
357 0 99.2517 13.4607 1336 68.9558 125.366 528.694
358 0 104.395 14.7996 1545 66.6388 125.5 525.612
359 0 106.144 13.7926 1464 68.2978 125.327 525.629
360 0 108.268 13.7528 1489 68.8133 124.987 520.77
361 1 59.168 10.7829 638 69.4734 124.746 547.522
362 0 60.0674 12.203 733 66.7913 124.772 547.497
363 0 61.1615 11.1999 685 69.2409 125.174 545.235
364 0 64.2095 13.2535 851 66.6181 125.133 543.195
365 0 68.1885 12.8907 879 66.413 125.347 542.866
366 0 70.2848 12.9473 910 66.0088 124.94 543.184
367 0 72.278 13.96 1009 64.8057 124.882 539.733
368 0 75.1747 13.3689 1005 65.3154 125.697 538.174
369 0 76.0828 12.6835 965 66.5731 125.826 536.828
370 0 78.2477 13.0355 1020 65.7569 125.882 536.141
371 0 81.1771 13.3905 1087 65.6541 126.426 534.141
372 0 84.1623 13.2957 1119 65.6211 126.705 532.553
373 0 85.1583 12.9406 1102 65.9211 126.241 528.643
374 0 88.1676 13.3609 1178 65.8124 126.651 526.741
375 0 92.2354 13.2053 1218 65.876 126.654 525.902
376 0 97.1506 13.443 1306 63.7887 126.97 525.369
377 0 101.108 14.3807 1454 62.2834 127.367 523.113
378 0 103.313 13.9963 1446 62.7192 127.258 521.934
379 1 55.1037 12.05 664 61.4473 127.145 547.556
380 0 58.1066 11.9091 692 62.7312 127.353 543.66
381 0 58.0592 11.7122 680 63.1676 127.575 542.982
382 0 60.0473 11.9239 716 62.6173 127.038 543.228
383 0 61.1096 11.9785 732 62.7363 127.727 542.63
384 0 64.1436 13.2827 852 60.9495 127.857 540.121
385 0 66.159 13.2257 875 60.6354 128.273 539.119
386 0 68.1985 13.0355 889 60.6322 128.686 537.781
387 0 70.2536 13.1096 921 60.7894 128.697 536.307
388 0 72.1477 13.0288 940 60.866 128.897 535.598
389 0 77.2837 13.7157 1060 59.4792 128.837 534.897
390 0 77.3827 13.556 1049 60.0133 128.577 533.636
391 0 81.3324 13.8813 1129 59.5642 128.955 530.722
392 0 84.152 13.951 1174 59.9421 128.751 528.545
393 0 86.1217 13.121 1130 60.3841 129.158 530.796
394 0 89.2778 13.822 1234 60.0891 128.639 524.959
395 0 92.2147 13.2083 1218 60.6593 129.04 525.781
396 0 93.2316 12.5708 1172 61.9616 128.913 522.307
397 0 97.1528 13.2472 1287 61.3644 129.099 521.376
398 0 101.313 13.6705 1385 60.3661 129.162 522.046
399 0 104.143 13.6543 1422 60.6913 129.9 518.185
400 1 52.0237 10.2069 531 61.5028 130.087 543.919
401 0 55.067 11.6222 640 60.5734 130.278 542.386
402 0 57.0507 11.9718 683 60.0439 130.069 540.941
