time division length width area intensity CMx CMy
0 0 29.2284 13.3774 391 104.409 437.529 492.1
1 0 30.1326 13.5733 409 102.589 436.367 493.083
2 0 29.1881 12.2995 359 108.209 437.251 492.916
3 0 29.1942 13.2218 386 105.992 437.36 492.451
4 0 31.1042 13.4066 417 103.017 437.528 492.909
5 0 30.093 14.4884 436 104.312 437.523 491.968
6 0 32.0252 14.1451 453 103.192 437.287 490.819
7 0 32.0646 12.6931 407 107.909 437.064 490.609
8 0 32.0933 12.0274 386 109.288 437.21 491.049
9 0 32.0697 13.3771 429 107.711 436.935 490.902
10 0 32.1029 14.5158 466 105.391 437.234 490.017
11 0 31.0177 13.0571 405 111.274 437.37 490.094
12 0 31.0663 13.0366 405 110.97 438.501 491.509
13 0 32.1627 12.4989 402 112.49 437.284 490.679
14 0 33.1554 12.8486 426 112.007 437.235 490.653
15 0 31.2037 13.1715 411 112.53 437.151 491.27
16 0 33.2044 14.1849 471 109.926 437.594 491.272
17 0 32.2126 12.2933 396 113.606 437.417 491.831
18 0 34.1858 13.6314 466 110.974 436.938 489.268
19 0 38.1695 13.8069 527 107.854 437.548 489.886
20 0 38.0538 15.0314 572 105.649 436.671 489.247
21 0 37.1462 13.6757 508 111.262 436.894 488.28
22 0 38.1747 14.1455 540 110.919 437.031 488.844
23 0 38.1147 14.0891 537 110.886 437.706 489.097
24 0 39.2511 14.6493 575 111.228 437.904 488.059
25 0 39.131 12.982 508 115.937 438.482 488.815
26 0 42.1643 13.6846 577 112.974 439.466 489.693
27 0 43.1375 16.5517 714 108.573 439.618 488.304
28 0 44.1716 14.8512 656 112.745 439.306 487.27
29 0 42.1097 14.391 606 117.092 439.033 484.965
30 0 45.1341 15.3321 692 112.428 439.053 486.075
31 0 45.086 13.7293 619 118.502 438.945 485.108
32 0 45.1228 13.9619 630 117.324 439.203 486.063
33 0 47.1484 14.1044 665 118.91 439.956 484.57
34 0 52.3692 14.1686 742 115.191 441.008 483.139
35 0 54.068 15.684 848 114.213 440.322 480.325
36 0 57.1532 15.8521 906 114.349 440.012 479.825
37 0 59.1097 15.632 924 117.352 440.983 478.418
38 0 60.1119 14.5562 875 120.383 441.059 479.289
39 0 63.1421 15.378 971 119.455 440.317 478.238
40 0 65.1352 16.1664 1053 120.121 441.62 478.057
41 0 64.1695 15.1162 970 125.413 441.991 477.095
42 0 67.339 14.9987 1010 124.401 441.758 478.579
43 0 67.339 14.4493 973 127.681 441.678 477.112
44 1 34.0405 13.8365 471 126.089 441.807 492.098
45 0 37.1026 13.9613 518 122.961 442.517 492.039
46 0 39.1198 15.8232 619 119.016 442.871 492.559
47 0 37.1619 14.6656 545 126.459 442.899 492.253
48 0 39.1108 15.52 607 127.863 442.479 490.049
49 0 42.0502 15.6004 656 123.323 442.012 491.934
50 0 43.0898 14.2029 612 127.348 442.701 492.418
51 0 42.0332 16.035 674 126.07 442.447 490.761
52 0 45.1925 14.7148 665 123.645 442.424 489.195
53 0 47.1168 15.2599 719 121.58 442.111 488.626
54 0 48.0425 15.2157 731 124.01 441.635 486.897
55 0 49.2393 16.0035 788 123.01 441.99 486.005
56 0 51.0483 15.789 806 122.69 441.542 488.033
57 0 51.1248 15.0025 767 126.351 441.698 485.555
58 0 54.0571 15.0027 811 125.953 441.507 485.608
59 0 57.0618 15.895 907 123.438 441.698 483.395
60 0 55.0229 15.3936 847 125.926 441.832 482.514
61 0 59.0335 14.5849 861 127.175 441.825 481.208
62 0 62.1503 16.3957 1019 120.542 441.789 480.513
63 0 64.1088 15.2085 975 124.062 442.397 479.081
64 0 65.0346 15.0228 977 125.432 442.933 479.379
65 0 66.0632 13.8807 917 126.595 442.557 480.561
66 0 67.2394 15.1697 1020 126.613 443.061 476.497
67 0 69.0847 14.9382 1032 125.893 443.48 478.145
68 1 34.0265 14.5181 494 121.324 443.733 493.623
69 0 33.0586 12.9467 428 127.78 443.984 492.397
70 0 34.0345 14.7791 503 127.598 442.352 491.68
71 0 37.0247 15.071 558 120.498 443.572 492.939
72 0 40.0819 16.4413 659 119.363 443.436 490.886
73 0 40.0383 14.1365 566 123.85 441.682 491.284
74 0 42.0394 14.1772 596 123.371 442.659 492.134
75 0 40.2245 14.618 588 128.522 442.9 490.497
76 0 44.0632 15.5459 685 123.388 442.324 490.194
77 0 46.0696 15.151 698 124.089 442.57 487.582
78 0 49.0705 15.5694 764 121.223 443.097 487.416
79 0 49.2159 14.3653 707 125.909 443.011 487.96
80 0 49.1352 14.7756 726 128.631 442.952 486.997
81 0 50.064 15.0807 755 128.85 443.572 487.493
82 0 50.0579 14.5032 726 131.912 443.537 486.792
83 0 58.0826 14.5138 843 126.94 443.381 484.163
84 0 60.1426 16.0951 968 126.837 443.684 481.07
85 0 62.2557 15.0508 937 126.848 443.777 482.686
86 0 61.0904 12.9153 789 131.124 443.687 484.531
87 0 62.0762 15.5132 963 133.28 443.597 481.227
88 0 62.0663 13.9689 867 138.061 443.91 481.241
89 0 63.0999 15.2774 964 138.534 443.062 479.528
90 0 64.2 15.3894 988 139.501 443.386 479.969
91 0 64.0909 14.6823 941 141.214 443.182 480.777
92 1 35.0188 15.9057 557 128.126 443.623 494.601
93 0 35.0188 15.3918 539 131.145 443.748 492.759
94 0 36.0653 15.1392 546 133.024 444.075 492.315
95 0 36.0533 14.8946 537 137.827 443.896 490.764
96 0 37.0758 14.8075 549 137.056 444.337 491.098
97 1 80.2957 14.0356 1127 141.164 444.494 474.546
98 0 81.1579 14.8353 1204 140.4 445.571 474.321
99 0 85.1672 15.4989 1320 140.859 444.79 470.858
100 1 46.0377 15.7914 727 130.762 444.165 486.849
101 0 46.094 14.3836 663 133.445 444.563 488.747
102 0 48.0735 15.9963 769 132.215 444.748 487.463
103 0 49.0671 16.1615 793 135.415 444.284 486.781
104 0 49.0554 15.4927 760 135.974 444.296 488.355
105 0 50.0723 14.8385 743 139.113 444.907 487.692
106 0 58.0396 13.2668 770 139.048 444.806 486.417
107 0 58.3349 15.5139 905 135.21 444.771 482.337
108 1 28.0874 13.102 368 131.5 445.454 498.264
109 0 28.0929 12.8858 362 136.55 445.55 497.061
110 0 29.0054 12.5494 364 137.541 445.434 498.467
111 0 28.0137 15.1354 424 139.95 445.396 496.274
112 0 31.0109 14.3498 445 138.717 445.524 496.728
113 0 30.0191 13.8911 417 139.537 444.811 497.703
114 0 32.0128 14.1194 452 141.15 444.25 497.569
115 0 34.038 13.6906 466 140.861 444.588 498.539
116 0 33.0685 13.8803 459 146.512 444.429 497.298
117 0 32.0107 15.2762 489 146.487 444.613 496.939
118 0 34.0152 15.3755 523 144.164 444.952 496.595
119 0 34.2028 15.4081 527 143.723 443.404 495.127
120 0 37.0593 16.1633 599 139.851 443.528 494.861
121 0 37.0256 15.8809 588 141.284 443.165 494.245
122 0 38.2608 13.6955 524 144.832 442.918 494.115
123 0 39.1585 15.0414 589 140.304 442.463 494.705
124 0 37.0329 15.4187 571 144.75 442.848 493.8
125 0 43.1916 15.0955 652 140.707 442.66 491.16
126 0 44.1708 15.5306 686 141.983 442.741 489.894
127 0 43.0763 14.9734 645 145.896 442.873 489.733
128 0 47.1122 15.1978 716 143.391 442.425 490.314
129 0 48.0425 15.1741 729 146.412 442.914 488.754
130 0 48.0395 15.0085 721 149.76 443.599 486.637
131 0 51.2035 14.9208 764 147.644 444.289 487.881
132 0 53.0695 16.2994 865 146.132 444.481 485.749
133 0 56.0502 16.057 900 144.307 443.546 483.987
134 0 58.1554 16.026 932 142.683 444.089 483.658
135 0 59.1255 16.355 967 142.171 445.054 483.308
136 0 59.0205 15.232 899 146.031 444.537 483.108
137 0 63.1359 16.4724 1040 142.586 444.745 483.082
138 1 30.0676 13.8355 416 143.678 444.606 498.2
139 0 29.0782 13.7904 401 144.389 445.092 497.913
140 0 31.0344 14.1456 439 145.847 445.121 497.585
141 0 34.0291 15.9569 543 138.924 444.985 497.101
142 0 32.0299 13.7996 442 146.495 444.995 498.538
143 0 35.0366 16.2973 571 139.996 445.186 496.415
144 0 35.1408 14.6838 516 144.669 444.653 497.531
145 0 37.0435 15.6303 579 143.722 444.171 496.456
146 0 36.0417 14.5942 526 148.044 443.979 496.207
147 0 37.0689 14.9182 553 149.215 444.004 495.275
148 0 38.0517 15.7154 598 146.482 442.732 495.36
149 0 44.1502 15.7417 695 139.442 442.262 494.384
150 0 43.1986 14.931 645 144.158 442.353 493.398
151 0 46.0329 15.1848 699 142.12 442.17 492.834
152 0 46.0287 15.0341 692 143.756 442.484 492.598
153 0 45.0815 15.7049 708 145.963 442.09 491.921
154 0 47.0378 15.1793 714 144.585 442.283 491.702
155 0 47.0417 14.5403 684 148.039 442.491 491.37
156 0 51.1603 15.6371 800 143.255 442.545 488.431
157 0 55.112 16.53 911 138.347 442.591 486.754
158 0 59.0933 16.1609 955 138.219 442.528 485.725
159 0 58.0951 16.4041 953 141.094 442.724 483.236
160 0 58.1931 15.1736 883 145.023 442.506 482.875
161 0 60.0541 15.6192 938 142.341 442.267 484.225
162 0 61.2281 15.3688 941 146.303 442.906 483.23
163 1 30.0463 14.877 447 143.293 442.955 496.342
164 0 33.075 14.8148 490 141.037 443.549 496.69
165 0 33.0725 15.9649 528 141.852 443.892 494.746
166 0 34.1562 15.839 541 143.285 443.627 494.745
167 0 35.0444 15.6373 548 143.139 444.48 495.42
168 0 35.0186 15.7059 550 145.165 444.133 494.182
169 0 37.029 15.7714 584 143.313 443.834 495.2
170 0 36.1031 14.9018 538 147.243 444.522 495.262
171 0 37.1229 15.1389 562 148.742 444.664 494.925
172 0 39.052 16.2347 634 146.536 444.106 494.77
173 0 41.083 16.0407 659 147.554 443.384 493.574
174 0 45.0583 15.6686 706 146.908 443.244 493.106
175 0 45.1 16.0089 722 148.891 443.632 491.151
176 0 47.032 17.1373 806 145.707 443.086 491.479
177 0 47.068 15.4245 726 151.222 443.127 492.337
178 0 48.1284 15.6664 754 152.204 442.828 491.789
179 0 49.046 16.087 789 152.677 442.692 491.355
180 0 52.1418 16.5319 862 152.9 441.78 489.93
181 0 56.0483 16.1111 903 149.342 441.56 490.667
182 0 55.0981 16.8608 929 150.77 441.706 487.639
183 0 59.0436 17.3092 1022 147.314 441.758 487.052
184 1 29.0106 13.0297 378 151.175 441.653 500.466
185 0 30.0137 13.094 393 153.226 441.964 499.453
186 0 31.0332 15.8862 493 148.227 441.56 499.041
187 0 32.019 14.8662 476 151.141 441.876 498.878
188 0 30.0187 13.8913 417 155.506 441.477 499.295
189 0 31.0243 15.2139 472 154.975 441.568 497.415
190 0 34.0581 13.888 473 151.11 441.025 497.947
191 0 34.0239 16.2239 552 150.357 441.038 495.947
192 0 35.0212 15.4478 541 151.305 441.421 494.891
193 0 37.0344 16.4442 609 146.586 441.113 493.703
194 0 40.0687 16.2471 651 145.043 441.204 493.063
195 0 40.0325 15.0628 603 147.733 441.507 493.116
196 0 40.0382 15.7599 631 149.471 442.098 491.244
197 0 41.136 15.704 646 150.904 441.839 491.288
198 0 43.0476 15.9126 685 147.92 442.549 492.182
199 0 48.0886 16.532 795 139.274 443.325 490.079
200 0 47.058 16.3203 768 142.777 442.668 489.465
201 0 49.1132 16.1871 795 141.747 443.057 490.633
202 0 49.2089 15.8305 779 147.399 442.421 488.593
203 0 50.1261 16.0196 803 146.746 442.636 488.54
204 0 51.184 16.9194 866 147.378 442.096 488.968
205 0 55.159 16.6791 920 144.992 442.572 486.255
206 0 59.0536 17.4249 1029 139.908 442.173 484.629
207 0 60.3339 17.5855 1061 140.839 443.03 484.32
208 0 62.1592 16.0877 1000 143.722 442.442 485.453
209 0 61.0431 14.9894 915 148.897 441.708 485.304
210 1 33.0858 13.6614 452 146.197 442.285 499.46
211 0 33.0125 15.2064 502 146.512 442.462 497.629
212 0 33.0629 14.3666 475 147.962 442.051 498.726
213 0 36.0713 15.5248 560 144.114 441.934 496.886
214 0 36.0379 17.1764 619 141.733 442.179 496.26
215 0 36.0537 16.0594 579 146.295 442.055 495.686
216 0 41.0554 16.6361 683 141.261 441.258 494.748
217 0 41.0424 15.8129 649 144.384 441.092 493.928
218 0 41.0204 15.9189 653 146.273 441.09 494.868
219 0 41.0318 15.2808 627 151.15 441.037 492.601
220 0 44.0767 15.8814 700 147.369 441.143 493.574
221 0 43.0408 14.9625 644 150.893 441.228 491.643
222 0 47.0243 15.9705 751 147.228 441.17 489.611
223 0 49.0624 16.3873 804 144.828 441.238 489.902
224 0 48.1306 16.0189 771 150.505 440.658 488.702
225 0 49.1197 16.3682 804 152.05 440.552 487.629
226 0 50.0653 15.2002 761 156.598 441.272 487.35
227 0 54.0388 16.081 869 152.267 441.696 487.175
228 0 58.0536 16.8465 978 146.893 441.744 483.165
229 0 60.1741 17.1668 1033 147.759 442.058 481.049
230 0 63.1083 17.1451 1082 146.279 442.318 480.708
231 0 62.0329 16.2172 1006 153.495 442.343 480.588
232 1 31.0599 12.7496 396 155.515 442.679 495.28
233 0 34.0491 13.1868 449 150.53 443.401 496.14
234 0 34.1084 12.5189 427 155.569 443.059 496.087
235 0 33.0253 13.5351 447 157.864 443.329 495.694
236 0 36.0414 14.5388 524 156.683 442.975 493.426
237 0 39.0536 15.2867 597 152.551 443.062 494.109
238 0 37.0928 13.7493 510 160.063 443.751 494.145
239 0 41.0167 15.2133 624 152.8 443.739 493.357
240 0 42.1347 14.952 630 156.462 443.962 492.819
241 0 44.1072 14.7822 652 156.33 443.186 492.974
242 0 46.0357 15.3576 707 153.107 442.562 492.884
243 0 47.0986 15.8391 746 153.858 442.296 491.741
244 0 50.0456 16.2852 815 148.783 442.437 489.719
245 0 49.0476 15.0466 738 154.504 442.282 489.931
246 0 50.1626 14.8318 744 156.906 442.226 488.906
247 0 53.032 15.1607 804 155.759 442.102 488.973
248 0 51.1215 14.2797 730 162.874 442.041 488.926
249 0 53.0926 14.3146 760 161.862 441.103 488.436
250 0 59.1117 15.4961 916 153.317 440.745 484.767
251 0 60.1241 15.5678 936 153.847 440.427 482.859
252 0 62.0453 15.2308 945 155.921 440.999 481.382
253 0 64.0927 16.2109 1039 153.387 440.794 481.854
254 0 63.0686 15.4435 974 157.814 441.125 481.391
255 0 66.1236 15.4257 1020 156.535 440.898 481.048
256 1 35.0744 12.0601 423 155.728 441.695 495.804
257 0 36.0363 11.9324 430 157.228 441.347 495.465
258 0 36.0597 11.8137 426 157.115 441.185 496.411
259 0 35.0557 12.6656 444 157.113 441.644 494.935
260 0 38.0439 13.7736 524 153.706 442.286 493.105
261 0 41.0402 13.4746 553 152.369 442.099 492.499
262 0 42.1005 13.4678 567 151.312 442.049 489.794
263 0 46.1274 14.1998 655 145.324 443.266 489.641
264 0 46.0707 14.608 673 146.954 443.042 489.661
265 0 46.1074 14.5747 672 145.591 443.874 490.071
266 0 49.0972 14.176 696 147.562 443.753 489.67
267 0 50.0581 15.482 775 143.716 443.946 488.111
268 0 51.075 14.978 765 146.067 444.315 487.39
269 0 54.0378 14.9155 806 145.473 444.686 487.841
270 0 54.2017 14.2246 771 150.555 444.388 487.036
271 0 56.0261 14.3505 804 148.973 443.851 487.563
272 0 57.0605 14.7388 841 149.07 444.156 487.449
273 0 61.0526 14.9707 914 147.125 443.842 484.558
274 0 62.0228 15.3814 954 145.572 443.944 486.113
275 0 64.1237 14.3161 918 149.025 444.107 486.185
276 0 65.1519 14.1823 924 151.152 443.387 485.357
277 0 67.1594 15.9769 1073 147.288 443.366 485.089
278 0 67.0597 15.1954 1019 149.614 442.817 484.08
279 0 69.1284 14.5526 1006 151.758 442.004 483.635
280 0 72.1323 15.5964 1125 146.508 441.492 483.418
281 0 74.1837 14.6393 1086 150.349 441.483 480.9
282 1 40.0232 13.3922 536 143.662 441.47 496.043
283 0 39.0904 11.9211 466 147.142 441.193 496.335
284 0 42.0286 12.087 508 146.106 440.817 496.516
285 0 45.0507 14.5836 657 139.689 440.508 493.356
286 0 44.0204 13.6982 603 143.537 439.682 491.443
287 0 44.0208 12.2215 538 147.03 440.643 491.467
288 0 44.0921 12.2471 540 145.841 440.565 492.043
289 0 48.0664 13.9183 669 139.149 440.812 489.925
290 0 49.0592 14.4927 711 139.917 441.238 487.325
291 0 50.0334 13.5509 678 142.28 441.19 486.928
292 0 52.052 14.1397 736 141.105 441.443 486.557
293 0 53.0256 13.6726 725 141.577 441.564 486.655
294 0 56.0613 14.2701 800 138.45 442.228 484.099
295 0 61.0971 14.6979 898 136.258 442.704 483.14
296 0 60.0499 14.3381 861 138.144 443.482 481.312
297 0 63.0313 15.0402 948 136.862 444.275 481.996
298 0 64.1008 14.8984 955 138.829 443.84 481.127
299 0 65.0622 14.6322 952 140.478 444.459 480.94
300 0 67.0885 13.2661 890 142.817 445.546 482.361
301 0 70.1136 13.7776 966 141.121 445.108 483.322
302 1 33.0239 13.4751 445 134.528 445.247 499.861
303 0 36.0122 12.7735 460 133.95 444.885 500.861
304 0 36.0206 14.3529 517 132.153 444.398 499.836
305 0 38.0297 13.3843 509 134.747 443.77 498.931
306 0 38.047 13.6936 521 133.322 443.597 500.046
307 0 41.0251 13.5283 555 133.157 443.517 497.286
308 0 43.0152 13.2046 568 134.803 443.65 497.303
309 0 43.0888 13.5302 583 134.979 443.226 496.353
310 0 46.0804 13.4547 620 132.932 442.556 493.826
311 0 47.1384 14.0437 662 132.032 442.441 493.61
312 0 48.079 14.393 692 134.257 441.965 492.983
313 0 50.0337 14.2504 713 133.206 441.641 492.105
314 0 53.0379 13.8769 736 132.034 441.867 489.864
315 0 55.1807 13.8817 766 131.997 441.18 488.14
316 0 57.0956 14.3444 819 132.138 440.591 486.25
317 0 57.1785 15.0406 860 133.098 440.245 485.806
318 0 58.1032 14.8873 865 135.103 440.252 485.348
319 0 59.0676 13.6115 804 139.02 439.893 485.039
320 0 60.0876 14.6786 882 137.224 440.571 484.696
321 0 62.1793 14.7959 920 136.996 441.158 483.561
322 0 64.09 13.6683 876 138.728 441.503 482.933
323 0 66.0898 14.3441 948 137.266 441.506 481.793
324 1 32.0717 10.2894 330 141.161 442.009 496.773
325 0 35.0512 13.1807 462 132.203 443.113 497.102
326 0 35.0649 11.8922 417 135.703 443.535 496.592
327 0 38.0096 12.9441 492 135.307 444.071 495.175
328 0 39.0321 12.9381 505 134.042 443.907 494.584
329 0 41.2154 13.0776 539 135.482 442.61 492.872
330 0 42.0457 14.5318 611 132.319 443.542 492.553
331 0 43.1115 13.6158 587 134.245 443.835 493.821
332 0 44.1588 14.2893 631 130.639 444.111 495.041
333 0 45.1793 14.3207 647 132.544 443.397 493.663
334 0 50.0839 14.4158 722 131.001 444.168 492.198
335 0 51.0355 13.6767 698 133.709 443.599 492.44
336 0 51.0715 13.4713 688 134.299 444.055 493.192
337 0 50.0807 14.1771 710 136.67 444.246 492.517
338 0 54.1637 14.6408 793 133.745 444.333 492.604
339 0 57.1086 14.2711 815 134.8 443.675 489.904
340 0 60.1527 14.8788 895 132.486 443.697 487.307
341 0 63.0803 13.8871 876 135.307 442.119 486.774
342 0 64.1079 15.3491 984 133.294 441.139 485.243
343 0 63.0408 14.2923 901 140.137 440.071 483.189
344 0 64.0848 13.607 872 142.499 440.239 483.858
345 0 69.1286 15.0444 1040 136.539 440.085 483.694
346 0 70.0797 14.3551 1006 139.156 440.197 483.301
347 0 75.1154 15.2033 1142 137.613 439.522 478.642
348 1 39.0219 13.7359 536 135.966 440.698 495.494
349 0 38.0153 12.3108 468 141.376 439.88 494.064
350 0 41.0503 12.1071 497 141.903 440.477 492.525
351 0 43.1038 13.8271 596 134.651 440.07 492.641
352 0 45.0241 14.0591 633 136.167 439.94 490.694
353 0 47.0167 13.6973 644 137.787 440.325 489.087
354 0 51.0357 15.4402 788 130.265 440.009 487.615
355 0 50.052 14.2652 714 134.805 440.765 487.524
356 0 52.0604 15.8662 826 130.603 441.569 486.245
357 0 52.0383 13.9513 726 135.748 442.463 487.018
358 0 54.1011 14.362 777 133.609 442.718 487.008
359 0 55.1957 14.204 784 136.867 443.67 485.713
360 0 58.153 14.7026 855 134.138 444.375 484.829
361 0 61.3028 15.35 941 132.472 445.592 482.135
362 0 63.0868 13.9015 877 137.197 445.605 482.826
363 1 34.1057 12.6958 433 133.818 445.767 497.231
364 0 37.193 14.3575 534 131.519 445.652 495.766
365 0 37.042 14.3351 531 133.397 445.105 496.985
366 0 38.1167 12.6716 483 134.489 445.041 498.267
367 0 41.0678 13.0272 535 133.123 445.058 497.299
368 0 43.1192 13.6134 587 131.308 444.549 497.634
369 0 42.1152 14.1516 596 134.253 444.023 494.851
370 0 46.1301 14.936 689 128.775 443.655 494.437
371 0 46.0751 14.6066 673 130.985 443.221 494.56
372 0 48.0732 14.4363 694 131.765 442.64 494.014
373 0 49.1325 14.7967 727 132.532 442.96 491.098
374 0 51.1876 14.5152 743 131.577 441.941 490.125
375 0 53.1979 15.5645 828 131.308 441.052 488.842
376 0 54.1847 14.2106 770 135.794 440.004 488.181
377 0 58.1536 14.754 858 130.584 440.254 487.825
378 0 60.1257 14.7025 884 132.575 439.269 486.43
379 0 63.1691 15.1815 959 130.786 439.131 483.412
380 0 63.1301 15.1116 954 134.692 439.288 481.214
381 0 68.0874 14.4961 987 135.279 439.133 480.3
382 1 35.0614 12.3212 432 133.72 440.266 495.801
383 0 35.1414 11.411 401 138.214 440.506 495.01
384 0 39.0523 11.9583 467 136.287 441.071 493.805
385 0 39.2337 12.1834 478 135.362 441.182 494.519
386 0 39.147 13.0534 511 136.127 441.115 493.926
387 0 42.0613 13.2664 558 135.934 441.765 492.014
388 0 42.1013 13.8476 583 136.261 443.317 489.648
389 0 46.1058 16.0067 738 127.313 443.973 489.715
390 0 47.0916 14.0789 663 133.115 444.118 491.178
391 0 48.0637 14.7929 711 132.06 444.253 490.281
392 0 49.1414 14.0615 691 134.825 445.223 488.808
393 0 51.181 14.0091 717 133.098 445.358 489.106
394 0 53.1186 15.2113 808 130.261 445.647 489.54
395 0 56.1634 14.2441 800 130.569 445.435 491.514
396 0 55.1993 14.348 792 133.38 445.473 490.165
397 0 61.0355 15.5811 951 127.339 444.569 487.752
398 0 64.1214 15.8293 1015 126.209 444.129 486.233
399 0 64.1241 15.4232 989 128.382 444.237 486.354
400 0 67.1529 14.2362 956 131.922 443.677 485.247
401 0 68.1336 14.633 997 130.969 442.493 485.411
402 1 39.1148 13.0641 511 128.16 441.926 499.18
403 0 38.1022 12.2303 466 129.266 442.457 498.502
404 0 41.0468 13.1313 539 127.345 441.191 496.102
