time division length width area intensity CMx CMy
0 0 41.1307 13.0559 537 117.795 1270.27 484.142
1 0 42.115 14.8641 626 110.931 1269.06 485.824
2 0 42.2029 13.1981 557 118.386 1269.87 484.212
3 0 42.2477 12.5214 529 120.745 1269.92 483.486
4 0 44.1645 12.5893 556 117.603 1270.03 482.901
5 0 44.1459 13.7046 605 116.068 1270.33 483.81
6 0 45.1628 14.1267 638 115.459 1270 481.757
7 0 46.1013 14.2078 655 115.924 1269.63 480.559
8 0 44.111 13.1487 580 119.395 1269.91 481.355
9 0 47.0619 13.8328 651 117.737 1269.54 479.716
10 0 49.1262 15.1447 744 111.659 1269.67 479.578
11 0 51.225 14.8365 760 112.52 1269.71 479.292
12 0 50.075 14.5382 728 115.011 1270.49 479.834
13 0 52.1239 13.3912 698 117.427 1269.39 477.951
14 0 51.1433 13.7848 705 118.488 1269.44 476.53
15 0 52.0412 14.3156 745 117.458 1269.28 477.793
16 0 54.0982 13.531 732 118.474 1269.62 477.399
17 0 53.1117 13.3116 707 119.406 1269.55 477.605
18 0 56.0773 13.9807 784 117.312 1269.12 475.976
19 0 59.0531 15.1558 895 114.296 1269.72 475.785
20 0 58.0454 13.4033 778 119.639 1268.74 474.203
21 0 61.1032 15.6948 959 113.529 1269.09 473.957
22 0 65.0575 15.0329 978 113.191 1269.26 473.893
23 0 65.1755 15.2511 994 112.986 1270.16 472.601
24 1 34.0156 10.9362 372 119.653 1269.97 486.261
25 0 34.0114 11.5256 392 118.556 1270.51 487.633
26 0 37.0293 12.5846 466 114.564 1271.64 488.208
27 0 36.0784 12.362 446 118.652 1272.04 486.395
28 0 40.104 11.8691 476 116.838 1271.55 486.571
29 0 39.0313 12.2466 478 117.743 1271.72 485.799
30 0 39.0608 11.8533 463 118.305 1271.54 485.14
31 0 42.0753 11.9548 503 119.465 1271.68 483.179
32 0 43.0419 15.2177 655 112.009 1272.15 482.711
33 0 45.1168 13.1437 593 117.889 1272.54 482.003
34 0 45.0995 14.6343 660 115.032 1273.7 481.605
35 0 46.178 13.5995 628 118.411 1272.99 481.545
36 0 46.074 14.4116 664 119.203 1272.68 479.979
37 0 47.1568 13.9959 660 120.87 1273.53 480.244
38 0 50.1577 15.0326 754 117.749 1273.76 479.406
39 0 51.1165 14.868 760 119.257 1273.12 478.007
40 0 53.0764 14.3378 761 120.422 1274.24 479.012
41 0 55.0629 13.8751 764 121.41 1274.66 477.653
42 0 56.109 15.3095 859 119.057 1274.47 477.26
43 0 57.0298 14.7291 840 119.848 1274.2 475.767
44 0 59.1036 14.4661 855 120.195 1274.09 475.792
45 0 61.0676 14.6395 894 119.799 1274.89 474.749
46 0 62.0392 13.8622 860 121.953 1275.03 475.812
47 0 65.0841 15.0728 981 118.168 1275.08 475.115
48 0 69.1199 15.5816 1077 116.419 1274.79 474.065
49 0 70.0896 14.2817 1001 119.988 1274.24 472.548
50 0 72.1224 14.5863 1052 120.396 1274.87 470.74
51 0 77.1389 14.61 1127 116.642 1274.65 470.143
52 1 39.0715 12.234 478 115.657 1274.71 488.866
53 0 39.0275 12.299 480 115.796 1274.33 488.723
54 0 41.0359 12.1357 498 116.691 1274.05 485.94
55 0 42.2276 12.8589 543 115.267 1274.15 484.49
56 0 44.0969 13.493 595 114.331 1273.64 485.126
57 0 48.0651 13.8146 664 109.845 1273.84 484.218
58 0 46.1526 13.3904 618 114.249 1273.86 483.222
59 0 49.1246 14.1884 697 112.023 1273.99 482.043
60 0 49.0542 12.8837 632 112.1 1273.99 482.679
61 0 53.1893 14.1194 751 109.972 1273.98 479.511
62 0 55.2415 13.6673 755 107.785 1274.01 479.377
63 0 56.3271 13.972 787 108.126 1274.66 476.727
64 0 58.1854 14.2304 828 106 1275.24 478.506
65 0 61.325 14.2356 873 105.439 1274.93 477.745
66 0 64.1274 14.1749 909 105.131 1275.31 475.107
67 0 66.2285 14.6916 973 101.959 1275.78 477.208
68 0 68.1011 14.8162 1009 101.819 1275.9 475.345
69 0 69.251 13.1406 910 106.058 1276.09 471.01
70 0 74.2466 14.7751 1097 103.325 1274.61 470.047
71 0 77.1709 14.7206 1136 103.398 1275.83 469.423
72 1 40.0951 11.6473 467 105.283 1275.94 485.152
73 0 40.1535 11.5557 464 105.942 1273.97 484.746
74 0 44.0253 12.3111 542 101.651 1274.93 486.633
75 0 45.0963 13.8371 624 101.332 1275.38 485.519
76 0 44.1335 12.9833 573 106.154 1274.83 483.171
77 0 49.0651 15.0209 737 99.8494 1275.15 483.392
78 0 48.2032 13.0904 631 105.566 1275.49 481.428
79 0 51.0748 14.1753 724 102.157 1275.3 483.039
80 0 50.1228 12.9881 651 106.934 1275.39 481.768
81 0 53.0866 13.5816 721 105.072 1276.02 481.365
82 0 55.2329 14.0496 776 104.012 1275.96 479.697
83 0 58.1662 14.9571 870 102.777 1275.76 478.838
84 0 57.1 13.8529 791 106.169 1276 477.551
85 0 60.226 14.9935 903 103.047 1276.08 477.09
86 0 62.3796 14.6843 916 104.18 1275.94 474.876
87 0 67.389 16.0412 1081 100.867 1275.95 476.343
88 0 67.2239 14.7715 993 105.371 1276.14 473.232
89 0 69.1738 15.237 1054 104.186 1275.31 472.814
90 0 73.2091 14.684 1075 104.965 1275.58 470.076
91 1 37.2664 11.2166 418 106.289 1275.49 487.596
92 0 37.1123 12.9337 480 104.912 1275.95 485.033
93 0 38.0429 12.4859 475 103.964 1275.9 485.947
94 0 41.1265 12.1333 499 103.745 1276 485.319
95 0 40.1424 12.4307 499 106.244 1276.18 483.996
96 0 44.1042 13.2414 584 102.99 1276.48 483.842
97 0 43.0398 12.2677 528 105.019 1276.86 483.523
98 0 47.0589 13.685 644 101.581 1278.02 481.595
99 0 49.1415 15.5266 763 96.5845 1277.15 482.261
100 0 50.1439 13.0624 655 102.391 1276.37 481.102
101 0 50.1664 13.3755 671 103.174 1276.79 480.168
102 0 53.1039 14.2174 755 101.199 1276.93 477.702
103 0 54.0392 12.7315 688 102.855 1276.56 479.842
104 0 57.1816 15.7918 903 97.4983 1276.64 477.573
105 0 57.2552 13.7804 789 102.119 1277.17 476.959
106 0 60.1601 13.115 789 103.175 1277.16 476.395
107 0 62.167 14.1393 879 101.722 1277.12 475.609
108 0 65.2137 15.1349 987 99.0334 1277.75 475.748
109 0 64.2256 13.219 849 104.031 1277.57 474.022
110 0 69.292 13.9121 964 102.498 1277.67 473.89
111 0 69.1783 14.3253 991 103.11 1277.46 473.214
112 0 72.3116 14.3822 1040 103.346 1277.41 471.336
113 1 41.0588 11.5444 474 102.629 1276.86 488.447
114 0 40.0192 11.1696 447 106.143 1276.3 486.917
115 0 43.0799 12.7206 548 103.641 1276.85 485.77
116 0 45.1151 12.1024 546 104.875 1276.61 486.496
117 0 47.0779 12.6386 595 103.047 1276.68 486.41
118 0 48.1674 14.0759 678 101.763 1277.22 484.951
119 0 50.0437 13.6081 681 101.49 1275.7 485.285
120 0 52.2519 14.4301 754 100.55 1275.85 482.757
121 0 53.3525 14.6385 781 101.344 1275.39 481.154
122 0 54.1796 13.7875 747 101.744 1275.09 481.475
123 0 57.1324 13.3549 763 103.537 1274.71 479.267
124 0 60.1187 13.3902 805 102.002 1275.04 480.575
125 0 63.135 12.9722 819 101.333 1275.09 480.753
126 0 62.1386 13.148 817 104.793 1275.08 476.25
127 0 65.1893 14.2355 928 102.623 1274.95 475.334
128 0 68.0783 14.689 1000 101.032 1274.57 474.822
129 0 68.1353 14.5299 990 102.322 1275.25 474.182
130 0 69.1766 14.9039 1031 103.18 1275.92 472.259
131 0 72.0709 14.0972 1016 105.166 1276.63 470.136
132 0 75.1767 15.5633 1170 103.292 1276.87 469.006
133 0 76.1623 14.3115 1090 104.985 1275.99 470.501
134 0 80.1226 15.0519 1206 102.542 1276.62 469.074
135 0 84.4182 15.6601 1322 100.685 1277.46 466.347
136 0 85.1167 15.4611 1316 102.436 1276.93 464.261
137 1 45.057 12.4731 562 101.397 1277.09 485.968
138 0 47.0102 11.9761 563 103.462 1276.72 484.167
139 0 47.0877 11.1919 527 104.37 1277.1 485.199
140 0 50.1548 13.2789 666 102.721 1277.36 482.814
141 0 52.1353 15.3831 802 97.1135 1277.25 484.277
142 0 54.0652 14.8154 801 98.5968 1277.16 483.593
143 0 53.1184 13.3099 707 103.175 1277.45 481.777
144 0 56.0662 14.0727 789 101.023 1277.1 482.502
145 0 57.095 13.4688 769 104.547 1276.7 479.701
146 0 59.0805 13.4224 793 103.768 1276.54 478.91
147 0 61.1035 13.7963 843 103.122 1276.47 478.106
148 0 63.2885 14.1258 894 102.157 1275.38 478.398
149 0 64.1036 13.4782 864 103.339 1274.74 478.481
150 0 66.1901 14.7454 976 101.684 1274.97 477.139
151 0 70.1386 14.5141 1018 102.149 1274.86 474.514
152 0 71.1311 14.1288 1005 103.28 1274.89 473.62
153 0 74.1408 13.3395 989 105.223 1274.5 473.068
154 0 78.1568 15.3921 1203 101.288 1274.64 470.399
155 0 80.0861 14.5344 1164 103.733 1274.73 469.398
156 1 46.0739 12.6753 584 100.801 1275.23 486.786
157 0 44.0189 11.1997 493 104.095 1275.46 488.479
158 0 48.1301 12.8402 618 101.822 1275.17 485.846
159 0 47.0948 13.8232 651 102.412 1275.31 483.906
160 0 50.0576 12.8851 645 103.248 1275.19 482.664
161 0 51.2006 12.9881 665 102.002 1274.86 483.756
162 0 51.0594 12.8086 654 104.445 1275.48 483.061
163 0 54.1121 13.01 704 104.53 1275.52 481.253
164 0 57.1425 13.0726 747 103.689 1276.02 481.023
165 0 56.1398 13.3595 750 104.997 1276.28 479.873
166 0 60.0411 13.2909 798 105.997 1275.96 477.662
167 0 59.1164 12.3316 729 109.056 1276.92 477.975
168 0 65.0873 14.7187 958 103.894 1276.41 475.157
169 0 68.1279 15.9406 1086 100.319 1276.4 475.929
170 0 68.0775 11.957 814 107.113 1276.87 478.564
171 0 69.1413 13.3784 925 107.218 1277.19 475.558
172 0 73.1191 14.6747 1073 105.5 1276.53 473.844
173 0 74.0868 14.4965 1074 107.414 1275.8 473.151
174 1 39.0821 10.5675 413 106.789 1276.08 490.705
175 0 42.02 11.4231 480 105.748 1276.55 488.648
176 0 44.0589 12.8237 565 103.451 1276.13 489.411
177 0 45.013 12.4631 561 103.62 1276.03 489.289
178 0 46.0804 11.545 532 106.273 1275.87 488.165
179 0 47.0863 11.6382 548 106.046 1275.6 487.901
180 0 48.1124 12.4084 597 105.809 1274.63 486.467
181 0 49.1542 12.0641 593 106.479 1274.37 485.607
182 0 52.0884 13.8994 724 102.732 1274.59 484.124
183 0 53.0786 13.8097 733 103.052 1274.58 484.063
184 0 55.1796 12.7402 703 103.919 1274.36 483.743
185 0 57.1871 14.811 847 99.6281 1274.45 482.054
186 0 57.1488 12.2487 700 105.773 1274.24 481.227
187 0 58.1745 12.0328 700 107.334 1274.47 479.839
188 0 62.2424 14.4757 901 101.97 1273.91 478.607
189 0 64.1852 14.6451 940 100.946 1274.14 478.536
190 0 66.1809 13.0098 861 104.718 1273.73 475.861
191 0 67.231 12.3009 827 105.167 1273.72 477.328
192 0 71.211 13.116 934 104.125 1273.93 473.761
193 0 71.1851 12.6009 897 106.406 1273.74 472.511
194 1 40.1873 10.9736 441 102.238 1274.23 487.737
195 0 40.0776 10.2551 411 102.08 1274.48 489.684
196 0 42.0536 13.0548 549 98.8124 1275.09 486.88
197 0 43.0621 11.1699 481 101.871 1274.77 487.191
198 0 43.198 11.3663 491 103.33 1275.26 486.597
199 0 46.137 11.5959 535 103.323 1275.92 485.009
200 0 48.2725 13.1545 635 100.646 1275.3 483.578
201 0 47.1599 10.9415 516 105.587 1275.59 483.7
202 0 50.3569 12.6894 639 102.246 1274.98 483.031
203 0 52.1486 13.6725 713 99.4642 1275.16 483.025
204 0 54.1868 12.4754 676 102.709 1274.58 482.138
205 0 55.1005 13.6296 751 101.358 1275.06 480.16
206 0 57.201 12.797 732 103.296 1274.67 479.761
207 0 58.3458 12.9058 753 102.009 1275.58 481.749
208 0 60.2809 13.3873 807 101.509 1274.89 479.344
209 0 63.1997 12.8007 809 102.355 1274.31 478.061
210 0 64.2683 12.6657 814 102.29 1274.87 479.555
211 0 68.2371 15.0358 1026 97.8645 1274.89 475.636
212 0 69.3201 12.1754 844 104.332 1274.43 476.48
213 0 70.2896 12.7615 897 104.28 1274.47 473.892
214 1 42.0411 10.8703 457 100.549 1274.75 489.744
215 0 42.0822 9.98047 420 103.307 1274.85 489.224
216 0 44.0346 11.7408 517 102.513 1274.1 486.938
217 0 44.0715 12.0486 531 102.482 1273.65 486.164
218 0 46.1911 12.5565 580 102.088 1273.82 485.562
219 0 46.1911 12.5349 579 136.775 1274.81 485.532
220 0 47.1496 12.0892 570 105.226 1273.54 483.532
221 0 50.158 12.5603 630 103.929 1273.69 484.181
222 0 52.2189 12.8498 671 104.007 1273.58 482.82
223 0 53.1348 13.5693 721 103.544 1273.64 481.576
224 0 55.1195 12.6815 699 103.977 1273.21 483.059
225 0 56.1762 13.3687 751 104.671 1272.96 479.866
226 0 57.1456 13.5618 775 104.85 1273.74 477.685
227 0 61.0979 12.9792 793 104.569 1273.95 478.511
228 0 64.1178 14.333 919 102.346 1274.2 477.542
229 0 64.1074 13.1498 843 106.108 1274.47 476.361
230 0 66.1468 12.8804 852 105.094 1274.61 475.411
231 0 69.1442 13.6237 942 104.001 1274.69 472.897
232 0 71.1656 13.4756 959 104.568 1274.85 471.315
233 0 74.0707 13.0821 969 104.224 1275.43 470.056
234 0 76.1166 13.0195 991 106.245 1275.03 468.641
235 0 79.114 12.9054 1021 108.08 1275.35 465.432
236 0 82.2102 13.0276 1071 108.152 1275.17 465.815
237 0 86.2076 14.6043 1259 105.249 1275.11 465.67
238 1 45.1109 11.7045 528 103.898 1276.54 487.617
239 0 48.1041 12.8679 619 102.315 1276.58 487.079
240 0 47.0758 12.7667 601 103.446 1276.7 487.797
241 0 49.048 12.4572 611 105.111 1276.07 486.538
242 0 53.2436 13.5603 722 101.744 1275.36 485.834
243 0 55.1118 12.901 711 103.532 1275.15 485.606
244 0 54.0454 13.1556 711 105.111 1275.35 483.795
245 0 58.113 12.7338 740 103.784 1275.23 483.666
246 0 60.2013 13.3552 804 103.486 1275.12 481.215
247 0 60.2041 14.5837 878 102.599 1274.98 480.35
248 0 62.1688 13.769 856 102.461 1274.87 482.666
249 0 66.1043 14.1443 935 101.811 1273.74 480.295
250 0 66.231 12.6678 839 105.914 1273.45 478.192
251 0 66.1614 13.2857 879 105.733 1272.98 476.744
252 0 72.079 14.9974 1081 102.115 1273.6 474.317
253 0 72.1866 14.8504 1072 103.581 1273.23 472.866
254 0 74.0943 13.8067 1023 105.546 1273.61 471.774
255 0 77.2015 13.7692 1063 105.53 1273.35 471.947
256 0 82.2565 14.9168 1227 102.897 1274.13 469.513
257 0 82.1025 13.4588 1105 106.898 1273.46 467.912
258 1 45.079 11.0251 497 103.952 1273.68 487.964
259 0 46.0211 11.7555 541 102.163 1274.28 486.187
260 0 45.0722 11.1155 501 104.102 1274.98 486.18
261 0 47.0764 10.9609 516 104.335 1274.59 484.26
262 0 50.0622 12.3446 618 102.045 1274.62 483.513
263 0 49.1088 13.297 653 101.919 1275.98 481.19
264 0 51.0763 11.9233 609 104.34 1275.8 482.576
265 0 53.0551 11.7802 625 103.038 1276.62 481.302
266 0 56.133 13.4146 753 99.9681 1276.54 481.6
267 0 57.1248 13.0941 748 102.091 1276.63 479.357
268 0 60.1562 13.4317 808 100.418 1277.07 480.791
269 0 61.2854 14.049 861 100.393 1277.2 480.53
270 0 60.1634 12.5325 754 106.373 1277.09 478.647
271 0 63.2607 12.8042 810 104.875 1276.57 478.772
272 0 66.1935 14.1252 935 103.739 1276.74 477.741
273 0 69.0923 13.0695 903 106.019 1276.45 476.808
274 0 71.2227 13.4508 958 105.783 1276.57 476.587
275 0 74.3543 13.8257 1028 105.594 1276.64 475.328
276 0 77.3536 14.0265 1085 105.11 1276.07 475.23
277 0 78.163 15.0583 1177 104.761 1275.95 473.154
278 0 81.261 14.3365 1165 105.086 1275.4 472.625
279 1 45.0805 11.9786 540 104.88 1274.86 490.03
280 0 45.1724 11.3786 514 104.765 1274.39 491.068
281 0 47.201 13.7497 649 102.367 1274.45 487.071
282 0 47.0974 12.1663 573 106.382 1274.17 485.387
283 0 50.1974 12.2715 616 105.903 1274.19 485.917
284 0 52.1709 13.0149 679 104.875 1273.65 487.704
285 0 53.1605 13.2617 705 104.217 1273.21 485.522
286 0 55.0834 13.7246 756 103.386 1272.42 482.001
287 0 56.1123 13.7047 769 103.887 1273.39 481.351
288 0 57.0811 12.6487 722 106.262 1273.16 479.949
289 0 59.1149 13.0931 774 105.061 1273.48 479.585
290 0 62.1565 17.1181 1064 96.7096 1274.01 478.446
291 0 61.0707 13.3779 817 106.64 1273.88 475.737
292 0 67.1249 14.6443 983 100.729 1273.81 477.493
293 0 66.1281 13.9124 920 103.992 1274.19 475.523
294 0 71.1363 14.0294 998 101.653 1274.63 475.398
295 0 70.2233 12.5884 884 107.169 1275.12 474.11
296 0 74.048 13.6398 1010 103.554 1275.95 473.959
297 0 76.098 14.731 1121 104.352 1276.61 470.71
298 0 79.2837 14.8202 1175 104.544 1276.14 469.201
299 1 43.1222 11.3167 488 105.367 1276.75 488.102
300 0 44.0272 11.9926 528 105.167 1278 488.693
301 0 47.0095 11.7423 552 104.351 1277.56 489.085
302 0 48.0408 12.8224 616 104.205 1277.38 487.398
303 0 48.1246 11.8443 570 107.772 1277.21 487.621
304 0 50.0944 13.255 664 106 1276.78 487.789
305 0 52.0943 13.3412 695 105.761 1275.97 486.748
306 0 54.0345 13.3248 720 106.099 1275.81 487.711
307 0 55.0517 12.6427 696 107.44 1275.88 486.191
308 0 60.2536 13.9743 842 103.545 1275.98 486.215
309 0 60.1131 13.1585 791 107.781 1275.61 484.135
310 0 62.257 13.7013 853 106.933 1274.83 483.097
311 0 64.1202 14.2077 911 106.896 1274.73 481.205
312 0 66.05 13.5958 898 110.066 1274.17 480.245
313 0 66.1279 13.8217 914 111.237 1273.67 477.24
314 0 71.098 15.3591 1092 107.067 1273.94 476.827
315 0 72.1237 13.0332 940 112.678 1273.18 475.657
316 0 78.079 13.909 1086 110.61 1272.69 474.228
317 0 78.1106 14.5179 1134 113.375 1272.29 470.894
318 1 41.0164 11.5807 475 109.042 1272.31 491.046
319 0 43.1506 12.1667 525 108.503 1272.19 490.425
320 0 42.1211 11.3245 477 112.748 1273.04 488.468
321 0 46.1094 12.5137 577 108.123 1274.02 488.938
322 0 44.2513 12.2708 543 112.648 1274.33 486.888
323 0 47.1782 12.5482 592 110.959 1274.39 485.929
324 0 49.0866 11.9992 589 113.774 1274.87 485.891
325 0 50.0518 12.5071 626 111.476 1275.75 485.727
326 0 53.0583 14.4558 767 109.283 1276.3 483.563
327 0 54.0965 13.7902 746 110.666 1276.88 483.282
328 0 55.2525 12.3614 683 115.493 1276.72 481.865
329 0 58.1509 13.3102 774 112.217 1275.32 480.255
330 0 60.1297 12.7724 768 112.73 1276.23 481.883
331 0 62.1218 13.3769 831 113.118 1276.51 480.367
332 0 63.0979 13.8673 875 112.472 1276.71 480.537
333 0 65.1991 15.3223 999 110.575 1276.15 479.569
334 0 67.0565 12.9443 868 115.167 1276.92 479.687
335 0 69.1259 13.9745 966 113.265 1276.4 478.12
336 0 71.0614 13.1154 932 115.174 1276.84 477.753
337 0 75.1663 14.5012 1090 111.333 1277.06 478.25
338 0 77.0861 14.2568 1099 113.972 1277.25 474.914
339 0 80.153 14.8466 1190 111.699 1276.42 473.829
340 0 84.0906 14.4844 1218 111.742 1276.57 472.953
341 0 86.077 13.1859 1135 116.877 1275.03 468.384
342 1 47.0261 10.5899 498 112.295 1274.13 491.807
343 0 49.1114 11.6063 570 113.167 1273.17 488.439
344 0 51.2299 12.1609 623 111.178 1273.08 486.82
345 0 52.1819 12.4181 648 111.245 1273.11 485.244
346 0 54.084 13.3866 724 109.594 1272.99 483.823
347 0 55.1189 11.8834 655 113.173 1272.36 482.956
348 0 58.0673 11.7106 680 111.907 1273.33 483.399
349 0 59.0687 12.1892 720 112.285 1272.43 480.947
350 0 60.1895 12.7265 766 112.486 1272.86 479.057
351 0 63.0918 13.1871 832 110.114 1272.37 477.78
352 0 65.2666 12.5179 817 112.933 1272.13 474.916
353 0 66.2685 14.3658 952 108.445 1272.51 475.159
354 0 69.08 12.9994 898 111.8 1272.16 472.47
355 0 72.3493 13.7389 994 109.228 1272.74 473.057
356 0 73.2579 12.5447 919 113.15 1273.54 471.424
357 0 76.1693 13.982 1065 110.161 1274.34 467.925
358 1 41.1346 12.2038 502 107.886 1275.22 486.203
359 0 42.0898 9.90739 417 111.151 1276.06 487.549
360 0 45.1344 11.1002 501 107.99 1276.62 486.892
361 0 47.1119 10.9951 518 109.264 1277.81 486.125
362 0 48.0577 12.7971 615 106.577 1277.89 485.847
363 0 50.1148 11.5934 581 108.895 1277.69 485.664
364 0 53.1367 12.4208 660 106.855 1277.7 484.944
365 0 54.1381 13.1885 714 105.825 1277.37 484.763
366 0 55.203 13.4051 740 106.995 1277.25 483.912
367 0 57.1897 11.3482 649 109.507 1277.39 485.099
368 0 59.1587 12.6778 750 107.035 1276.8 485.013
369 0 62.1089 13.5407 841 105.908 1276.41 482.855
370 0 64.1665 12.7013 815 107.178 1275.9 481.564
371 0 67.1942 13.1112 881 104.487 1275.32 482.284
372 0 69.1603 12.8831 891 106.456 1274.82 479.223
373 0 69.1195 12.6014 871 107.566 1275.19 478.317
374 0 73.1632 13.1897 965 106.05 1274.11 475.252
375 0 75.3023 12.7619 961 107.409 1273.3 475.583
376 0 78.1106 13.7881 1077 105.89 1272.24 470.974
377 0 81.3049 13.5293 1100 104.05 1272.31 470.141
378 1 42.0826 10.5031 442 104.661 1271.77 488.785
379 0 46.0525 10.792 497 100.262 1271.57 489.586
380 0 46.0289 11.9925 552 100.293 1271.83 487.089
381 0 49.0844 12.3665 607 99.1796 1271.77 484.936
382 0 51.0592 11.5356 589 101.093 1272.57 482.723
383 0 52.0929 12.6697 660 98.1348 1272.71 482.965
384 0 52.1405 11.5457 602 100.211 1272.91 481.738
385 0 53.0963 11.5827 615 100.725 1273.15 481.836
386 0 55.155 13.181 727 98.2077 1273.14 480.546
387 0 58.0923 14.1155 820 95.9537 1274.06 479.599
388 0 58.2806 12.1138 706 98.8343 1275.68 479.132
389 0 62.1682 15.1524 942 92.6826 1276.25 478.311
390 0 64.1851 14.318 919 94.5691 1276.54 477.413
391 0 65.0872 13.8891 904 95.4591 1276.62 478.462
392 0 67.2018 14.0621 945 94.9481 1277.44 477.528
393 0 70.1034 13.9223 976 95.2418 1277.56 475.986
394 0 71.3427 12.8534 917 97.7993 1277.83 476.526
395 0 74.1621 15.0481 1116 94.5045 1277.66 474.032
396 0 78.1474 14.6646 1146 94.3342 1277.8 477.216
397 0 80.2426 15.3784 1234 94.1442 1276.8 474.865
398 0 83.1856 14.113 1174 96.3092 1276.57 475.806
399 0 85.1437 14.2113 1210 96.5983 1276.55 473.015
400 1 46.0674 11.4181 526 98.1122 1276.23 489.538
401 0 49.0935 11.6309 571 95.1313 1274.99 489.949
402 0 49.0608 11.1902 549 96.4772 1274.28 489.033
403 0 52.278 13.0457 682 93.2493 1274.9 487.129
