time division length width area intensity CMx CMy
0 0 26.0765 10.6993 279 127.581 1201.74 500.344
1 0 26.1184 10.6821 279 129.125 1200.01 500.961
2 0 27.1512 11.5649 314 126.717 1200.51 500.185
3 0 27.1512 11.5649 314 171.777 1200.54 500.162
4 0 28.0123 10.8167 303 125.937 1201.1 500.396
5 0 29.0187 10.6483 309 123.67 1202.43 500.693
6 0 32.0856 11.9991 385 118.455 1202.74 500.164
7 0 30.0488 11.9472 359 124.49 1201.5 498.014
8 0 31.0445 12.6915 394 120.393 1201.66 497.041
9 0 32.0549 12.7281 408 120.164 1200.92 497.917
10 0 33.0151 13.2969 439 116.519 1200.42 496.916
11 0 32.1402 13.6278 438 118.434 1198.77 496.096
12 0 34.0817 14.2012 484 115.155 1199.69 497.707
13 0 35.4386 12.8673 456 117.414 1200.38 497.226
14 0 33.1196 15.0666 499 114.565 1200.51 497.036
15 0 36.1415 15.135 547 113.488 1200.98 496.327
16 0 36.4518 14.5672 531 112.71 1199.34 496.213
17 0 36.2399 14.3212 519 115.765 1199 495.938
18 0 38.2188 14.3646 549 114.572 1199.45 496.301
19 0 39.1579 14.7608 578 114.86 1199.38 495.318
20 0 40.2366 14.9864 603 114.761 1198.64 494.854
21 0 40.1728 14.4874 582 114.816 1198.84 495.887
22 0 41.1954 14.8075 610 115.625 1200.29 494.085
23 0 42.082 14.9945 631 115.437 1200.88 494.113
24 0 42.3793 15.5029 657 115.234 1200.03 494.671
25 0 43.2585 16.3205 706 114.317 1201.39 492.979
26 0 45.0599 14.8025 667 117.504 1201.67 493.829
27 0 46.1433 14.5633 672 118.75 1200.64 493.557
28 0 47.0424 18.0688 850 111.593 1200.55 492.486
29 0 47.0964 18.0056 848 113.771 1200.93 489.489
30 0 49.1484 16.1958 796 114.471 1201.25 490.946
31 0 50.1399 16.2346 814 115.285 1200.57 490.556
32 0 51.0728 15.7618 805 116.724 1201.01 490.255
33 0 53.0466 15.6466 830 115.084 1201.05 488.99
34 0 53.0461 17.7016 939 111.302 1201.89 488.414
35 0 56.0553 17.0189 954 112.144 1201.62 487.273
36 0 56.2223 16.2925 916 114.572 1201.53 485.391
37 0 61.0594 17.8023 1087 108.773 1202.55 486.501
38 0 60.1902 17.7271 1067 110.611 1203 485.999
39 0 63.1899 17.8351 1127 108.213 1202.96 486.247
40 0 64.3322 17.5962 1132 111.064 1202.68 484.96
41 0 66.1852 17.7985 1178 110.712 1202.81 483.252
42 0 68.1304 17.1583 1169 111.936 1202.8 483.262
43 0 71.1837 17.5181 1247 111.083 1203.15 482.205
44 0 73.2562 18.1555 1330 109.879 1202.9 482.752
45 0 75.1559 18.8408 1416 109.349 1203.91 480.982
46 0 75.3295 16.6469 1254 114.416 1203.68 480.904
47 1 41.0471 14.4224 592 110.796 1203.78 498.779
48 0 39.1161 14.9044 583 111.93 1203.83 499.065
49 0 42.0883 15.3249 645 110.735 1204.07 497.712
50 0 42.0971 15.7493 663 111.187 1203.86 495.535
51 0 45.0836 15.7041 708 109.77 1203.3 497.08
52 0 45.0712 15.4644 697 110.502 1203.14 495.921
53 0 47.073 16.2089 763 107.65 1202.91 496.764
54 0 49.0684 18.1787 892 105.469 1203.08 493.674
55 0 50.0969 15.989 801 108.805 1202.97 494.819
56 0 52.1196 16.3278 851 109.771 1202.34 493.217
57 0 54.0728 16.0524 868 109.023 1203.18 492.43
58 0 56.081 15.4419 866 113.374 1202.45 489.092
59 0 57.0407 15.112 862 114.065 1202.57 488.894
60 0 61.077 15.5378 949 111.842 1202.6 489.264
61 0 59.0419 15.6669 925 113.538 1202.91 488.458
62 0 64.0776 17.2915 1108 110.552 1202.87 486.473
63 0 64.0762 15.6064 1000 115.069 1203.05 486.081
64 0 67.1926 17.3233 1164 113.887 1203.33 483.548
65 0 70.1364 16.4964 1157 113.246 1202.87 483.439
66 0 73.1125 17.7124 1295 110.392 1204 481.537
67 0 74.0986 18.7993 1393 108.717 1203.96 479.602
68 0 74.2273 15.8432 1176 114.267 1203.45 479.546
69 0 79.0687 17.7567 1404 110.92 1204.11 478.25
70 0 81.0768 17.1566 1391 114.849 1202.07 475.697
71 0 82.2627 14.2349 1171 119.645 1203.26 477.056
72 1 44.0355 14.0341 618 115.528 1203.12 494.049
73 0 45.0757 14.6198 659 117.03 1202.71 492.501
74 0 48.0577 14.545 699 114.365 1203.14 494.109
75 0 48.0305 15.511 745 115.023 1202.84 491.989
76 0 52.1327 15.0769 786 113.573 1204.44 493.084
77 0 51.1254 13.907 711 117.277 1204.56 491.44
78 0 53.0427 14.9125 791 115.752 1205.1 491.241
79 0 58.0631 14.1226 820 117.211 1205.44 490.012
80 0 57.1219 14.9855 856 116.846 1205.8 490.904
81 0 61.0718 15.3262 936 115.136 1206.04 490.222
82 0 62.0586 14.3574 891 117.274 1205.82 490.141
83 0 65.0885 15.3176 997 117.555 1205.33 486.192
84 0 65.0429 14.2214 925 121.387 1204.77 485.128
85 0 67.1302 14.8815 999 118.068 1204.56 485.543
86 0 70.2071 14.0726 988 120.605 1204.41 484.119
87 1 34.0436 12.3077 419 117.704 1204.74 500.561
88 0 36.0173 12.3829 446 115.309 1204.98 501.191
89 0 37.0325 12.2595 454 116.874 1204.91 499.381
90 0 40.0673 14.5755 584 111.721 1204.45 498.327
91 0 38.0281 14.6997 559 114.574 1204.94 497.8
92 0 40.0541 13.4568 539 116.414 1204.44 498.393
93 0 41.115 14.6419 602 115.362 1204.44 496.787
94 0 44.0188 14.5847 642 115.745 1205.02 496.136
95 0 44.0358 13.9432 614 117.062 1205.08 495.813
96 0 45.0824 14.9282 673 116.129 1205.3 494.028
97 0 48.018 14.7653 709 114.051 1205.54 493.674
98 0 49.0334 14.7858 725 114.891 1205.06 493.764
99 0 51.1363 14.608 747 115.774 1205.72 493.078
100 0 50.0527 13.6856 685 121.086 1207.22 490.207
101 0 54.0545 13.8564 749 118.963 1206.11 491.714
102 0 56.0579 14.4493 810 118.943 1206.22 488.695
103 0 56.0645 12.8959 723 121.308 1206.07 491
104 0 60.0938 14.6438 880 118.07 1206.62 488.402
105 0 60.1254 14.4697 870 119.894 1206.59 487.385
106 0 63.1375 14.0487 887 122.045 1206.51 486.766
107 0 65.1323 13.25 863 123.432 1206.53 486.572
108 0 69.2158 15.8056 1094 117.798 1207.17 484.665
109 0 70.0928 14.5236 1018 120.073 1207.33 483.302
110 0 73.2091 14.2059 1040 121.072 1207.18 483.071
111 0 75.2361 15.4979 1166 118.931 1206.78 482.122
112 0 79.1731 14.8409 1175 119.744 1206.78 481.003
113 0 81.0997 15.3392 1244 119.767 1205.42 478.714
114 0 85.1512 16.042 1366 117.828 1205.37 477.626
115 0 87.0895 15.8228 1378 119.459 1205.24 475.805
116 0 90.3506 15.3956 1391 119.249 1205.3 475.759
117 1 48.0856 12.9145 621 116.203 1205.92 497.325
118 0 51.0588 13.2396 676 114.734 1205.52 494.972
119 0 52.0507 13.9095 724 113.982 1205.42 494.294
120 0 55.0606 13.6214 750 115.723 1204.77 492.999
121 0 57.0436 14.6379 835 113.283 1204.76 490.984
122 0 57.2701 14.3006 819 113.436 1205.7 491.735
123 0 60.1755 13.095 788 114.687 1205.23 490.195
124 0 62.1465 14.5463 904 113.795 1204.44 488.52
125 0 64.1584 13.1705 845 115.011 1205.38 488.42
126 0 67.1391 14.5668 978 112.572 1204.91 484.909
127 1 36.0693 13.0305 470 111.049 1206.53 500.483
128 0 37.0151 11.9681 443 113.201 1206.24 500.761
129 0 37.0418 11.1226 412 115.417 1205.44 501.046
130 0 37.0179 13.0747 484 112.733 1205.56 499.787
131 0 41.0601 13.0297 535 111.058 1205.81 499.252
132 0 42.0331 15.2499 641 107.047 1205.96 497.757
133 0 42.0616 14.1697 596 112.008 1205.91 496.114
134 0 44.1556 14.0639 621 108.399 1206.01 497.539
135 0 43.2421 13.7135 593 109.971 1206.21 496.841
136 0 46.3129 13.5815 629 111.498 1205.81 495.294
137 0 46.2323 13.4971 624 112.298 1205.61 495.553
138 0 50.2808 14.2997 719 109.277 1206.37 494.061
139 0 50.27 13.4474 676 110.676 1206.73 494.454
140 0 52.2212 14.7641 771 107.815 1206.62 493.108
141 0 55.1782 14.2448 786 107.714 1205.92 493.095
142 0 58.1068 15.7469 915 103.349 1205.85 493.999
143 0 57.1061 14.009 800 108.666 1205.39 491.042
144 1 31.0852 11.0342 343 108.991 1206.31 506.012
145 0 30.0307 11.6214 349 109.054 1205.45 506.358
146 0 33.0531 11.7387 388 109.536 1205.94 504.843
147 0 33.0748 12.9706 429 109.851 1204.4 502.855
148 0 35.1412 13.0047 457 108.88 1205.37 503.162
149 0 35.0507 14.8071 519 108.933 1204.1 502.765
150 0 37.2373 12.6755 472 111.203 1204.41 502.108
151 0 38.0289 15.199 578 107.888 1203.17 500.862
152 0 40.0517 14.5312 582 109.768 1203.78 499.703
153 0 40.1891 14.3074 575 111.381 1203.18 499.717
154 0 41.0298 13.5268 555 112.903 1203.5 499.398
155 0 43.1769 13.7574 594 113.741 1203.1 498.747
156 0 45.2408 14.6328 662 111.157 1201.92 498.875
157 0 46.2087 14.9755 692 112.077 1202.21 496.536
158 0 47.1256 15.6391 737 111.858 1201.74 495.848
159 0 48.1108 15.7969 760 112.363 1202.32 495.629
160 0 50.2781 14.9966 754 114.32 1202.45 494.672
161 0 50.4912 14.9927 757 115.324 1202.81 494.266
162 0 53.206 15.6561 833 113.292 1203.21 493.334
163 0 56.3793 16.1939 913 111.244 1203.47 491.945
164 0 57.2732 15.7316 901 112.164 1204.18 492.687
165 0 59.1496 15.6721 927 112.579 1204.29 490.871
166 0 61.2583 15.655 959 111.888 1204.48 488.934
167 0 63.3499 16.3694 1037 110.251 1205.2 488.922
168 1 34.6432 13.1916 457 112.214 1204.45 503.385
169 0 31.3521 12.4394 390 116.323 1204.79 503.164
170 0 33.344 14.6953 490 111.188 1204.72 503.384
171 0 36.4992 15.151 553 109.483 1204.79 503.441
172 0 35.2831 14.5396 513 114.099 1204.88 502.084
173 0 37.1688 14.905 554 113.242 1204.83 502.942
174 0 39.1976 14.9754 587 111.908 1204.51 501.874
175 0 40.3118 15.5042 625 110.853 1203.83 502.368
176 0 43.1584 15.6169 674 111.675 1203.33 501.182
177 0 42.2307 15.368 649 113.789 1202.85 501.151
178 0 43.2959 13.8812 601 117.356 1203.85 500.91
179 0 43.2959 13.7888 597 165.067 1203.85 500.96
180 0 46.1723 14.7924 683 116.161 1203.85 500.085
181 0 48.1379 15.4348 743 114.829 1203.06 498.767
182 0 49.1843 15.8994 782 114.203 1202.32 497.85
183 0 51.1295 15.7834 807 114.896 1202.59 497.481
184 0 53.1392 16.3909 871 112.072 1202.34 496.697
185 0 55.1523 17.2432 951 110.737 1202.07 494.723
186 0 56.163 15.366 863 115.334 1201.65 494.395
187 0 58.1816 15.1766 883 115.607 1201.4 494.737
188 0 61.1459 18.1042 1107 109.787 1201.84 491.5
189 0 62.1104 18.1773 1129 109.734 1201.65 491.686
190 0 65.2126 15.5491 1014 114.868 1201.91 489.988
191 0 66.1087 17.1838 1136 114.17 1201.25 487.14
192 0 68.2275 16.4596 1123 114.659 1201.95 487.193
193 0 73.2365 17.3684 1272 111.952 1202.73 485.699
194 0 73.1661 16.7837 1228 115.385 1202.12 484.262
195 0 79.1562 19.3036 1528 108.204 1203.34 482.852
196 1 42.1383 13.5032 569 115.165 1202.82 499.084
197 0 44.1044 15.1459 668 113.841 1203.66 496.868
198 0 44.0939 13.8341 610 117.857 1203.84 496.915
199 0 44.0714 14 617 118.358 1204.63 496.433
200 0 46.1123 14.8984 687 115.991 1204.52 495.424
201 0 48.1727 14.4688 697 116.77 1204.41 495.836
202 0 50.0417 14.1682 709 116.587 1204.17 495.705
203 0 52.1093 14.7958 771 115.197 1204.58 493.35
204 0 55.1228 15.1843 837 113.406 1204.7 493.652
205 0 56.0526 16.092 902 113.208 1205.2 492.645
206 0 58.072 16.9101 982 110.922 1204.93 492.54
207 0 59.102 15.1602 896 116.133 1204.77 491.708
208 0 61.1577 15.5173 949 114.347 1204.42 489.428
209 0 64.1398 15.4974 994 113.775 1204.14 490.321
210 0 66.2273 16.3679 1084 112.525 1204.44 489.696
211 0 70.1335 15.6844 1100 113.063 1204.95 488.301
212 0 72.2013 16.5925 1198 112.182 1204.19 487.73
213 1 39.0604 11.6742 456 112.928 1203.98 504.035
214 0 39.0205 12.1475 474 115.103 1204.18 501.865
215 0 43.0707 14.1395 609 108.304 1202.97 501.777
216 0 42.0231 11.8744 499 114.589 1202.35 502.505
217 0 44.045 14.7349 649 109.342 1202.24 501.083
218 0 46.0737 13.7823 635 112.624 1202.21 499.452
219 0 47.126 13.4533 634 114.082 1202.27 497.998
220 0 49.1824 13.1551 647 112.798 1201.94 498.482
221 0 50.2289 12.881 647 113.193 1202.37 498.468
222 0 51.1012 13.9723 714 113.947 1202.09 495.511
223 0 53.2473 15.2308 811 110.261 1202.68 494.941
224 0 53.1285 13.2885 706 114.52 1202.14 494.746
225 0 56.2683 13.1157 738 114.176 1202.34 494.175
226 0 59.1845 14.9364 884 111.706 1202.97 491.793
227 0 60.1135 14.5891 877 112.86 1203.02 491.438
228 1 31.099 12.9908 404 110.025 1203.78 504.262
229 0 32.0981 11.091 356 111.323 1202.77 505.365
230 0 33.0535 10.6494 352 113.764 1204.08 503.611
231 0 34.0439 12.6014 429 110.646 1204.14 503.685
232 0 34.0996 10.0294 342 115.564 1205.11 502.866
233 0 38.0413 13.4591 512 109.447 1205.37 502.549
234 0 38.0661 14.0282 534 108.749 1205.1 502.747
235 0 38.0772 12.7373 485 112.229 1205.39 502.652
236 0 38.1129 10.9412 417 118.345 1205.59 502.564
237 0 39.241 11.4676 450 117.62 1205.21 502.747
238 0 40.3001 13.6972 552 116.763 1205.11 501.63
239 0 41.4906 11.8099 490 121.904 1205.3 501.996
240 0 41.6383 13.3531 556 121.683 1205.12 501.198
241 0 43.4941 12.5994 548 121.664 1204.84 501.71
242 0 44.3177 12.6586 561 123.62 1203.9 500.513
243 0 47.2394 13.421 634 118.41 1203.35 501.071
244 0 46.2915 13.199 611 123.687 1203.1 499.682
245 0 47.1897 10.8498 512 124.514 1203.21 500.359
246 0 51.1822 13.0905 670 121.281 1203.67 496.809
247 0 52.3001 12.9063 675 122.182 1203.81 498.161
248 0 51.3524 13.2808 682 124.49 1203.04 497.626
249 0 51.4315 10.5966 545 126.316 1202.12 499.941
250 1 32.18 10.9074 351 118.618 1202.63 508.681
251 0 31.1153 10.7021 333 118.835 1202.95 509.039
252 0 32.0949 10.9986 353 121.635 1202.83 508.094
253 0 32.2245 12.7232 410 119.632 1203.28 507.902
254 0 30.186 11.5617 349 125.828 1202.91 507.719
255 0 33.554 16.3793 1647 129.583 1201.03 475.12
256 0 34.044 15.6231 1563 134.016 1201.47 474.936
257 0 35.205 16.1136 1663 132.884 1201.31 474.963
258 0 36.606 16.4812 1757 132.746 1201.5 475.092
259 0 37.388 16.4587 1751 134.878 1201.81 472.44
260 0 39.526 16.539 1828 135.222 1202.53 469.385
261 0 41.316 17.3003 1995 133.807 1202.49 468.904
262 0 42.388 15.9319 1918 136.405 1203.1 467.091
263 0 43.466 16.3812 1957 137.92 1203.47 466.236
264 0 43.1718 12.9251 558 127.367 1203.65 499.894
265 0 43.1153 12.942 558 129.977 1204.33 499.711
266 0 47.2045 14.8291 700 124.056 1203.76 498.62
267 0 49.1172 13.1522 646 127.567 1204.69 497.701
268 0 50.1142 14.2874 716 127.017 1204.93 498.278
269 0 51.2106 14.333 734 128.384 1205.44 497.219
270 1 22.0149 12.219 269 130.662 1204.5 511.041
271 0 25.0202 12.5099 313 129.802 1204.35 510.479
272 0 24.0319 11.6928 281 135.893 1205.12 509.89
273 0 27.0108 12.8838 348 133.618 1204.98 509.954
274 0 28.0231 12.2756 344 133.828 1204.4 510.927
275 0 30.0436 13.0144 391 134.266 1205.19 511.32
276 0 30.0521 12.7778 384 138.297 1204.45 511.852
277 0 30.0971 12.8584 387 140.966 1204.95 510.687
278 0 31.1532 13.5139 421 140.58 1203.99 509.181
279 0 32.1009 14.0495 451 141.428 1203.84 508.483
280 0 32.0817 14.3696 461 142.887 1203.21 507.905
281 0 36.0437 13.7888 497 141.581 1202.98 507.398
282 0 35.0813 13.5685 476 143.725 1202.37 506.466
283 0 37.1181 14.2518 529 142.858 1201.79 504.021
284 0 39.0692 14.18 554 139.574 1201.5 506.193
285 0 40.0986 15.2374 611 136.185 1201.76 504.727
286 0 40.0482 14.5075 581 141.017 1202.06 502.184
287 0 42.0533 15.0286 632 136.717 1202.47 500.847
288 0 44.1538 15.4913 684 134.423 1202.64 499.803
289 0 44.0963 15.126 667 136.084 1201.97 497.946
290 0 46.1843 15.0051 693 134.794 1203.17 497.973
291 0 47.1247 15.2786 720 134.176 1202.91 497.432
292 0 49.0364 15.0908 740 131.564 1203.17 497.915
293 0 50.2674 15.6165 785 131.546 1202.9 495.661
294 0 52.1012 14.9901 781 132.109 1203.5 495.156
295 0 52.032 15.452 804 132.67 1204.17 494.547
296 0 55.1286 14.5115 800 133.981 1204.63 492.759
297 0 58.0562 16.484 957 126.885 1204.28 493.71
298 0 57.0954 14.7473 842 133.686 1204.99 493.049
299 0 58.0215 14.9083 865 133.869 1206.01 491.94
300 0 62.0762 15.0782 936 131.519 1206.33 492.087
301 0 63.088 15.2803 964 130.017 1206.21 493.587
302 1 34.0499 13.6564 465 131.809 1205.24 505.875
303 0 35.1198 14.1231 496 129.915 1204.44 506.442
304 0 38.0316 12.9103 491 130.149 1204.93 507.084
305 0 40.0952 14.4656 580 126.303 1204.71 506.666
306 0 40.1631 15.5616 625 124.658 1204.51 507.446
307 0 43.0236 13.6669 588 128.957 1204.11 507.126
308 0 40.0572 14.9287 598 130.936 1203.9 506.309
309 0 42.142 15.5664 656 126.73 1204 506.855
310 0 42.0692 15.9737 672 127.141 1203.45 506.281
311 0 43.0362 15.7542 678 129.558 1203.32 505.261
312 0 45.4044 15.1527 688 130.541 1202.65 504.734
313 0 45.1448 15.55 702 131.652 1202.69 502.372
314 0 45.1155 14.5626 657 134.457 1201.98 501.443
315 0 48.0652 16.228 780 130.553 1201.26 500.232
316 0 49.0874 15.7067 771 131.685 1201.45 501.066
317 0 50.1569 15.0727 756 135.138 1201.6 499.216
318 0 51.0864 15.6793 801 133.863 1201.11 499.337
319 0 52.1236 16.2307 846 133.638 1201.08 497.69
320 0 52.0364 15.4123 802 137.973 1201.12 496
321 0 56.1231 16.5172 927 134.262 1201.86 495.45
322 0 55.0646 15.3638 846 136.585 1202.68 496.086
323 0 60.0816 16.8604 1013 133.556 1203.62 493.499
324 1 29.0327 14.3631 417 136.141 1202.94 506.01
325 0 29.012 15.3385 445 136.234 1203.8 505.151
326 0 32.0224 14.1463 453 137.225 1203.84 506.04
327 0 32.0094 16.0265 513 135.435 1204.04 504.725
328 0 33.0243 15.9579 527 136.106 1204.58 503.909
329 0 34.0564 16.5314 563 133.165 1206.08 503.634
330 0 36.0151 15.6601 564 134.11 1205.47 503.541
331 0 37.0568 16.5962 615 133.406 1206.9 503.707
332 0 38.1078 16.532 630 131.729 1206.13 505.989
333 0 39.0599 15.8218 618 137.252 1206.55 504.562
334 0 40.0974 16.5347 663 136.235 1206.32 504.017
335 0 40.021 15.9167 637 140.08 1206.8 503.716
336 0 43.028 16.2685 700 139.907 1206.81 503.867
337 0 43.0272 15.9899 688 143.432 1206.1 504.365
338 0 47.0874 17.3295 816 139.081 1205.03 503.582
339 0 48.1118 17.5217 843 141.499 1204.2 501.661
340 0 48.034 16.3842 787 145.173 1204.37 502.479
341 0 52.0457 15.6593 815 143.562 1202.77 503.014
342 0 54.0871 16.5659 896 146.795 1203.29 499.028
343 0 54.0918 16.509 893 150.057 1203.01 498.035
344 1 27.008 14.0699 380 151.955 1203.29 509.708
345 0 30.0687 14.3671 432 151.275 1202.78 509.222
346 0 30.0459 15.8424 476 147.55 1202.72 508.964
347 0 28.0314 15.4113 432 155.914 1202.26 507.081
348 0 30.0144 16.4255 493 153.475 1202.86 507.602
349 0 32.0926 15.8915 510 153.104 1201.22 505.767
350 0 32.0079 15.5274 497 154.934 1201.07 504.897
351 0 33.1038 16.1311 534 153.828 1201.47 503.698
352 0 36.0894 15.7941 570 153.058 1202.08 502.988
353 0 36.0224 15.0185 541 153.63 1202.44 503.25
354 0 37.0224 16.7196 619 153.341 1202.45 501.326
355 0 38.0241 14.8064 563 157.844 1203.28 502.492
356 0 37.0269 16.6636 617 157.687 1204.37 500.7
357 0 41.0696 15.7781 648 155.503 1204.89 500.673
358 0 41.1523 17.2287 709 152.226 1205.03 499.533
359 0 42.0747 15.9241 670 155.127 1205.84 500.494
360 0 45.056 17.112 771 152.434 1206.33 499.512
361 0 47.1166 16.491 777 152.014 1206.9 500.727
362 0 47.1337 17.0154 802 154.653 1206.93 499.146
363 0 50.0772 16.5544 829 155.118 1207.17 498.585
364 0 53.0552 16.8881 896 153.674 1206.72 498.768
365 0 53.0784 17.1633 911 157.238 1206.85 497.674
366 1 29.0777 13.9282 405 157.363 1207.18 510.267
367 0 31.0143 15.4767 480 156.742 1206.71 509.725
368 0 33.0469 15.7655 521 156.635 1206.7 509.833
369 0 34.0325 15.2208 518 160.479 1206.1 510.718
370 0 32.0172 15.7103 503 161.511 1205.81 510.29
371 0 36.0924 16.4854 595 158.787 1204.96 508.358
372 0 37.0211 16.4231 608 158.462 1204.3 508.354
373 0 37.0256 16.8262 623 159.337 1203.06 507.49
374 0 36.1439 15.383 556 163.198 1202.59 505.989
375 0 39.0349 15.1147 590 161.68 1201.98 506.542
376 0 40.0251 15.865 635 160.121 1201.5 503.803
377 0 41.1456 14.7525 607 160.542 1201.19 504.165
378 0 43.1148 15.8182 682 156.818 1200.57 503.522
379 0 44.1661 15.7587 696 161.236 1201.95 500.5
380 0 45.0669 16.0428 723 161.925 1202.25 499.423
381 0 46.0273 16.4902 759 162.54 1202.25 498.623
382 0 48.0614 15.0433 723 164.563 1201.94 497.559
383 0 49.1169 16.0026 786 162.828 1201.49 496.67
384 0 52.1137 15.3894 802 164.138 1202.13 495.575
385 0 53.2848 14.9574 797 163.127 1203.38 496.312
386 0 53.0864 15.3146 813 165.934 1204.29 493.71
387 0 58.121 16.9302 984 157.98 1204.79 493.337
388 0 60.1529 15.2279 916 161.37 1205.74 492.456
389 1 31.0506 14.0094 435 158.637 1206.21 505.513
390 0 33.1029 14.9836 496 153.077 1206.47 505.732
391 0 33.0817 14.5095 480 158.654 1207.25 505.385
392 0 34.041 14.7763 503 160.006 1207.39 504.708
393 0 34.0208 15.8432 539 158.239 1207.81 505.564
394 0 36.079 15.3552 554 158.7 1207.77 506.042
395 0 36.0536 15.3383 553 159.014 1206.58 507.655
396 0 39.1272 11.6798 457 179.077 1206.54 534.899
397 0 39.0446 15.239 595 158.859 1206.84 506.558
398 0 41.1813 15.5167 639 157.286 1205.97 507.939
399 0 40.242 15.2329 613 159.909 1205.25 506.747
400 0 42.1317 15.8313 667 159.892 1204.84 504.804
401 0 44.0663 15.7717 695 158.062 1205.49 504.022
402 0 45.1928 15.6883 709 158.052 1204.56 504.12
403 0 47.3214 16.1027 762 156.723 1205.39 503.299
