time division length width area intensity CMx CMy
0 0 32.0696 11.475 368 117.435 1117.35 490.793
1 0 33.1531 12.759 423 120.596 1119.59 490.716
2 0 35.0891 13.651 479 108.042 1118.75 489.885
3 0 35.2573 13.444 474 113.618 1117.58 490.542
4 0 36.1139 15.0358 543 110.987 1117.55 489.429
5 0 37.1929 14.492 539 112.033 1118.24 489.659
6 0 35.3164 14.1011 498 118.251 1118.77 486.775
7 0 39.0266 14.1954 554 116.043 1118.18 486.437
8 0 35.2873 13.4609 475 120.396 1118.81 487.303
9 0 39.1174 13.8046 540 117.522 1118.25 487.144
10 0 38.0908 15.7256 599 111.618 1118.79 488.227
11 0 39.2805 14.8929 585 119.715 1118.35 485.928
12 0 39.1435 13.4633 527 118.751 1117.45 486.894
13 0 40.0815 13.8967 557 120.526 1118.7 486.65
14 0 41.227 14.7234 607 121.175 1117.94 484.934
15 0 43.2964 13.9042 602 119.698 1117.91 485.35
16 0 44.3824 15.2538 677 116.938 1118.68 484.663
17 0 45.12 14.7163 664 116.779 1118.21 484.133
18 0 47.2046 16.4179 775 114.237 1118.19 484.995
19 0 49.3372 17.9581 886 109.054 1118.1 482.975
20 0 50.4436 17.4254 879 110.464 1117.86 483.27
21 0 51.3947 15.4296 793 116.517 1118.47 483.122
22 0 50.264 15.9358 801 117.3 1119.86 482.059
23 0 54.2233 17.2251 934 111.93 1120.61 481.893
24 0 54.1959 15.5547 843 118.828 1120 481.473
25 0 55.4301 16.5253 916 116.437 1119.59 480.364
26 0 55.3514 16.2778 901 118.206 1119.14 480.9
27 0 56.3789 16.4955 930 117.941 1120.91 479.866
28 0 56.3789 16.5133 931 166.021 1121.87 479.751
29 0 59.2732 15.7407 933 119.166 1120.78 477.324
30 0 62.337 17.5177 1092 114.571 1121.82 475.826
31 0 63.3836 15.6034 989 118.084 1122.46 476.291
32 0 67.2492 17.74 1193 112.837 1122.19 475.76
33 0 70.2756 17.844 1254 110.6 1123.09 473.329
34 0 70.2447 17.3679 1220 113.819 1123.4 472.345
35 0 71.233 16.1723 1152 117.661 1123.44 471.701
36 0 72.3032 15.7669 1140 119.793 1123.49 470.025
37 0 77.2423 17.7882 1374 113.995 1123.96 469.674
38 0 78.2406 16.7688 1312 118.194 1123.68 465.644
39 0 79.2569 17.0458 1351 163.669 1123.71 466.063
40 0 84.4742 18.3133 1547 114.343 1123.18 463.473
41 1 42.0311 12.3242 518 119.541 1123.69 485.768
42 0 46.0514 12.3557 569 116.431 1124.48 485.216
43 0 44.0743 10.9815 484 120.335 1124.8 485.087
44 0 48.1793 13.9064 670 115.719 1124.4 484.109
45 0 48.1793 13.9479 672 165.949 1121.41 484.097
46 0 51.1193 14.2608 729 116.8 1125.68 481.42
47 0 52.0677 14.2699 743 117.346 1125.45 481.498
48 0 52.1323 14.7509 769 117.979 1124.96 481.837
49 0 55.2322 15.5344 858 115.11 1124.22 481.576
50 0 58.2366 16.5188 962 111.003 1124 479.574
51 0 60.2256 17.7333 1068 108.319 1122.98 478.133
52 0 62.1939 16.6576 1036 110.764 1124.04 476.596
53 0 62.1939 16.7541 1042 163.673 1125.04 476.622
54 0 66.1435 15.7536 1042 111.325 1124.26 475.191
55 0 64.2714 14.5321 934 115.547 1122.99 473.391
56 0 71.1945 16.6726 1187 110.626 1123.26 473.093
57 0 71.1878 16.1685 1151 112.386 1124.49 471.63
58 0 75.2599 16.5958 1249 110.824 1123.79 470.769
59 0 80.1797 16.2759 1305 111.404 1123.94 468.7
60 0 81.3119 16.2707 1323 110.994 1123.91 464.755
61 0 83.2461 15.9767 1330 111.811 1124.06 464.08
62 0 85.3374 15.468 1320 111.987 1124.48 464.378
63 1 44.0189 10.7454 473 111.264 1124.88 485.372
64 0 47.0773 12.2564 577 108.276 1124.75 484.496
65 0 50.0503 13.4065 671 105.697 1124.58 483.028
66 0 51.0522 12.5362 640 107.698 1124.5 482.08
67 0 51.113 12.4039 634 106.965 1124.94 481.912
68 0 52.0659 14.3088 745 104.616 1125 478.911
69 0 55.1531 15.1578 836 101.67 1125.32 479.94
70 0 59.1196 16.2552 961 102.322 1123.91 476.908
71 0 58.2279 14.5806 849 106.885 1124.33 477.317
72 0 61.2882 12.6941 778 108.999 1123.29 477.338
73 0 67.2926 15.6332 1052 103.021 1122.61 474.88
74 0 67.1792 13.8138 928 106.001 1123.23 475.897
75 0 70.2418 17.0127 1195 101.669 1123.6 472.518
76 0 72.1623 16.4906 1190 102.431 1125.45 472.126
77 0 74.304 14.6829 1091 105.983 1124.75 470.765
78 0 76.4492 14.6764 1122 105.368 1125.41 469.356
79 0 80.1767 15.391 1234 105.632 1124.81 468.887
80 0 79.1769 15.5348 1230 152.806 1122.92 470.391
81 0 83.2386 13.8998 1157 108.646 1125.87 467.692
82 0 85.2324 15.006 1279 108.297 1124.98 465.374
83 0 90.268 15.4872 1398 106.461 1125.6 464.024
84 0 92.4086 14.9986 1386 108.789 1124.63 461.249
85 1 50.0403 11.8704 594 103.912 1126.07 484.352
86 0 53.039 13.8766 736 101.626 1125.7 483.826
87 0 55.0783 11.8014 650 105.191 1126.17 482.997
88 0 55.0487 13.3155 733 103.892 1126.27 481.188
89 0 57.0494 12.9186 737 105.646 1125.77 479.322
90 0 57.0494 13.0238 743 156.538 1124.76 479.196
91 0 60.1538 13.8811 835 104.932 1125.59 476.629
92 0 61.3427 13.7262 842 103.893 1125.37 476.99
93 0 64.3576 14.5903 939 103.539 1125.01 475.276
94 0 68.304 15.3578 1049 102.739 1125.08 473.637
95 0 69.3417 13.9022 964 106.451 1125.29 472.214
96 0 73.2688 15.2589 1118 103.379 1125.54 472.698
97 0 73.2688 15.2043 1114 148.311 1125.52 472.592
98 0 79.2052 16.4257 1301 101.385 1124.87 468.565
99 0 81.1925 16.1468 1311 102.563 1125.72 468.188
100 0 81.1925 16.1345 1310 141.411 1124.71 468.2
101 0 85.2678 14.9763 1277 106.977 1126.44 463.399
102 0 87.4281 15.0981 1320 106.032 1126.16 464.586
103 0 91.1695 16.0799 1466 105.791 1126.03 461.26
104 0 93.2206 15.3507 1431 106.206 1126.36 460.994
105 1 53.0384 12.1421 644 103.503 1127.61 482.86
106 0 51.0813 11.3544 580 105.298 1127.95 484.134
107 0 55.0606 12.5317 690 103.048 1127.77 483.114
108 0 56.1567 12.0734 678 105.55 1127.81 480.246
109 0 57.1311 12.8651 735 101.741 1127.44 480.498
110 0 61.2748 14.6553 898 99.1804 1126.4 479.122
111 0 63.3322 13.4844 854 101.555 1125.81 479.14
112 0 63.2062 12.831 811 103.847 1125.82 476.34
113 0 67.291 13.7165 923 101.895 1125.29 475.778
114 0 67.1111 13.2318 888 103.762 1126.03 476.125
115 0 71.3205 13.881 990 101.975 1123.96 476.304
116 0 73.3698 13.6977 1005 105.018 1124.5 473.126
117 0 76.1887 14.1622 1079 103.751 1124.23 472.695
118 0 78.2603 14.0429 1099 103.646 1123.98 470.991
119 0 78.1933 13.4538 1052 105.615 1123.44 468.953
120 1 40.2515 8.04939 324 102.417 1124.97 491.654
121 0 42.1488 11.9814 505 96.3941 1125.06 489.61
122 0 43.1058 10.0219 432 98.1134 1124.57 490.519
123 0 44.1348 11.1703 493 97.9108 1124.71 488.024
124 0 44.2104 11.581 512 97.8848 1125.18 485.098
125 0 44.2021 11.4927 508 130.535 1126.14 484.974
126 0 44.2021 11.47 507 130.071 1127.13 484.929
127 0 50.0527 11.4879 575 96.6609 1125.93 484.591
128 0 50.1373 12.8447 644 95.9456 1125.82 482.719
129 0 51.3451 12.0946 621 96.6312 1123.28 480.721
130 0 53.2534 13.1635 701 95.6434 1124.16 480.301
131 0 56.1768 12.8345 721 94.4119 1123.7 480.655
132 0 58.3015 13.5331 789 92.8314 1123.92 479.07
133 0 61.2678 14.7712 905 89.621 1124.16 479.164
134 0 59.2554 12.8258 760 132.267 1123.96 476.851
135 0 65.2248 14.289 932 89.2403 1124.42 476.604
136 0 65.2922 12.8193 837 92.4492 1124.55 476.342
137 0 69.389 14.2386 988 89.5577 1124.69 473.497
138 0 70.2081 14.0867 989 91.0142 1124.92 470.693
139 0 72.285 13.7926 997 91.3551 1124.24 472.722
140 0 76.4227 13.7917 1054 91.2533 1124.32 472.512
141 0 79.2143 14.8206 1174 89.661 1124.28 470.583
142 0 78.2616 13.2121 1034 93.2805 1124.61 468.615
143 0 82.3348 13.8459 1140 91.986 1123.12 469.127
144 0 82.202 13.26 1090 93.7321 1123.17 470.579
145 0 86.2118 13.6176 1174 93.6286 1123.37 468.034
146 0 88.3284 14.3895 1271 92.6444 1123.67 465.952
147 0 89.4514 14.8796 1331 92.7693 1124.16 462.874
148 0 94.455 14.4196 1362 92.8341 1123.98 462.338
149 1 49.1833 10.1254 498 93.4297 1124.38 485.823
150 0 50.2493 11.3235 569 92.1529 1124.14 485.056
151 0 53.105 13.6145 723 88.8907 1123.9 482.56
152 0 56.1252 12.7572 716 89.6159 1124.36 482.86
153 0 57.088 11.8239 675 90.9467 1123.95 482.464
154 0 59.1419 13.0364 771 89.7419 1124.23 480.167
155 0 59.2083 11.62 688 92.5145 1123.04 480.23
156 0 63.4739 13.6591 867 90.4914 1122.93 477.491
157 0 64.2655 13.7399 883 92.0385 1122.56 475.735
158 0 66.329 14.3376 951 91.8044 1122.61 474.086
159 0 68.2147 13.2376 903 93.4862 1123.18 475.091
160 0 71.2743 13.7216 978 92.7045 1122.62 472.362
161 0 73.2544 13.5009 989 94.4075 1122.61 471.829
162 0 78.3191 15.2709 1196 91.6547 1123.21 470.525
163 0 79.3391 13.4108 1064 96.0724 1123.57 469.937
164 0 80.4031 13.0592 1050 98.2619 1123.76 466.436
165 1 34.4182 8.04808 277 101.711 1124.26 484.202
166 0 41.3145 9.97229 412 94.3568 1125.56 489.67
167 0 41.1383 11.0116 453 96.0861 1124.34 486.753
168 0 41.1383 10.3796 427 136.684 1123.43 487.18
169 0 48.0591 11.9644 575 93.0104 1127.06 487.212
170 0 49.1015 11.8123 580 93.7914 1126.65 486.424
171 0 49.2538 13.9685 688 91.3866 1123.65 484.664
172 0 51.2422 13.8167 708 91.4167 1123.56 485.871
173 0 51.2628 11.6069 595 94.7815 1123.41 486.173
174 0 54.3563 14.0738 765 91.3085 1123.7 485.033
175 0 53.4328 13.9053 743 93.4347 1123.37 482.563
176 0 55.3069 11.9877 663 96.0724 1123.7 484.351
177 0 57.1224 13.7599 786 93.173 1123.93 481.403
178 0 58.2912 13.484 786 93.9466 1124.25 481.097
179 0 62.1789 15.1338 941 90.2317 1123.42 481.733
180 0 62.3159 13.8809 865 93.1491 1123.29 480.681
181 0 66.2774 13.5642 899 93.6974 1123.1 479.9
182 0 65.3083 13.1071 856 95.75 1122.53 477.189
183 0 70.1434 15.0406 1055 92.1554 1124.36 475.129
184 0 72.2282 15.3818 1111 91.1458 1123.97 474.658
185 0 74.2357 14.2519 1058 93.2401 1123.32 475.079
186 0 78.355 15.5191 1216 92.0428 1122.88 471.706
187 0 80.3012 14.1467 1136 94.0819 1122.8 470.928
188 1 41.0924 9.6855 398 93.6332 1122.64 490.51
189 0 42.2027 9.12264 385 95.6831 1122.42 488.592
190 0 44.2433 10.6457 471 93.6964 1122.14 488.091
191 0 44.0613 11.3705 501 93.3932 1122.52 488.367
192 0 48.3008 12.5878 608 91.6628 1122.55 486.433
193 0 49.2446 14.8239 730 88.2466 1124.2 483.84
194 0 49.2733 12.9482 638 92.663 1123.84 484.669
195 0 51.2188 13.5107 692 92.2153 1124.05 484.63
196 0 52.2779 14.2125 743 95.6232 1123.76 481.66
197 0 53.223 12.908 687 98.0116 1124.12 480.182
198 0 57.5038 12.1035 696 97.375 1124.05 482.441
199 0 59.3644 13.2234 785 96.335 1124.25 479.972
200 0 56.336 12.3189 694 139.452 1124.29 481.285
201 0 61.4602 12.8213 788 98.1675 1125.53 480.372
202 0 64.3622 14.9467 962 95.4979 1124.9 478.659
203 0 65.4393 15.2049 995 96.9447 1124.65 476.066
204 0 66.4866 14.6195 972 100.091 1125.06 477.081
205 0 70.3127 14.8337 1043 99.0499 1125.12 477.12
206 0 69.4572 13.6631 949 103.889 1125.25 476.185
207 0 72.2326 13.1658 951 105.283 1125.23 475.098
208 0 75.3202 14.6442 1103 102.569 1124.46 475.337
209 0 78.2872 13.5144 1058 105.941 1124.74 473.122
210 0 79.3345 14.2939 1134 104.955 1124.73 471.827
211 0 79.3345 14.3317 1137 146.529 1124.69 471.859
212 1 41.2202 9.46139 390 103.618 1124.72 493.972
213 0 44.0863 11.9992 529 98.913 1123.88 492.983
214 0 47.1422 11.7941 556 101.344 1123.69 490.273
215 0 52.1018 13.8959 724 94.8122 1124.1 489.279
216 0 50.2414 11.0666 556 101.7 1124.22 489.647
217 0 52.1839 13.759 718 98.2507 1124.07 486.9
218 0 53.3586 12.8752 687 99.9854 1123.74 487.259
219 0 51.0879 11.627 594 105.311 1123.8 485.968
220 0 56.0679 13.3588 749 101.259 1124.76 485.374
221 0 57.0735 14.5777 832 99.9736 1124.47 483.448
222 0 58.0626 13.3132 773 101.765 1124.57 483.906
223 0 61.0757 13.6879 836 100.957 1124.48 482.175
224 0 63.1305 16.2996 1029 97.7328 1123.8 480.27
225 0 63.2077 13.9223 880 103.534 1124.26 477.86
226 0 66.069 14.1973 938 102.674 1124.54 479.948
227 0 67.1073 14.976 1005 104.342 1124.48 475.815
228 0 68.0846 13.9679 951 106.603 1124.61 476.922
229 0 68.0846 13.9973 953 158.354 1125.6 477.052
230 0 73.1162 14.8804 1088 107.229 1125.27 474.197
231 0 75.1017 14.5003 1089 108.675 1125.41 471.804
232 1 39.0716 12.2084 477 103.876 1126.39 491.501
233 0 41.074 11.7349 482 105.876 1126.38 490.384
234 0 41.1688 12.971 534 103.296 1125.53 491.032
235 0 41.4652 13.4088 556 104.829 1126.36 489.624
236 0 42.332 13.0634 553 105.363 1125.92 489.523
237 0 43.3748 12.5879 546 106.509 1126.35 490.74
238 0 45.3265 13.6344 618 104.618 1126.17 489.743
239 0 45.5807 13.4048 611 107.331 1126.2 490.381
240 0 46.5765 12.5815 586 109.486 1126.35 490.384
241 0 46.7364 11.49 537 112.143 1125.55 490.886
242 0 50.6209 13.927 705 107.882 1124.71 488.294
243 0 51.5252 11.8777 612 111.379 1124.37 487.774
244 0 53.606 12.3867 664 110.381 1124.59 487.958
245 0 54.5415 10.7808 588 111.476 1124.91 487.862
246 0 56.6482 12.2158 692 110.746 1124.63 485.118
247 0 58.4332 12.8694 752 110.508 1124.2 484.453
248 0 59.9512 12.8938 773 110.73 1124.15 484.805
249 0 61.5181 13.752 846 111.281 1122.93 482.779
250 0 65.3967 14.3585 939 109.804 1123.41 479.407
251 0 67.4581 13.0451 880 111.201 1122.92 475.768
252 0 72.4721 13.6742 991 110.318 1122.56 476.202
253 0 73.5042 13.4958 992 112.94 1122.53 474.018
254 0 75.5171 14.1822 1071 111.773 1122.33 473.335
255 1 41.1444 11.7634 484 110.936 1123.23 488.748
256 0 44.4127 12.4964 555 108.097 1123.82 488.441
257 0 46.4164 12.6033 585 107.569 1123.78 488.193
258 0 46.2744 12.2746 568 107.611 1123.83 489.16
259 0 48.1135 13.2187 636 106.994 1124.06 487.19
260 0 50.1739 13.234 664 108.259 1124.86 485.575
261 0 51.1046 13.9126 711 108.111 1124.76 483.942
262 0 52.068 13.2327 689 109.617 1124.78 485.103
263 0 54.369 13.7946 750 109.316 1124.59 483.121
264 0 56.4693 14.0253 792 109.49 1124.98 482.125
265 0 57.5945 14.168 816 109.287 1125.31 482.034
266 0 60.4181 12.8107 774 111.921 1125.25 481.244
267 0 61.4069 13.6793 840 111.101 1125.87 480.77
268 0 63.2611 14.29 904 111.137 1126.34 480.81
269 0 64.4868 14.5766 940 112.299 1126.37 479.072
270 0 67.3631 14.0433 946 112.715 1125.91 479.017
271 0 71.4543 14.9326 1067 110.106 1125.59 478.903
272 0 73.2329 12.9996 952 115.069 1125.54 477.992
273 1 41.073 11.7839 484 110.88 1126.66 494.539
274 0 40.0497 9.83777 394 118.363 1126.27 492.591
275 0 42.1459 12.7177 536 110.907 1126.4 493.418
276 0 46.0473 13.3341 614 109.809 1125.35 493.484
277 0 47.0532 12.6027 593 112.546 1125.39 491.698
278 0 49.1393 14.0621 691 108.553 1124.86 490.472
279 0 50.1099 13.2908 666 110.326 1124.58 489.911
280 0 50.3123 12.482 628 113.092 1123.57 490.217
281 0 54.2277 15.1768 823 106.713 1123.51 489.492
282 0 53.2974 13.7342 732 112.148 1123.03 486.615
283 0 54.2172 13.4828 731 113.761 1122.55 485.586
284 0 56.2477 13.8495 779 114.313 1121.86 484.095
285 0 60.4666 14.355 868 112.215 1122.49 481.582
286 0 64.2382 14.9755 962 109.625 1122.01 480.879
287 0 64.2171 14.3264 920 111.988 1122.51 479.487
288 0 63.2826 13.653 864 114.891 1121.75 478.127
289 0 68.2576 13.2146 902 115.164 1122.15 477.007
290 0 71.1928 14.6503 1043 110.918 1122.7 476.752
291 0 75.2985 14.6749 1105 110.782 1122.38 474.556
292 0 77.2004 14.8186 1144 111.156 1122.81 472.864
293 0 77.3925 13.8127 1069 115.733 1123.55 470.226
294 0 81.4924 14.6885 1197 111.506 1124.33 471.153
295 0 83.3888 14.5583 1214 113.433 1125.13 468.93
296 0 85.3682 13.2485 1131 116.907 1124.32 466.26
297 0 88.2603 14.0947 1244 115.218 1124.98 466.21
298 0 92.6405 14.227 1318 114.68 1125.92 463.507
299 0 97.3907 14.0979 1373 114.37 1125.96 462.706
300 1 53.1547 10.159 540 112.269 1126.96 486.224
301 0 54.0886 11.5181 623 109.44 1127.37 485.668
302 0 55.1474 10.7893 595 110.842 1127.28 486.235
303 0 57.141 12.9679 741 108.819 1127.16 483.352
304 0 60.1502 12.1197 729 109.391 1126.77 485.481
305 0 62.4261 12.9914 811 103.439 1126.26 483.884
306 0 63.3574 14.1893 899 102.556 1125.46 482.952
307 0 66.3843 13.693 909 106.223 1125.34 481.804
308 0 69.3493 15.357 1065 102.821 1124.71 480.588
309 0 70.3444 13.7893 970 105.851 1124.6 479.006
310 0 72.2346 14.4806 1046 104.428 1124.35 477.842
311 1 38.0559 10.3532 394 104.261 1125.29 495.66
312 0 39.0766 11.1064 434 103.412 1124.97 495.083
313 0 39.0766 11.132 435 135.972 1125.99 495.108
314 0 42.0313 10.3018 433 101.062 1124.37 495.455
315 0 44.0951 11.9968 529 100.308 1123.77 491.043
316 0 44.1746 13.3108 588 98.9762 1123.16 489.787
317 0 46.1596 13.6916 632 99.2152 1123.33 488.155
318 0 47.0511 12.242 576 102.238 1122.33 487.005
319 0 49.1244 13.4964 663 99.7587 1122.58 485.959
320 0 48.1495 12.7935 616 102.221 1122.56 484.323
321 0 49.1996 13.3538 657 101.419 1122.64 484.352
322 0 52.1708 13.8583 723 99.2863 1122.48 483.595
323 0 53.1048 13.4075 712 100.16 1123.55 483.25
324 0 57.0773 15.8382 904 96.1737 1123.03 481.842
325 0 57.1259 13.0239 744 102.675 1124.11 480.37
326 0 57.1185 13.6208 778 101.789 1124.93 480.085
327 0 63.1698 14.9438 944 97.7892 1125.11 480.044
328 0 63.1029 15.4985 978 99.2536 1125.65 477.363
329 0 65.1456 13.4775 878 101.151 1126.64 478.277
330 0 67.1472 14.6693 985 99.7421 1126.55 476.66
331 0 70.1785 14.3919 1010 101.131 1127 474.684
332 0 73.0717 15.6832 1146 98.6318 1126.77 475.951
333 0 77.2287 15.6289 1207 97.6032 1126.69 477.24
334 0 77.1931 13.965 1078 102.365 1125.97 474.948
335 0 81.1647 15.8197 1284 98.9385 1126.02 472.431
336 0 84.3388 15.0346 1268 101.122 1125.43 472.21
337 1 44.1239 12.7369 562 100.441 1124.71 492.552
338 0 46.1748 11.9979 554 98.7816 1124.94 494.787
339 0 46.1901 12.6218 583 100.568 1124.28 493.23
340 0 47.4103 12.4024 588 101.512 1123.12 491.054
341 0 49.3767 14.0349 693 99.4185 1123.69 489.564
342 0 50.2648 13.8467 696 99.5359 1123.76 489.138
343 0 49.2667 13.0514 643 102.263 1122.97 488.89
344 0 51.1394 13.9423 713 99.6311 1122.12 488.229
345 0 54.1771 14.1757 768 99.5846 1121.66 486.861
346 0 55.2932 12.8949 713 103.178 1121.82 485.098
347 0 58.25 16 932 96.1663 1121.77 483.857
348 0 57.249 12.2448 701 104.432 1120.96 484.919
349 0 61.2224 14.0145 858 101.48 1121.44 481.69
350 0 63.2035 14.6036 923 100.377 1121.3 479.823
351 0 65.2912 15.1782 991 101.145 1121.8 476.163
352 0 67.2134 14.9375 1004 101.357 1122.37 475.686
353 0 67.299 13.0611 879 105.603 1122.87 474.851
354 0 70.2243 13.5423 951 104.539 1123.18 474.724
355 0 75.2685 15.6241 1176 101.873 1124.45 471.702
356 0 76.2316 13.6295 1039 106.284 1124.78 471.286
357 0 79.1884 14.1056 1117 104.45 1125.89 469.764
358 1 44.0818 10.8662 479 100.898 1127.2 489.217
359 0 45.0438 12.1659 548 101.432 1126.93 487.845
360 0 46.0673 12.0476 555 101.488 1127.86 487.883
361 0 50.0794 13.3987 671 99.9434 1127.66 486.593
362 0 49.0312 12.3799 607 103.974 1128.56 486.962
363 0 52.0161 11.9002 619 105.848 1128.31 485.919
364 0 53.084 12.8099 680 104.897 1129.2 484.644
365 0 56.0873 13.3185 747 102.91 1129.38 485.918
366 0 57.3411 14.0039 803 103.394 1129.12 484.706
367 0 59.1997 13.8852 822 103.231 1128.03 485.18
368 0 63.3471 14.681 930 101.887 1127.76 484.335
369 0 65.2961 14.1816 926 104.416 1126.8 482.814
370 1 33.2128 10.7489 357 103.58 1125.84 498.112
371 0 36.1679 10.4236 377 103.936 1125.27 497.836
372 0 38.4661 10.7887 415 102.923 1124.06 498.33
373 0 38.5739 12.1326 468 103.744 1124.17 495.524
374 0 40.1827 13.0653 525 101.865 1123.56 493.676
375 0 41.3914 12.563 520 104.273 1122.57 494.262
376 0 43.3621 13.6986 594 100.737 1122.25 491.722
377 0 44.4381 13.8395 615 101.309 1122.03 490.605
378 0 46.4325 13.9988 650 102.363 1121.07 490.272
379 0 48.2173 13.8539 668 103 1122.17 488.684
380 0 49.4508 14.0544 695 106.27 1121.71 488.528
381 0 51.3018 14.9897 769 104.641 1122.42 486.257
382 0 52.3521 14.5935 764 106.038 1120.99 484.042
383 0 53.3811 13.8626 740 108.426 1121.69 483.801
384 0 56.3064 15.6288 880 104.811 1123.01 481.936
385 0 56.1988 14.7512 829 106.516 1123.86 482.455
386 0 60.3267 15.068 909 104.84 1123.87 480.602
387 0 62.4276 14.8492 927 104.17 1125.07 481.002
388 0 61.2868 14.1792 869 105.857 1126.55 480.32
389 0 63.3577 13.2423 839 107.257 1127.18 480.491
390 0 68.3061 14.0983 963 103.381 1127.52 478.262
391 1 35.1039 11.0529 388 103.631 1129.24 494.229
392 0 35.1039 11.1099 390 160.031 1129.21 494.249
393 0 40.0624 13.3042 533 98.1764 1129.07 494.805
394 0 39.2136 12.0366 472 102.246 1128.56 494.644
395 0 40.1751 13.6154 547 97.0768 1128.28 495
396 0 42.1765 14.6764 619 96.7157 1128.64 494.523
397 0 44.201 13.778 609 97.6897 1127.85 495.195
398 0 46.1387 15.5618 718 95.4763 1127.28 495.377
399 0 46.1236 13.9408 643 99.8974 1127.37 494.093
400 0 47.1783 14.1167 666 99.8183 1126.83 492.857
401 0 49.26 14.6569 722 98.8906 1127.49 490.666
402 0 52.1389 14.845 774 99.5103 1126.73 490.528
403 0 54.3079 16.1303 876 97.6518 1125.64 489.32
