time division length width area intensity CMx CMy
0 0 41.1943 14.2738 588 122.791 360.071 484.964
1 0 44.3508 13.9344 618 121.922 360.485 487.366
2 0 42.385 13.8493 587 125.169 360.968 485.906
3 0 42.317 13.7533 582 126.701 361.186 486.146
4 0 44.3227 14.1011 625 125.875 361.339 484.76
5 0 49.0514 15.6163 766 118.648 362.499 481.956
6 0 48.0884 14.9932 721 122.933 362.846 481.707
7 0 50.0945 15.9898 801 119.486 361.134 480.713
8 0 49.2552 15.7547 776 120.594 362.591 480.812
9 0 51.078 14.5072 741 124.595 362.964 481.063
10 0 51.1679 14.6772 751 123.47 362.25 479.748
11 0 51.203 16.1514 827 123.482 361.659 478.57
12 0 54.0881 15.6042 844 122.935 360.934 478.045
13 0 54.3254 15.9594 867 121.557 361.948 478.975
14 0 57.4382 15.669 900 123.126 361.072 477.873
15 0 57.3583 15.5514 892 124.29 361.313 478.386
16 0 59.1448 15.7241 930 122.755 362.324 476.434
17 0 61.157 16.5803 1014 119.163 362.568 476.727
18 0 63.1083 16.3211 1030 120.349 361.53 476.919
19 0 63.1508 15.7718 996 123.262 361.427 475.957
20 0 65.3128 15.02 981 124.465 361.063 475.638
21 0 67.1543 16.41 1102 122.566 361.702 473.838
22 0 71.1042 16.5954 1180 120.783 363.248 471.749
23 0 72.1025 15.8386 1142 123.385 363.915 471.554
24 1 38.0299 11.9906 456 130.044 362.993 488.039
25 0 41.1393 12.956 533 126.936 363.91 486.94
26 0 42.0617 11.816 497 129.036 363.219 487.398
27 0 45.065 10.9841 495 129.285 364.848 487.226
28 0 45.1099 12.2368 552 128.701 365.783 485.699
29 0 47.1378 13.8742 654 124.159 364.887 473.31
30 0 48.0713 14.2497 685 123.831 365.965 474.693
31 0 51.2431 14.0312 719 121.451 365.879 474.865
32 0 52.2708 16.4336 859 116.809 365.454 476.312
33 0 54.289 15.3807 835 118.388 366.601 479.034
34 0 55.2301 15.2453 842 119.476 366.546 478.325
35 0 56.2559 16.1227 907 117.789 366.519 479.269
36 0 59.1265 15.7797 933 118.064 366.432 478.416
37 0 57.2378 14.1515 810 122.298 366.832 477.57
38 0 61.1523 15.0935 923 117.739 366.438 476.246
39 0 61.1464 15.2912 935 163.264 366.42 476.209
40 0 66.2962 15.476 1026 114.823 366.076 475.146
41 0 68.3229 15.8512 1083 113.961 366.097 474.147
42 0 72.1916 16.4146 1185 112.043 366.755 472.915
43 0 73.207 16.9519 1241 112.625 367.201 471.415
44 0 76.2485 18.2954 1395 109.595 366.656 469.331
45 0 80.1743 17.4744 1401 109.369 367.904 471.37
46 0 79.2071 16.1097 1276 114.601 368.503 469.92
47 0 86.071 16.3586 1408 111.94 368.496 468.147
48 0 86.1555 15.7042 1353 115.054 368.633 466.741
49 1 44.0981 11.7919 520 119.363 368.06 486.727
50 0 47.122 11.205 528 117.619 368.045 486.176
51 0 48.0666 12.025 578 115.863 367.014 485.96
52 0 50.1317 13.1454 659 112.073 368.103 485.847
53 0 50.0302 13.5918 680 112.775 367.804 483.09
54 0 51.0741 12.8441 656 113.061 368.03 483.008
55 0 54.1492 15.1433 820 108.287 365.412 481.888
56 0 56.1991 14.4308 811 109.74 365.491 481.904
57 0 56.1891 14.113 793 112.081 366.892 479.912
58 0 60.3152 15.6345 943 108.883 366.181 477.841
59 0 61.1377 15.4079 942 109.925 366.168 477.031
60 0 62.1974 15.6759 975 109.725 366.122 475.219
61 0 64.1426 16.0424 1029 109.203 366.153 475.031
62 0 69.098 15.4274 1066 109.547 366.692 473.771
63 0 71.1642 16.9608 1207 107.812 366.743 473.787
64 0 72.1284 15.417 1112 112.497 367.635 472.531
65 0 75.1351 15.6784 1178 112.303 367.463 469.974
66 0 79.2859 16.1819 1283 109.545 367.584 469.045
67 0 78.3323 14.4896 1135 114.881 367.953 467.888
68 0 83.0765 15.4677 1285 111.391 367.862 465.368
69 0 87.3905 16.4778 1440 108.587 368.162 465.923
70 0 89.1536 15.8042 1409 112.014 366.532 462.327
71 0 92.2919 15.7435 1453 112.064 367.651 460.333
72 0 95.1772 15.2032 1447 113.114 366.559 459.012
73 0 99.2038 17.1969 1706 109.064 365.875 455.583
74 0 102.13 15.539 1587 112.378 366.448 456.379
75 0 106.182 15.4169 1637 112.883 366.939 453.487
76 0 109.355 16.3596 1789 110.41 368.565 454.927
77 0 114.295 17.2536 1972 108.363 367.796 451.957
78 0 117.195 16.1612 1894 110.182 368.285 446.913
79 0 121.245 16.4543 1995 111.362 367.685 446.019
80 0 125.384 17.1234 2147 109.362 368.707 447.663
81 0 131.188 17.0977 2243 109.358 368.885 446.774
82 1 70.1272 12.0067 842 115.582 368.846 473.116
83 0 74.1796 13.1033 972 112.863 369.327 471.648
84 0 79.1911 13.8021 1093 111.689 368.315 469.532
85 0 82.2495 14.7964 1217 108.797 368.975 468.279
86 0 83.1441 14.9259 1241 111.074 368.501 465.879
87 0 85.1456 14.1287 1203 112.983 368.823 464.594
88 0 90.1557 15.6396 1410 109.218 368.755 461.753
89 0 93.2939 14.9206 1392 110.099 368.162 460.624
90 0 97.2243 14.2043 1381 111.516 368.563 458.248
91 0 100.174 14.6245 1465 110.154 368.614 457.085
92 0 103.238 14.9751 1546 109.698 368.897 452.682
93 0 108.449 15.0946 1637 107.032 368.56 450.447
94 0 113.343 15.6868 1778 107.208 368.281 448.108
95 1 60.2874 11.7769 710 104.665 369.562 478.706
96 0 63.213 12.7347 805 105.855 368.999 476.642
97 0 63.2749 13.8602 877 103.71 368.68 474.185
98 0 64.1021 13.9933 897 103.138 368.62 473.499
99 0 67.1539 13.8637 931 102.954 369.715 471.871
100 0 67.1322 13.8533 930 145.238 371.681 471.763
101 0 72.1262 13.1575 949 104.458 370.549 470.863
102 0 76.2227 14.2215 1084 101.644 369.888 468.121
103 0 77.0725 14.3371 1105 102.262 369.868 468.479
104 0 79.1557 13.4924 1068 104.426 370.279 463.994
105 0 81.1935 13.708 1113 104.22 370.162 465.073
106 0 86.132 15.0235 1294 102.837 370.442 463.482
107 0 86.1337 13.479 1161 106.539 370.443 463.212
108 0 89.2171 13.7193 1224 106.835 370.839 461.666
109 0 94.1126 15.0246 1414 103.207 370.55 460.156
110 1 52.1806 11.4794 599 101.726 371.394 483.058
111 0 52.0846 12.7101 662 101.039 371.024 482.202
112 0 51.1203 11.111 568 103.611 370.928 481.155
113 0 54.0981 11.3498 614 101.993 370.151 481.107
114 0 56.2717 13.6481 768 101.832 369.091 479.681
115 0 60.3932 14.8196 895 99.5028 367.653 478.363
116 0 62.1044 14.2663 886 101.306 369.016 477.716
117 0 65.1624 14.2874 931 101.264 369.241 476.622
118 0 64.1248 12.1326 778 105.958 368.765 476.452
119 0 68.2637 15.4987 1058 100.321 367.06 474.217
120 0 70.3247 14.4331 1015 102.921 367.062 473.301
121 0 72.5699 13.8763 1007 104.665 367.261 471.479
122 0 75.2165 15.1563 1140 101.827 366.947 470.675
123 0 76.2521 14.8061 1129 103.698 367.309 468.235
124 0 79.4522 14.6629 1165 103.615 367.704 469.094
125 0 82.3122 14.3357 1180 105.181 367.647 467.87
126 0 84.2603 13.577 1144 107.603 367.912 463.983
127 0 85.1774 14.6753 1250 106.651 367.581 462.666
128 1 47.5012 11.7681 559 103.571 367.494 484.284
129 0 47.4021 11.1177 527 105.476 367.541 483.159
130 0 49.4932 11.1328 551 105.492 369.013 481.966
131 0 51.5591 12.1802 628 103.166 368.682 479.554
132 0 52.5151 12.8725 676 102.136 368.297 479.987
133 0 51.2819 11.895 610 105.098 367.236 480.726
134 0 54.3497 14.7931 804 99.1928 367.976 478.748
135 0 56.6776 13.8679 786 100.603 367.467 477.931
136 0 59.3732 15.8152 939 96.5687 368.295 479.419
137 0 60.4984 13.1904 798 101.846 368.237 478.861
138 0 63.5076 14.0298 891 100.587 368.567 477.024
139 0 64.9101 14.6973 954 100.031 368.078 478.156
140 0 66.3819 14.6124 970 100.818 368.207 477.055
141 0 66.2886 12.3551 819 105.426 368.012 477.275
142 0 68.5106 14.2022 973 104.034 368.41 473.774
143 0 72.7388 14.8751 1082 100.87 366.781 474.567
144 0 75.6903 16.3033 1234 98.8323 366.506 473.332
145 0 77.6877 14.3008 1111 103.257 366.815 472.081
146 0 79.8127 15.8621 1266 100.63 367.085 470.928
147 0 80.7319 13.9969 1130 104.827 367.64 470.06
148 0 82.572 15.4047 1272 102.034 367.427 470.744
149 0 84.6928 14.4522 1224 103.605 367.052 470.015
150 0 89.5888 15.7721 1413 101.805 366.675 465.236
151 0 88.4883 14.0131 1240 105.85 366.006 463.325
152 0 92.6905 15.5464 1441 103.288 366.572 462.39
153 0 93.7937 14.2653 1338 105.36 366.599 460.12
154 0 98.5021 14.4464 1423 104.435 367.574 457.352
155 0 100.43 14.6967 1476 104.675 366.729 452.788
156 0 103.538 14.6902 1521 103.312 367.032 455.623
157 0 105.472 13.5202 1426 106.114 366.868 452.186
158 0 111.42 13.678 1524 105.072 366.965 448.846
159 0 116.502 16.2658 1895 100.002 367.168 447.122
160 0 116.318 14.5635 1694 102.056 366.577 446.075
161 1 53.3841 11.258 601 98.5058 367.243 477.233
162 0 54.1585 9.89688 536 100.295 367.136 474.782
163 0 57.1197 10.4692 598 99.3729 368.383 473.998
164 0 62.1958 11.303 703 95.9104 368.908 475.363
165 0 63.1994 13.2438 837 94.1565 368.484 472.89
166 0 67.1827 12.3544 830 94.2687 369.051 472.263
167 0 67.346 13.4678 907 94.8842 367.841 470.331
168 0 69.2898 12.8446 890 96.1427 368.836 469.884
169 0 69.1336 12.0057 830 98.4325 369.28 468.447
170 0 75.1494 13.3068 1000 95.129 369.11 467.228
171 0 77.1709 14.7724 1140 92.7298 368.143 468.532
172 0 77.2544 13.1514 1016 96.5197 367.861 465.653
173 0 82.5948 14.6377 1209 94.3565 367.572 465.954
174 0 85.4054 14.0038 1196 96.7483 367.602 464.906
175 0 87.4161 13.1669 1151 98.669 367.416 462.881
176 0 90.443 12.9916 1175 99.8945 367.786 463.531
177 0 92.4018 13.8201 1277 98.9233 368.184 463.348
178 0 95.5278 13.6086 1300 100.816 368.276 458.988
179 0 97.3714 13.9569 1359 101.641 367.453 456.606
180 0 102.228 15.9546 1631 97.5555 367.67 460.649
181 0 101.273 14.0511 1423 104.402 367.238 457.514
182 0 107.393 15.2244 1635 102.118 366.726 457.45
183 0 106.399 14.6711 1561 106.177 366.981 454.183
184 0 110.28 14.8349 1636 105.463 366.746 454.417
185 1 43.1621 11.0514 477 99.8008 368.153 488.549
186 0 44.1261 10.5606 466 102.393 367.73 487.429
187 0 47.0437 12.3502 581 98.4785 367.642 488.317
188 0 47.065 11.1973 527 103.628 367.112 485.049
189 0 47.0695 12.5771 592 102.61 365.659 485.076
190 0 50.1771 14.7478 740 97.3797 364.77 484.973
191 0 51.1893 14.5148 743 96.9556 364.719 486.214
192 0 50.185 12.8524 645 104.085 365.243 484.212
193 0 52.0836 13.4783 702 102.124 366.553 484.365
194 0 51.1155 11.8946 608 108.656 367.012 481.447
195 0 52.1309 13.3894 698 106.39 367.182 482.132
196 0 52.0503 13.2948 692 108.238 367.347 481.172
197 0 53.0574 13.2498 703 108.767 367.789 482.168
198 0 52.0415 12.5092 651 111.647 367.409 482.513
199 0 52.0772 13.3456 695 111.578 367.39 480.909
200 0 55.0795 14.1977 782 109.077 367.62 481.409
201 0 54.1428 13.9261 754 110.967 368.407 481
202 0 55.054 13.6775 753 110.509 367.625 482.466
203 0 56.1041 13.4571 755 110.864 367.759 483.352
204 0 54.086 13.9223 753 113.012 368.126 482.543
205 0 55.0709 13.6188 750 114.091 368.221 482.651
206 0 57.0442 14.9358 852 110.797 368.38 482.33
207 0 56.136 14.3046 803 108.625 368.403 482.996
208 0 56.1268 13.6477 766 113.794 367.479 484.394
209 0 57.0391 14.1307 806 112.713 367.739 485.211
210 0 58.0948 14.5968 848 111.375 367.657 485.142
211 0 57.0406 13.0609 745 116.319 367.028 484.322
212 0 55.0823 13.8701 764 115.106 366.8 483.988
213 0 57.0499 14.5837 832 112.719 365.933 483.346
214 0 59.0913 14.7061 869 110.389 365.643 483.024
