time division length width area intensity CMx CMy
0 0 28.023 11.1694 313 121.939 1117.61 490.01
1 0 30.0182 12.4924 375 118.2 1117.17 489.744
2 0 29.0177 11.7514 341 120.405 1117.96 489.88
3 0 30.0219 11.7914 354 153.232 1117.96 490.192
4 0 31.0239 11.7329 364 117.937 1118.06 489.967
5 0 33.0692 14.9384 494 107.715 1116.71 489.257
6 0 30.2631 12.9531 392 116.73 1116.97 488.416
7 0 32.2574 13.4233 433 115.037 1116.32 487.559
8 0 33.1886 13.1973 438 115.523 1116.63 488.374
9 0 32.2088 13.4435 433 117.755 1116.84 487.058
10 0 35.069 13.8869 487 113.435 1116.29 485.468
11 0 36.1076 13.4598 486 115.01 1116.07 486.582
12 0 36.0642 14.7792 533 112.383 1117.91 486.308
13 0 36.0902 14.4637 522 112.527 1117.66 486.034
14 0 34.2573 13.5445 464 119.95 1117.99 482.886
15 0 37.3189 14.0947 526 115.454 1117.62 483.766
16 0 38.2868 13.9474 534 115.757 1118.37 483.09
17 0 39.2563 14.7747 580 114.416 1117.56 483.1
18 0 40.345 14.1529 571 116.357 1117.5 483.408
19 0 39.1773 15.3916 603 116.481 1117.71 482.257
20 0 41.1273 13.9567 574 119.667 1117.25 481.714
21 0 42.2565 13.5364 572 121.21 1117.71 481.311
22 0 45.1897 15.623 706 115.302 1118.28 480.67
23 0 45.1437 15.5282 701 114.638 1119.1 481.213
24 0 45.1057 14.6545 661 119.154 1119.04 480.599
25 0 47.1161 15.8757 748 116.35 1119.21 478.501
26 0 49.1052 15.5381 763 116.126 1121.35 479.649
27 0 50.1304 14.7415 739 117.563 1121.62 479.982
28 0 52.135 16.1504 842 114.008 1121.37 478.884
29 0 53.1032 14.9143 792 117.407 1120.58 477.071
30 0 53.1032 14.8767 790 147.757 1118.56 477.029
31 0 56.0951 16.7751 941 111.67 1121.47 476.372
32 0 58.0994 15.5767 905 113.878 1121.84 475.581
33 0 63.0469 18.3673 1158 104.436 1122.43 474.407
34 0 64.0861 16.8523 1080 109.574 1122.2 471.233
35 0 64.097 15.617 1001 112.999 1123.31 471.924
36 0 67.1116 16.8525 1131 109.894 1121.82 469.856
37 0 70.1252 17.0267 1194 108.932 1121.97 468.873
38 0 72.0857 16.4665 1187 109.615 1121.73 468.116
39 1 34.0069 11.2624 383 116.909 1121.14 486.115
40 0 38.0104 12.0756 459 113.662 1122.63 486.12
41 0 39.0269 12.2223 477 110.614 1122.23 486.377
42 0 40.0531 13.532 542 109.742 1123.63 485.039
43 0 41.1211 13.5453 557 108.553 1123.77 485.679
44 0 42.0567 13.9098 585 109.711 1124.09 483.256
45 0 43.0944 13.6677 589 110.056 1123.31 483.16
46 0 44.0585 13.8225 609 110.274 1123.46 483.493
47 0 46.0821 13.8232 637 109.185 1123.81 483.523
48 0 47.0794 14.9322 703 108.673 1123.73 481.838
49 0 50.0408 15.1476 758 107.797 1122.53 480.487
50 0 52.0281 16.1451 840 103.735 1123.84 479.615
51 0 54.0787 16.0137 866 104.371 1124.08 479.833
52 0 54.0894 14.4576 782 107.93 1123.73 479.396
53 0 58.1021 15.4383 897 105.09 1123.63 478.126
54 0 57.0943 14.5374 830 108.463 1123.09 478.461
55 0 59.0752 14.6085 863 109.628 1123.56 476.239
56 0 61.0675 15.4583 944 108.988 1123.37 475.635
57 0 66.0912 17.4456 1153 103.467 1124.32 474.652
58 0 66.0282 16.9019 1116 107.763 1123.8 471.9
59 0 69.0732 16.678 1152 108.658 1124.41 471.911
60 0 72.1012 17.5586 1266 106.383 1124.57 471.029
61 0 72.1012 17.6003 1269 158.681 1125.58 471.076
62 0 75.0604 16.6666 1251 110.047 1125.4 468.594
63 0 78.0689 17.1131 1336 110.781 1125.81 466.295
64 0 81.054 19.0614 1545 106.123 1125.18 468.909
65 0 83.0843 17.5966 1462 109.907 1125.18 465.627
66 0 85.1124 16.8601 1435 110.967 1125.4 463.534
67 0 88.1206 16.398 1445 111.351 1126.48 463.766
68 0 90.3061 15.7686 1424 112.499 1125.98 460.707
69 0 91.0799 16.3153 1486 111.957 1126.47 459.922
70 0 95.1393 17.2694 1643 112.906 1125.31 455.705
71 0 95.1393 17.1853 1635 164.755 1124.29 455.659
72 0 101.439 17.1631 1741 114.229 1124.47 451.676
73 0 105.252 18.0043 1895 113.108 1125.19 450.684
74 0 109.328 17.4247 1905 113.871 1125.63 451.056
75 0 112.201 17.4151 1954 114.549 1125.65 449.171
76 0 117.295 18.2701 2143 112.312 1125.03 446.401
77 0 116.296 17.5242 2038 161.583 1125 445.296
78 0 126.192 17.5367 2213 113.145 1125.21 439.892
79 0 130.265 16.4127 2138 117.077 1125.78 438.094
80 1 72.211 12.4635 900 118.306 1124.99 469.056
81 0 74.0936 13.4559 997 115.78 1124.82 469.102
82 0 75.1704 13.5825 1021 116.348 1124.4 468.233
83 0 79.2108 16.4245 1301 111.014 1125.37 465.663
84 0 82.1714 14.7983 1216 112.828 1126.29 465.163
85 0 87.1157 15.5885 1358 110.984 1126.27 464.761
86 0 86.0309 14.8202 1275 115.785 1125.55 459.934
87 0 88.1124 14.822 1306 116.909 1125.77 457.139
88 1 49.2319 12.3497 608 114.143 1125.48 478.918
89 0 50.018 12.2556 613 112.295 1124.96 479.834
90 0 52.2622 13.4897 705 112.431 1124.76 476.926
91 0 56.1589 14.4412 811 109.237 1124.91 476.342
92 0 57.1834 14.2524 815 110.247 1125.43 474.812
93 0 58.2554 14.4021 839 111.617 1125.13 473.204
94 0 61.0662 16.5394 1010 105.775 1126.8 472.807
95 0 57.1379 12.9861 742 115.016 1126.59 473
96 0 55.0848 13.0708 720 115.282 1125.37 475.317
97 0 58.101 13.9757 812 110.686 1125.35 475.401
98 0 56.1896 13.3477 750 109.441 1126.41 475.499
99 0 57.109 13.6406 779 106.906 1125.75 475.63
100 0 55.0667 13.2385 729 104.579 1125.13 476.929
101 0 56.2845 12.7566 718 105.409 1126.59 476.535
102 0 56.0748 13.7317 770 103.656 1125.29 475.621
103 0 55.1405 13.112 723 104.505 1125.75 475.264
104 0 55.1246 14.0046 772 101.299 1125.75 476.165
105 0 55.1762 14.6803 810 99.5963 1126.06 477.453
106 0 54.2242 11.7291 636 104.824 1126.39 477.48
107 0 55.1259 13.6415 752 100.919 1126.42 476.338
108 0 53.212 12.6851 675 102.63 1126.61 476.815
109 0 54.136 13.4661 729 99.5706 1126.4 477.763
110 0 54.184 14.3031 775 98.5794 1125.98 475.425
111 0 54.086 13.8668 750 99.868 1126.3 476.424
112 0 54.1169 14.1176 764 98.3887 1126.4 477.628
113 0 54.1169 14.0991 763 134.887 1126.37 477.752
114 0 51.1714 10.2596 525 84.9048 1126.59 476.695
115 0 49.151 12.4107 610 116.421 1124.97 428.666
116 0 52.1028 13.8188 720 111.682 1124.23 428.182
117 0 55.1447 15.287 843 107.976 1124.98 429.285
118 0 56.127 14.1821 796 109.59 1125.08 427.874
119 0 55.0523 14.1865 781 111.076 1123.33 426.497
120 0 55.0556 14.0767 775 159.871 1122.31 426.458
121 0 55.0585 14.0396 773 159.583 1121.33 426.422
122 0 62.2253 15.01 934 106.509 1123.31 424.3
123 0 63.1428 13.6833 864 108.972 1122.9 424.147
124 0 66.0771 13.3783 884 109.35 1122.44 422.963
125 0 68.1031 15.8142 1077 106.106 1123.62 421.241
126 0 69.1139 15.3225 1059 106.254 1123.63 421.391
127 0 71.1648 14.7545 1050 107.377 1122.65 420.891
128 1 36.0912 10.6397 384 112.909 1122.03 436.581
129 0 36.0912 10.6951 386 162.451 1122.04 436.624
130 0 36.0357 11.8494 427 111.232 1124.01 436.007
131 0 40.2031 12.2876 494 108.061 1123.54 437.053
132 0 41.1473 13.1236 540 107.781 1124.24 436.054
133 0 41.0927 13.652 561 104.893 1124.3 433.178
134 0 41.0668 12.9301 531 105.736 1125.64 430.759
135 0 43.1666 13.3436 576 103.568 1125.89 432.21
136 0 42.2167 14.2834 603 103.889 1126.13 431.899
137 0 44.1552 15.8758 701 99.1455 1126.25 431.7
138 0 46.2544 14.7445 682 101.274 1126.23 430.334
139 0 48.1531 16.3437 787 96.3698 1125.9 431.327
140 0 45.1608 14.3266 647 103.839 1125.38 431.093
141 0 45.1608 14.393 650 162.96 1124.36 431.083
142 0 48.1543 15.1388 729 101.941 1124.8 431.047
143 0 48.1543 15.035 724 154.282 1125.76 431.081
144 0 48.1658 13.8272 666 104.625 1123.83 432.892
145 0 50.2889 15.8087 795 99.4994 1124.76 433.897
146 0 50.2889 15.4706 778 153.699 1125.7 434.09
147 0 51.1657 14.7364 754 101.814 1124.89 434.378
148 0 50.0614 14.7419 738 103.133 1123.91 432.588
149 0 53.1086 14.0655 747 102.131 1123.96 434.278
150 0 51.0579 15.8252 808 101.01 1123.56 432.666
151 0 53.0403 14.7812 784 101.999 1123.3 433.024
152 0 53.0301 15.0104 796 101.396 1123.37 434.637
153 0 53.0883 15.3895 817 100.307 1122.65 433.684
154 0 54.0328 16.0088 865 98.9353 1124.37 433.869
155 0 54.0393 14.9336 807 101.237 1123.59 433.748
156 0 54.0656 15.0188 812 101.016 1123.71 433.292
157 0 53.0606 15.9629 847 99.8689 1122.63 433.442
158 0 54.0717 16.2377 878 98.6435 1123.18 432.17
159 0 54.1535 14.0526 761 101.624 1123.04 434.442
160 0 55.1195 16.0197 883 97.6365 1123.84 433.924
161 0 56.0468 16.1294 904 97.2445 1124.3 434.558
162 0 56.0427 17.0584 956 95.6015 1124.53 434.123
163 0 55.0247 16.3381 899 97.8276 1124.46 434.301
164 0 55.0741 15.7424 867 98.797 1123.65 434.705
165 0 55.1006 15.8074 871 98.6188 1123.7 434.358
166 0 57.0493 16.3367 932 95.6416 1124 435.792
167 0 56.0442 15.6662 878 97.2847 1125.52 436.325
168 0 55.0291 15.9552 878 96.8371 1124.61 437.186
169 0 56.1039 15.8991 892 97.1413 1125.05 436.797
170 0 58.0357 17.9545 1042 92.048 1124.28 437.316
171 0 58.0192 17.9251 1040 91.3087 1124.59 438.254
172 0 59.0541 16.8151 993 92.9265 1124.53 439.087
173 0 53.079 16.1081 855 96.9684 1123.54 438.236
174 0 58.1746 18.5476 1079 89.8971 1123.79 439.764
175 0 57.0285 17.4825 997 91.0361 1124.95 439.555
176 0 56.1144 16.1634 907 95.2867 1124.62 440.748
177 0 56.0421 16.4519 922 94.2343 1124.89 441.142
178 0 56.1501 17.7026 994 92.6751 1124.65 440.79
179 0 56.0258 14.7432 826 97.638 1124.09 440.289
180 0 57.0565 17.6492 1007 91.8779 1123.47 442.12
181 0 57.0999 17.7233 1012 91.8508 1122.84 441.091
182 0 54.0148 15.9216 860 97.0674 1122.82 440.767
183 0 56.1248 16.9088 949 93.568 1122.87 440.776
184 0 55.0738 15.343 845 96.0237 1122.6 439.664
185 0 57.1646 14.9918 857 96.2485 1122.62 441.141
186 0 57.061 15.2293 869 95.3625 1122.26 441.436
187 0 58.15 16.4402 956 92.0983 1122.33 441.684
