time division length width area intensity CMx CMy
0 0 27.0017 11.2215 303 132.677 1266.76 491.182
1 0 29.0471 9.98377 290 132.214 1268.78 493.255
2 0 29.0531 11.5994 337 129.92 1269.2 491.303
3 0 29.0491 11.2224 326 129.031 1268.43 491.147
4 0 28.0667 11.9715 336 128.116 1269.19 491.914
5 0 31.0374 11.5989 360 127.469 1268.18 491.894
6 0 29.0146 11.6493 338 128.678 1268.48 491.899
7 0 31.205 11.9212 372 128.704 1267.44 489.624
8 0 36.1614 12.3336 446 123.249 1267.91 490.256
9 0 34.0348 13.9857 476 122.582 1268.18 489.021
10 0 33.108 12.867 426 123.521 1267.39 488.93
11 0 36.1339 14.0035 506 121.496 1266.75 488.04
12 0 38.1279 14.7399 562 117.582 1267.52 488.612
13 0 37.1542 13.8612 515 120.159 1266.95 487.318
14 0 41.1297 14.0531 578 118.74 1267.44 485.574
15 0 42.141 15.3058 645 116.329 1266.94 485.02
16 0 42.0633 15.0725 634 117.126 1267.55 484.934
17 0 44.0559 16.411 723 113.08 1268.25 483.874
18 0 45.1042 15.6527 706 115.717 1267.91 483.79
19 0 45.0744 14.3762 648 119.377 1268.61 483.975
20 0 47.0405 15.9862 752 115.402 1267.91 482.267
21 0 50.1855 15.3232 769 114.401 1267.79 482.096
22 0 49.2126 15.8496 780 114.451 1267.99 481.374
23 0 52.0223 15.4357 803 113.497 1268.24 480.934
24 0 53.0989 16.1209 856 111.522 1268.21 480.303
25 0 54.1309 14.6497 793 114.82 1269.07 479.257
26 0 56.0293 15.7061 880 112.177 1270.76 478.593
27 0 58.1492 15.529 903 111.381 1271.3 477.591
28 0 58.1524 14.8403 863 114.506 1271.34 474.961
29 0 63.0368 16.5776 1045 107.656 1269.71 474.697
30 0 64.2453 17.0285 1094 106.744 1269.9 471.143
31 0 67.1878 15.5088 1042 108.71 1269.58 471.9
32 0 69.1668 14.9783 1036 109.574 1269.23 470.229
33 0 73.2101 15.6809 1148 106.153 1270.58 468.699
34 0 76.1567 18.1468 1382 100.042 1270.82 468.281
35 0 76.3676 15.0064 1146 108.122 1270.33 465.436
36 0 76.3676 14.9016 1138 147.511 1271.33 465.401
37 0 82.3541 15.3969 1268 105.288 1271.33 463.73
38 0 87.2531 17.3404 1513 100.017 1271.09 462.515
39 0 87.2531 17.2372 1504 132.42 1271.07 462.537
40 1 44.2378 12.4102 549 104.743 1271.58 484.069
41 0 45.3319 12.243 555 105.236 1270.74 481.915
42 0 48.1166 14.3609 691 100.275 1272.28 481.527
43 0 49.224 12.5345 617 102.131 1271.41 483.049
44 0 51.2766 13.5149 693 100.287 1271.07 480.706
45 0 52.1901 13.7191 716 100.697 1270.84 480.589
46 0 56.1779 15.0949 848 97.2394 1271.71 478.316
47 0 56.0915 13.5671 761 100.265 1271.55 476.924
48 0 60.054 15.2862 918 96.3235 1271.39 478.571
49 0 59.1329 15.3045 905 98.0939 1271.18 476.213
50 0 62.2189 14.3686 894 96.8098 1272.35 476.757
51 0 63.0821 14.4732 913 97.885 1271.67 473.667
52 0 68.3114 16.1027 1100 94.1027 1272.04 473.811
53 0 69.41 14.6665 1018 96.9862 1272.26 472.858
54 0 72.1816 17.0542 1231 93.3818 1272.09 471.992
55 0 74.5814 16.492 1230 95.3325 1272.7 470.776
56 0 76.2177 16.7284 1275 96.1827 1271.85 469.062
57 0 80.3207 17.0566 1370 96.308 1272.58 466.026
58 0 81.3959 16.6347 1354 98.6108 1271.98 465.69
59 0 82.2907 15.7612 1297 101.786 1272.44 461.875
60 0 87.3297 16.5694 1447 99.8874 1272.48 462.328
61 0 88.3509 17.0796 1509 99.3671 1272.86 461.657
62 0 94.568 17.4689 1652 98.4982 1273.42 456.999
63 1 49.3097 8.86235 437 102.181 1274.93 484.469
64 0 51.219 11.4215 585 101.703 1274.94 480.602
65 0 51.1122 10.9367 559 102.213 1275.58 479.276
66 0 56.1858 13.1172 737 96.2727 1276.04 479.033
67 0 56.1228 12.9181 725 97.1021 1276.42 477.748
68 0 58.1139 13.4047 779 96.3338 1276.64 476.425
69 0 58.1139 13.3703 777 142.952 1276.64 476.435
70 0 60.4803 14.1864 858 97.0023 1275.36 474.794
71 0 65.304 14.8077 967 95.8604 1275.96 473.94
72 0 65.2192 14.8576 969 97.2694 1274.15 471.239
73 0 67.3644 14.1024 950 96.9326 1275 473.948
74 0 70.2156 14.2561 1001 99.2478 1275.42 469.141
75 0 73.2346 15.0748 1104 97.1096 1275.46 469.257
76 0 74.196 15.4725 1148 98.4887 1273.58 467.388
77 0 77.2447 16.027 1238 97.4871 1273.54 468.03
78 0 82.2015 16.3622 1345 95.1375 1273.78 468.955
79 0 81.1786 13.6612 1109 102.072 1275.46 465.34
80 0 85.2599 15.0364 1282 100.315 1274.44 464.961
81 1 43.0262 11.1327 479 99.2651 1275.43 486.029
82 0 44.08 9.77768 431 100.81 1274.54 487.274
83 0 46.0655 10.5936 488 97.875 1274.98 487.025
84 0 46.1392 10.685 493 99.9777 1274.81 483.925
85 0 50.1866 12.3938 622 95.9357 1274.89 482.752
86 0 50.2582 13.3511 671 95.8003 1274.87 481.642
87 0 51.1503 14.7213 753 95.0226 1273.88 479.244
88 0 53.0746 14.7151 781 93.735 1273.91 480.958
89 0 53.1364 13.8888 738 96.4851 1273.62 479.741
90 0 55.0743 13.6724 753 97.9841 1273.03 479.005
91 0 56.0986 13.708 769 100.15 1273.74 476.847
92 0 60.1329 16.0644 966 94.8571 1273.61 475.328
93 0 58.1635 13.7371 799 101.235 1274.2 476.72
94 0 62.1593 15.7177 977 97.1955 1274.56 476.025
95 0 61.2056 14.9333 914 101.105 1275.61 473.896
96 0 64.0978 16.0536 1029 100.115 1275.27 472.842
97 0 68.133 17.0842 1164 96.8969 1276.25 472.574
98 0 67.1422 14.9831 1006 102.312 1276.26 473.336
99 0 69.1679 15.1226 1046 103.519 1276 471.178
100 0 71.1564 14.4049 1025 104.905 1275.44 471.349
101 0 75.1309 14.6943 1104 105.729 1275.94 469.508
102 0 77.2089 17.5498 1355 101.737 1275.66 466.003
103 0 78.1598 14.368 1123 108.057 1275.98 468.535
104 0 81.068 15.9989 1297 104.342 1275.7 466.807
105 0 83.1228 16.8065 1397 103.85 1275.69 465.208
106 0 86.1436 16.9252 1458 103.636 1275.8 465.578
107 0 89.1001 15.9147 1418 105.652 1275.55 463.365
108 1 48.0217 10.6619 512 109.211 1276.47 483.66
109 0 48.0217 10.7243 515 159.355 1276.46 483.639
110 0 51.0838 10.7471 549 108.042 1275.83 483.656
111 0 51.0881 12.3316 630 106.257 1275.69 483.529
112 0 53.0966 13.2965 706 106.229 1275.99 480.888
113 0 54.0933 13.2549 717 106.502 1275.97 479.962
114 0 56.0812 13.1417 737 107.396 1275.7 479.388
115 0 59.0707 14.6943 868 104.142 1275.95 478.835
116 0 62.0578 15.0344 933 102.72 1274.16 477.751
117 0 62.068 14.4197 895 106.223 1275.42 476.821
118 0 66.12 15.124 1000 103.459 1275.37 475.571
119 0 67.0567 14.9277 1001 105.028 1274.54 475.213
120 0 70.1185 15.6735 1099 104.258 1274.18 472.821
121 0 71.1544 14.3772 1023 107.718 1273.38 472.67
122 0 75.093 15.3676 1154 105.867 1273.3 470.315
123 0 79.1196 16.3171 1291 103.197 1272.95 469.959
124 0 78.0594 16.8333 1314 105.145 1272.46 468.052
125 0 82.0716 15.1088 1240 108.683 1272.98 467.023
126 0 85.0857 15.7253 1338 107.627 1272.9 465.648
127 0 86.1377 14.3723 1238 110.375 1272.41 464.771
128 1 45.0715 11.9588 539 107.224 1273.82 483.584
129 0 47.0678 12.0465 567 105.979 1273.94 484.531
130 0 48.0967 11.4353 550 108.535 1274.82 482.929
131 0 51.03 12.0909 617 106.629 1275.79 482.548
132 0 53.1091 13.4252 713 104.346 1275.98 482.021
133 0 55.0404 14.2441 784 102.696 1276.43 480.985
134 0 55.0727 13.4731 742 106.385 1276.21 478.864
135 0 58.1409 14.2069 826 103.368 1275.6 478.766
136 0 59.1053 13.9074 822 104.944 1275.71 478.046
137 0 62.1034 15.3776 955 103.387 1275.4 475.839
138 0 64.0954 14.3224 918 105.298 1275.49 475.174
139 0 64.0954 14.3536 920 143.872 1273.47 475.216
140 0 64.0954 14.3536 920 143.371 1271.47 475.216
141 0 69.1022 14.4858 1001 105.898 1275.66 476.237
142 0 71.1415 13.5926 967 109.185 1274.55 473.408
143 0 73.2409 13.6263 998 109.136 1275.56 472.933
144 1 41.1549 11.0315 454 106.167 1274.93 490.121
145 0 42.1904 10.026 423 108.525 1275.01 489.147
146 0 43.1877 11.4384 494 151.846 1274.79 487.563
147 0 46.2317 12.2643 567 103.392 1274.17 487.279
148 0 45.2321 12.469 564 105.204 1272.86 485.317
149 0 46.3104 12.589 583 103.463 1272.95 486.23
150 0 50.1239 13.6861 686 100.214 1273.02 483.956
151 0 50.1974 14.4031 723 99.834 1273.18 481.907
152 0 52.2992 14.7612 772 98.3549 1273.12 482.706
153 0 52.202 13.4669 703 101.826 1272.16 480.824
154 0 52.202 13.352 697 140.973 1271.14 480.892
155 0 56.1874 13.7041 770 100.425 1273.43 480.268
156 0 57.1731 14.4648 827 100.319 1272.94 476.243
157 0 59.1479 13.052 772 102.14 1272.71 477.403
158 0 60.1732 13.1288 790 103.218 1273.31 474.801
159 0 62.1631 14.7193 915 100.315 1273.99 472.219
160 0 65.2104 14.3229 934 99.7045 1274.16 472.549
161 0 68.1845 15.1061 1030 97.4107 1274.47 473.716
162 0 70.2967 13.7844 969 100.82 1274.37 470.529
163 0 74.1999 14.4475 1072 99.3442 1274.44 470.166
164 0 75.1162 14.9502 1123 99.0944 1274.19 467.616
165 0 77.1241 14.3794 1109 100.195 1274.74 466.462
166 1 41.0491 8.74563 359 101.248 1275.55 485.295
167 0 42.0886 10.8343 456 98.4803 1276.67 484.643
168 0 46.062 10.7898 497 97.0724 1277.45 483.903
169 0 45.1261 8.35437 377 99.1432 1277.41 484.984
170 0 47.0412 12.117 570 96.107 1276.53 482.819
171 0 49.0376 11.2974 554 95.7599 1276.4 484.022
172 0 50.037 12.8505 643 94.7589 1276.15 481.537
173 0 52.035 12.0688 628 95.3806 1276.26 482.69
174 0 54.078 12.4265 672 94.3482 1274.74 482.199
175 0 54.2158 12.1367 658 94.9863 1274.29 481.359
176 0 56.2511 12.3198 693 95.013 1273.79 481.433
177 0 58.2282 13.1551 766 93.3238 1274.05 480.488
178 0 61.21 13.903 851 91.7333 1273.67 480.2
179 0 61.1474 13.1322 803 94.99 1273.41 477.715
180 0 64.1228 14.0356 900 93.0856 1272.81 477.842
181 0 67.1269 14.4651 971 92.4737 1272.55 477.511
182 0 69.2279 15.3551 1063 91.1872 1272.97 476.205
183 0 68.0895 13.5263 921 96.4962 1272.38 475.005
184 0 70.1592 13.7117 962 96.184 1272.75 470.913
185 0 73.1733 12.1766 891 99.8732 1272.84 470.735
186 0 75.0497 15.6829 1177 94.6432 1271.96 468.938
187 0 79.0554 14.9642 1183 99.9603 1272.61 467.09
188 0 80.1914 15.2884 1226 95.7659 1272.8 464.165
189 0 85.058 16.4006 1395 92.9283 1272.7 464.465
190 0 86.2592 14.3289 1236 97.2314 1273.06 461.827
191 1 46.0336 10.5575 486 94.2963 1272.92 482.895
192 0 47.0674 11.218 528 94.8163 1272.48 481.864
193 0 47.1543 9.58555 452 98.2655 1272.54 479.993
194 0 50.0946 11.3186 567 97.2681 1271.74 479.245
195 0 52.1796 11.7671 614 96.1417 1272.52 479.169
196 0 55.173 14.2098 784 92.6148 1272.91 479.329
197 0 56.0563 14.2179 797 93.5822 1272.5 477.562
198 0 58.065 14.5526 845 92.8473 1273.08 479.004
199 0 60.2063 13.9686 841 93.1439 1273.41 477.993
200 0 60.0989 13.0285 783 94.4866 1272.24 477.315
201 0 63.2963 14.4242 913 92.7722 1273.74 475.067
202 0 63.2591 13.0258 824 94.5874 1273.3 474.538
203 0 66.3005 12.6998 842 94.3349 1272.64 474.525
204 0 70.352 14.5127 1021 91.8932 1273.22 473.053
205 0 71.2285 13.2812 946 94.9049 1273.08 472.272
206 0 73.2241 14.9951 1098 92.5 1272.98 469.658
207 0 77.2112 14.3502 1108 91.3195 1273.43 471.966
208 0 78.2377 13.5612 1061 93.8454 1272.94 470.949
209 0 81.1481 13.8635 1125 94.0507 1272.26 469.164
210 0 83.2494 12.5767 1047 96.2732 1272.66 467.709
211 0 86.1523 13.6386 1175 95.0145 1272.24 463.794
212 1 46.0724 11.5253 531 91.0904 1273.05 485.972
213 0 46.0826 8.50646 392 94.9643 1272.45 485.85
214 0 48.0577 11.8816 571 91.5534 1272.16 483.205
215 0 52.1347 12.3334 643 89.8616 1272.4 480.774
216 0 52.1347 12.4677 650 118.578 1273.43 480.712
217 0 55.105 13.81 761 88.8857 1270.74 478.97
218 0 55.105 13.81 761 120.456 1266.78 478.99
219 0 58.1312 12.1793 708 92.0452 1269.15 478.374
220 0 60.1743 11.5165 693 92.6811 1269.65 477.986
221 0 63.0768 13.1269 828 90.6691 1270.07 474.892
222 0 65.2118 11.9457 779 92.7394 1270.13 475.822
223 0 66.3082 12.7888 848 93.2335 1270.04 472.646
224 0 69.4138 13.5564 941 91.7152 1270.14 472.034
225 0 72.4068 13.7142 993 91.6083 1270.89 471.347
226 1 37.0814 8.11728 301 93.1894 1270.77 489.272
227 0 42.2692 12.5387 530 85.8 1271.74 487.925
228 0 39.1371 11.5236 451 90.2328 1271.74 486.825
229 0 41.1116 10.8485 446 91.0359 1271.91 486.877
230 0 43.2579 11.9053 515 89.4621 1271.88 485.889
231 0 43.191 12.2016 527 92.5085 1272.77 483.808
232 0 46.1431 13.9566 644 87.6056 1272.98 484.491
233 0 48.1724 12.8497 619 87.3086 1272.91 483.354
234 0 47.3846 12.5146 593 88.2968 1272.81 483.32
235 0 49.2281 13.2038 650 87.8862 1273.57 481.86
236 0 51.3078 12.3373 633 88.0553 1273.63 483.496
237 0 53.2046 13.1943 702 87.4886 1273.36 482.05
238 0 52.2485 11.4836 600 91.1233 1273.43 480.678
239 0 55.2 12.7717 705 88.0979 1273.6 482.444
240 0 57.3603 12.9881 745 88.8524 1273.6 480.651
241 0 58.2429 13.0316 759 90.1054 1273.23 479.253
242 0 63.2482 14.704 930 86.1409 1272.05 478.488
243 0 62.2887 12.9719 808 90.4022 1272.23 478.212
244 0 65.2784 13.6952 894 88.2371 1272.42 478.173
245 0 68.3535 13.7667 941 89.1498 1271.76 474.869
246 0 69.2896 14.5765 1010 89.1089 1270.9 473.241
247 0 71.2638 14.0464 1001 90.1469 1270.74 473.065
248 0 74.2599 13.8567 1029 91.6288 1270.33 470.239
249 0 77.4007 13.7983 1068 90.8961 1269.55 472.525
250 1 38.0932 12.0756 460 89.9391 1271.15 488.517
251 0 40.1237 11.3399 455 91.3868 1271.74 488.343
252 0 41.2223 11.4259 471 91.8344 1271.84 487.34
253 0 44.3405 12.5168 555 90.4613 1271.38 485.508
254 0 47.2862 13.302 629 88.3704 1271.02 486.343
255 0 45.2566 11.2249 508 93.876 1270.43 484.018
256 0 47.0515 13.1133 617 90.7958 1272.08 481.875
257 0 49.0792 14.3645 705 87.8667 1271.51 482.901
258 0 49.0792 14.3238 703 123.262 1271.51 482.883
259 0 51.0594 11.8294 604 93.9387 1272.63 482.036
260 0 52.0812 12.1925 635 94.0158 1272.91 480.192
261 0 54.1437 13.1317 711 93.7722 1273.21 478.281
262 0 56.0491 12.8459 720 94.0556 1273.84 479.588
263 0 58.0489 13.8159 802 93.8229 1274.81 476.778
264 0 58.0768 13.155 764 97.2461 1274.86 476.882
265 0 61.1446 14.8173 906 94.1645 1275.17 474.889
266 0 63.0955 14.2165 897 95.2865 1275.26 474.754
267 0 63.0955 14.1848 895 143.339 1274.25 474.743
268 0 67.1901 13.9753 939 97.8999 1274.87 472.331
269 0 70.1772 14.3351 1006 96.4264 1275.19 474.238
270 1 39.0562 12.3668 483 95.648 1275.52 489.534
271 0 38.0626 9.09029 346 100.41 1275.48 490.743
272 0 40.0562 11.3091 453 98.3996 1275.06 489.773
273 0 44.2904 11.2891 500 94.888 1276.08 492.44
274 0 43.3039 12.0543 522 98.6992 1275.82 487.5
275 0 45.3516 13.8474 628 92.5717 1275.41 489.492
276 0 46.3805 13.7127 636 94.9481 1274.66 487.217
277 0 47.2588 13.1192 620 94.679 1274.33 486.953
278 0 48.3973 12.6247 611 96.401 1273.89 486.571
279 0 49.392 15.1644 749 92.3471 1272.69 483.676
280 0 49.3719 13.3882 661 95.6036 1272.08 484.729
281 0 53.3164 13.8419 738 93.3848 1273.04 483.004
282 0 53.3545 13.6071 726 94.5923 1272.64 482.731
283 0 54.3086 13.4785 732 95.7008 1272.07 481.831
284 0 54.3086 13.368 726 147.518 1272.1 481.843
285 0 58.1972 12.3717 720 98.9208 1271.25 477.2
286 0 60.3528 14.5147 876 95.1039 1271.06 477.639
287 0 60.3528 14.4484 872 142.028 1271.07 477.643
288 0 65.2616 14.3883 939 95.2109 1272.39 474.986
289 0 65.2568 12.6577 826 99.2869 1272.74 473.427
290 0 69.2981 14.6324 1014 95.145 1273.3 473.14
291 0 71.2957 13.9419 994 96.8803 1273.97 471.778
292 1 37.0923 10.1908 378 98.5106 1275.24 488.029
293 0 40.0833 11.9751 480 92.7292 1276.15 489.75
294 0 39.0983 9.94928 389 99.2648 1275.8 487.085
295 0 41.1321 12.9096 531 94.1224 1276.33 487.363
296 0 41.0897 11.6087 477 97.8239 1277.5 485.786
297 0 43.0571 13.9118 599 92.2087 1277.74 485.29
298 0 44.279 12.5568 556 97.6457 1275.37 484.13
299 0 46.4753 13.6847 636 93.6682 1275.96 484.151
300 0 48.5411 15.698 762 88.5367 1277.83 484.94
301 0 48.3022 13.5397 654 94.4083 1276.34 484.136
302 0 50.5428 14.8389 750 91.848 1276.46 483.319
303 0 50.4134 13.9249 702 94.3661 1277.17 482.301
304 0 50.4134 13.9447 703 149.442 1277.16 482.306
305 0 56.4094 14.1288 797 92.1242 1274.62 483.57
306 0 55.5982 13.6335 758 95.3615 1274.6 483.545
307 0 57.2604 13.8141 791 96.5272 1273.78 481.659
308 0 61.2483 14.3024 876 94.1872 1273.66 481.445
309 0 62.3752 16.0961 1004 92.7639 1273.27 478.775
310 0 65.4985 14.3362 939 96.1661 1273.42 479.122
311 0 66.2997 14.5853 967 96.7311 1272.82 477.408
312 0 70.2204 15.0099 1054 98.3529 1271.96 477.058
313 1 39.1571 11.9774 469 98.4179 1272.56 492.006
314 0 39.1144 11.1212 435 100.851 1272.43 491.067
315 0 39.124 10.6584 417 101.885 1271.59 491.868
316 0 43.0907 11.8123 509 101.075 1271.47 490.035
317 0 46.0774 12.5658 579 99.5561 1271.45 490.076
318 0 46.0774 12.5875 580 156.372 1271.46 490.079
319 0 46.1701 14.5332 671 101.92 1270.75 483.851
320 0 48.1016 15.197 731 97.6443 1271.06 485.115
321 0 48.1441 13.1272 632 103.259 1271.3 484.013
322 0 49.1008 13.401 658 102.886 1271.48 482.035
323 0 51.1879 14.0854 721 103.355 1272.37 483.035
324 0 51.1196 13.9477 713 106.229 1272.74 481.182
325 0 53.091 14.5034 770 104.843 1273.85 480.953
326 0 53.091 14.5599 773 150.916 1274.83 480.955
327 0 57.0839 14.1021 805 106.029 1274.85 481.304
328 0 58.064 14.7251 855 106.775 1275.16 479.883
329 0 59.1229 14.4952 857 107.089 1273.59 480.236
330 0 61.048 14.4968 885 107.134 1274.02 479.541
331 0 64.0462 17.4405 1117 100.474 1273.49 479.562
332 0 65.0357 15.3147 996 105.764 1273.57 479.943
333 0 66.099 14.0698 930 108.37 1274.77 479.082
334 0 70.2037 16.039 1126 103.266 1275.89 478.774
335 1 38.0997 8.84522 337 106.187 1276.47 496.81
336 0 37.0796 11.8124 438 109.037 1276.44 492.393
337 0 41.0879 13.897 571 105.457 1276.44 493.03
338 0 41.0396 12.1346 498 107.95 1276.28 493.661
339 0 45.0455 12.0323 542 107.804 1275.47 492.031
340 0 44.0411 13.2149 582 108.082 1275.5 489.857
341 0 44.0292 12.8778 567 107.206 1273.86 489.314
342 0 44.0292 12.9005 568 159.766 1271.87 489.403
343 0 47.1628 14.1637 668 105.515 1270.05 487.371
344 0 49.1248 13.0891 643 106.526 1269.83 487.829
345 0 49.1248 13.1502 646 158.407 1268.85 487.873
346 0 52.1292 13.5625 707 106.199 1270.55 485.928
347 0 53.1504 14.299 760 104.416 1270.28 485.263
348 0 56.0929 14.886 835 102.975 1271.01 482.721
349 0 56.1687 14.2428 800 105.486 1270.64 481.724
350 0 59.1438 14.7268 871 103.913 1270.47 480.344
351 0 60.1131 15.2878 919 102.055 1270.44 478.481
352 0 61.1619 13.9793 855 107.388 1270.79 476.24
353 0 65.117 15.8484 1032 102.395 1270.85 475.158
354 0 66.2009 14.7128 974 105.588 1271.38 473.818
355 0 68.1277 14.3847 980 106.158 1272.03 474.696
356 0 68.1229 14.327 976 149.153 1271.05 474.685
357 0 72.2212 14.5525 1051 105.576 1272.71 470.679
358 1 41.0632 11.5432 474 103.869 1273.26 488.5
359 0 41.0469 11.8401 486 103.198 1274.06 488.469
360 0 41.0469 11.9132 489 148.368 1276.06 488.47
361 0 45.2573 13.2575 600 100.37 1276.86 486.882
362 0 47.2086 13.0696 617 100.553 1276.94 486.462
363 0 50.2578 13.0925 658 100.435 1276.52 485.922
364 0 50.2964 13.5994 684 100.25 1276.16 485.425
365 0 50.2964 13.5 679 132.845 1276.19 485.392
366 0 55.2821 14.218 786 98.9249 1275.32 484.33
367 0 55.1142 13.6626 753 100.936 1275.08 485.316
368 0 56.137 14.0727 790 102.261 1274.96 483.79
369 0 59.2021 14.6954 870 101.297 1274.26 482.706
370 0 59.0681 13.4421 794 104.023 1275.14 482.307
371 0 59.068 13.4083 792 144.021 1274.16 482.045
372 0 64.1284 14.9232 957 102.266 1275.05 478.418
373 0 66.0534 14.3218 946 103.684 1274.5 478.04
374 0 69.2198 14.5768 1009 102.945 1273.41 476.587
375 0 72.1366 15.7063 1133 101.712 1272.55 475.417
376 0 75.1573 14.8888 1119 102.275 1272.18 473.692
377 1 38.0709 10.7956 411 105.849 1271.41 487.993
378 0 39.0404 11.2192 438 104.934 1271.23 488.728
379 0 41.0505 11.0352 453 105.642 1269.58 487.671
380 0 43.1046 11.9477 515 104.373 1270.63 486.101
381 0 46.2529 12.1722 563 103.471 1270.84 485.544
382 0 46.1625 13.8857 641 102.204 1271.14 482.889
383 0 48.0685 15.4363 742 98.8612 1272.18 483.164
384 0 49.0918 14.6053 717 101.667 1272.72 481.298
385 0 53.1115 15.6087 829 98.0084 1273.54 482.402
386 0 54.118 14.6716 794 100.321 1273.65 480.929
387 0 55.0943 14.3027 788 100.826 1274.28 479.929
388 0 56.1021 13.8319 776 101.871 1275.35 479.126
389 0 59.02 15.4185 910 98.6736 1275.77 478.071
390 0 59.316 15.7799 936 97.5908 1276.27 478.628
391 0 59.316 15.763 935 148.689 1277.24 478.575
392 0 64.2086 14.7332 946 99.1808 1276.5 477.965
393 0 64.0843 14.2156 911 101.116 1276.68 477.716
394 0 68.3101 14.9758 1023 99.4409 1276.53 476.564
395 0 70.1804 15.0897 1059 100.071 1277.07 475.85
396 0 72.3185 13.7033 991 102.553 1277.51 476.615
397 0 72.3185 13.7448 994 160.857 1277.49 476.742
398 0 77.3254 14.7041 1137 102.303 1275.88 471.738
399 1 44.1426 12.1878 538 99.2175 1276.32 489.621
400 0 45.1624 13.3518 603 96.7678 1275.78 489.67
401 0 46.2925 12.0754 559 100.968 1274.64 487.569
402 0 49.2152 13.1667 648 99.659 1273.67 486.432
