time division length width area intensity CMx CMy
0 0 41.307 15.1548 626 139.958 1348.32 492.981
1 0 41.3624 14.5059 600 144.2 1348.16 491.832
2 0 43.3589 14.0456 609 144.81 1349.03 492.046
3 0 44.4495 14.5558 647 142.136 1347.81 491.085
4 0 44.3233 14.7552 654 143.226 1348.96 491.583
5 0 45.3167 15.2924 693 141.453 1350.77 490.642
6 0 46.4681 15.2793 710 142.261 1350.5 490.349
7 0 48.4277 15.8794 769 136.996 1350.46 490.057
8 0 48.265 16.2437 784 138.963 1350.4 488.251
9 0 48.2724 16.2619 785 139.005 1350.56 488.916
10 0 50.3683 16.5183 832 135.506 1350 488.6
11 0 51.198 17.9108 917 130.505 1350.29 488.816
12 0 51.1983 16.4459 842 138.036 1349.48 486.533
13 0 52.1595 16.8713 880 134.406 1350.1 487.338
14 0 54.2919 16.0429 871 137.232 1350.13 485.923
15 0 55.1999 17.1921 949 133.82 1350.06 485.006
16 0 56.1513 16.2775 914 136.761 1349.65 484.328
17 0 59.2888 17.5244 1039 130.784 1349.51 483.568
18 0 59.1855 17.2846 1023 132.962 1350.04 483.452
19 0 61.4564 17.1829 1056 131.461 1350.34 483.249
20 0 64.3146 17.3522 1116 130.389 1349.37 481.599
21 0 67.1593 18.002 1209 126.682 1350.43 481.909
22 0 68.2572 15.9251 1087 132.474 1351.65 479.364
23 0 67.2612 16.0865 1082 173.184 1352.61 479.323
24 0 72.2174 17.7658 1283 127.64 1352.25 477.474
25 0 74.2433 17.2137 1278 129.326 1352.6 476.143
26 1 41.0664 12.9059 530 133.923 1352.44 494.157
27 0 42.0495 13.1512 553 131.573 1352.69 493.58
28 0 44.031 13.218 582 131.9 1353.05 492.49
29 0 45.0679 13.8458 624 129.663 1353.16 492.051
30 0 45.1801 13.6343 616 128.781 1353.01 490.968
31 0 44.057 13.1648 580 130.553 1353.88 488.276
32 0 49.0613 15.552 763 123.953 1353.89 487.474
33 0 49.0622 14.5122 712 126.517 1354.19 484.874
34 0 52.2847 16.7544 876 118.865 1353.52 487.858
35 0 53.3147 14.4238 769 127.033 1353.94 486.213
36 0 54.218 16.1017 873 122.803 1354.29 485.863
37 0 57.164 15.9891 914 121.402 1354.16 485.832
38 0 58.1172 16.2947 947 121.094 1354.48 485.334
39 0 60.3174 15.7168 948 121.461 1353.25 483.78
40 0 63.2383 15.5286 982 120.422 1353.81 482.39
41 0 65.1568 15.4397 1006 121.751 1353.72 482.019
42 0 67.1736 17.3133 1163 117.163 1353.9 480.881
43 0 69.3292 16.9337 1174 119.088 1354.4 476.934
44 0 73.2561 17.7187 1298 116.002 1354.17 478.261
45 0 75.2037 16.1827 1217 119.776 1354.83 477.265
46 0 75.2037 16.2625 1223 155.996 1356.81 477.293
47 1 40.0628 12.8298 514 120.42 1355.98 494.815
48 0 40.0628 12.8298 514 159.724 1353 494.903
49 0 41.2267 12.4191 512 121.236 1355.9 495.439
50 0 43.1483 13.3957 578 116.289 1355.26 494.46
51 0 42.1536 13.095 552 164.958 1354.21 494.098
52 0 47.0816 15.0802 710 112.628 1355.68 493.048
53 0 48.0819 14.7457 709 113.398 1356.35 493.244
54 0 48.0819 14.7873 711 159.416 1357.37 493.377
55 0 48.0819 14.7457 709 159.006 1358.39 493.44
56 0 51.2968 15.6345 802 114.662 1354.7 490.904
57 0 54.1543 15.8251 857 115.025 1355.56 488.937
58 0 55.2702 15.7047 868 116.601 1354.52 487.137
59 0 58.2449 15.4863 902 115.639 1354.7 487.387
60 0 59.3403 16.8182 998 114.195 1354.78 484.428
61 0 62.2509 15.5821 970 115.064 1354.79 484.437
62 0 62.1626 14.639 910 118.81 1354.94 481.982
63 0 65.2085 16.0102 1044 117.052 1355.14 482.374
64 0 67.2419 16.4927 1109 117.173 1354.03 479.624
65 0 67.2587 14.8085 996 123.12 1354.46 477.376
66 0 72.3137 16.622 1202 115.027 1354.37 479.41
67 0 74.1854 17.3619 1288 115.965 1353.95 475.737
68 0 77.2156 17.0691 1318 115.249 1353.66 474.593
69 0 79.2312 16.5718 1313 116.302 1353.73 473.489
70 0 82.2064 16.9573 1394 116.997 1352.96 470.059
71 0 85.2061 16.0083 1364 119.227 1353.89 470.166
72 0 87.2413 15.9787 1394 120.341 1352.3 466.473
73 0 91.3724 15.7378 1438 119.899 1353.18 467.476
74 1 47.0181 12.761 600 117.073 1354.9 489.617
75 0 47.0181 12.6547 595 150.42 1355.93 489.603
76 0 50.0143 12.5564 628 118.317 1357.22 487.833
77 0 51.0654 13.7862 704 114.479 1356.94 487.412
78 0 55.0481 13.57 747 111.889 1356.75 487.071
79 0 55.0623 13.3303 734 113.876 1357.44 486.557
80 0 57.1777 12.9421 740 113.911 1358.31 487.155
81 0 57.1624 12.9456 740 151.024 1359.31 487.155
82 0 62.0463 14.7954 918 107.858 1357.09 484.306
83 0 61.0851 12.8837 787 114.393 1357.03 481.236
84 0 66.0663 14.4249 953 109.712 1356.88 482.342
85 0 67.1162 14.1695 951 110.942 1357.15 480.517
86 0 71.2229 15.1215 1077 110.663 1357.81 479.417
87 0 71.1507 14.6731 1044 112.837 1357.79 477.771
88 0 76.1898 14.7264 1122 111.037 1357.68 476.476
89 0 77.2025 14.9089 1151 110.294 1356.92 476.254
90 0 80.1389 14.974 1200 111.121 1356.78 473.322
91 0 83.1761 13.8862 1155 113.089 1357.56 471.248
92 0 85.2432 14.8164 1263 112.814 1357.28 470.292
93 1 44.1363 11.2152 495 114.022 1355.47 491.313
94 0 46.1403 12.5703 580 111.398 1355.99 490.35
95 0 47.2045 11.5455 545 113.105 1356.49 490.117
96 0 48.3028 13.5603 655 110.879 1356.91 487.525
97 0 50.1115 13.011 652 110.456 1357.38 487.873
98 0 52.1735 13.5893 709 108.743 1356.88 486.505
99 0 54.1493 13.629 738 107.069 1357.44 486.843
100 0 54.2379 14.4733 785 107.354 1358.57 485.89
101 0 56.2571 14.0249 789 109.023 1359.29 485.341
102 0 58.2686 14.6219 852 106.651 1359.93 484.432
103 0 59.2684 14.9152 884 107.209 1359.12 484.791
104 0 62.3093 15.8564 988 104.705 1359.7 482.83
105 0 62.3093 15.8564 988 149.579 1359.7 482.713
106 0 64.3695 14.4323 929 111.353 1359.28 480.149
107 0 69.1529 15.8923 1099 106.575 1359.83 479.261
108 0 70.2548 16.7533 1177 106.239 1359.65 478.935
109 0 74.1937 16.4974 1224 105.98 1360.01 480.285
110 0 75.1857 15.3886 1157 109.886 1359.7 477.889
111 0 76.2157 16.7813 1279 106.692 1358.88 475.891
112 0 79.1794 15.8753 1257 108.279 1358.76 476.091
113 0 81.4125 15.5259 1264 109.587 1358.16 474.074
114 1 44.1097 10.8366 478 111.115 1359.31 494.008
115 0 46.1984 11.4939 531 110.017 1358.98 493.719
116 0 46.0785 11.3068 521 109.639 1358.34 494.775
117 0 49.0529 12.7413 625 108.595 1358.51 491.733
118 0 49.0451 14.2318 698 106.019 1357.4 490.999
119 0 49.0451 14.2726 700 145.163 1357.41 490.94
120 0 49.0407 14.3146 702 144.547 1357.42 490.903
121 0 55.2487 13.5207 747 106.573 1356.74 488.739
122 0 57.3095 14.9888 859 104.511 1356.24 485.644
123 0 59.2665 14.3083 848 105.462 1356.41 486.108
124 0 61.1814 15.9035 973 102.847 1355.67 485.62
125 0 61.1351 14.7706 903 107.682 1356.5 483.106
126 0 64.2515 15.1903 976 106.897 1356.74 481.158
127 0 66.2579 15.2586 1011 106.656 1357.18 481.885
128 0 69.2969 15.9747 1107 105.23 1357.34 479.044
129 0 70.6542 15.866 1121 107.236 1357.55 478.032
130 0 73.4394 16.3672 1202 105.505 1357.48 477.439
131 1 38.1914 9.55713 365 107.888 1357.93 497.896
132 0 40.3633 11.9911 484 107.24 1357.66 494.19
133 0 39.2638 11.0025 432 108.514 1357.76 493.949
134 0 41.2385 12.4883 515 105.592 1358.65 492.983
135 0 45.2334 13.4856 610 101.148 1358.56 492.923
136 0 46.2888 14.5607 674 98.9184 1358.59 492.822
137 0 48.1545 14.1835 683 99.612 1359.63 491.777
138 0 48.2737 14.7285 711 99.9944 1358.52 491.53
139 0 48.2051 14.4798 698 101.619 1359.56 490.706
140 0 50.1731 14.8685 746 100.257 1360.07 490.123
141 0 51.2143 15.6206 800 99.2325 1359.65 489.3
142 0 53.2864 14.5441 775 100.721 1358.83 490.138
143 0 55.1632 15.8802 876 97.621 1358.93 489.168
144 0 57.2873 14.2964 819 100.923 1358.04 489.12
145 0 57.2217 13.7011 784 102.529 1357.66 487.121
146 0 59.3527 15.3658 912 99.8399 1357.59 484.842
147 0 62.32 13.7195 855 102.454 1357.76 484.098
148 0 65.4527 14.7893 968 99.7056 1358.07 482.558
149 0 68.3707 14.8017 1012 99.2757 1357.19 482.46
150 0 68.3707 14.6993 1005 145.746 1356.19 482.527
151 1 36.0679 10.4802 378 99.1746 1358.03 496.526
152 0 38.022 10.3887 395 96.8582 1357.51 498.177
153 0 38.022 10.3361 393 143.005 1358.5 498.14
154 0 41.0219 11.2135 460 95.7457 1356.21 495.739
155 0 43.0748 12.072 520 92.8654 1356.04 495.067
156 0 43.0333 13.1758 567 92.8395 1356.04 492.026
157 0 45.3673 13.0931 594 90.0354 1355.52 492.311
158 0 44.2616 12.3583 547 92.3327 1355.92 491.282
159 0 47.2771 12.6488 598 90.2759 1355.79 490.769
160 0 50.3567 13.9803 704 87.3366 1356.83 490.716
161 0 51.3695 15.4956 796 85.7915 1356.39 490.068
162 0 52.1534 14.2848 745 88.8322 1357.13 489.099
163 0 53.2173 12.759 679 90.6613 1357.6 489.825
164 0 54.4041 14.7048 800 88.5338 1357.94 485.661
165 0 55.2071 14.0018 773 90.4204 1358.43 484.709
166 0 58.2283 14.3573 836 88.7081 1357.12 486.134
167 0 59.2846 13.7304 814 90.2801 1356.83 485.301
168 0 61.3184 14.3187 878 90.3531 1357.12 482.749
169 0 65.2586 13.5001 881 91.7117 1357.57 483.388
170 0 68.3873 16.3188 1116 88.1183 1358.25 482.964
171 0 68.3629 14.306 978 92.681 1357.72 483.758
172 0 72.2934 14.7316 1065 92.0883 1357.79 480.812
173 0 73.3215 14.3341 1051 93.2036 1357.92 480.906
174 0 76.2428 13.8505 1056 94.3475 1357.08 479.797
175 1 39.0992 12.4299 486 91.1893 1358.42 499.372
176 0 40.1255 12.6353 507 92.2998 1358.38 498.199
177 0 41.0326 13.1359 539 93.4694 1358.41 497.256
178 0 44.3496 12.8975 572 93.0909 1357.15 497.598
179 0 42.2684 14.6208 618 93.4401 1356.39 495.11
180 0 48.4128 14.459 700 90.5786 1356.67 497.34
181 0 46.1492 14.6481 676 92.3447 1355.56 494.96
182 0 49.2922 15.1545 747 90.9411 1355.53 494.922
183 0 49.3629 13.6945 676 94.7426 1355.06 493.797
184 0 51.2762 14.8022 759 93.2543 1354.91 491.468
185 0 52.2159 14.6316 764 94.1348 1354.72 490.827
186 0 52.1784 14.9679 781 93.516 1354.33 491.305
187 0 55.2333 14.4478 798 94.5163 1354.09 489.817
188 0 54.2537 13.7686 747 97.4806 1354.18 488.578
189 0 55.2012 13.2787 733 98.8963 1353.94 486.663
190 0 60.1934 15.2675 919 95.5114 1353.61 485.049
191 0 61.2483 15.7066 962 94.5655 1353.86 483.69
192 0 63.2345 14.47 915 97.1082 1354.09 482.556
193 0 63.2495 13.9922 885 98.6 1355.01 481.945
194 0 66.2528 14.173 939 97.0426 1355.27 481.121
195 0 68.2973 14.349 980 96.3 1355.6 479.296
196 0 68.2929 14.3207 978 145.311 1356.58 479.291
197 1 39.1083 12.4526 487 93.0924 1356.51 495.901
198 0 40.1475 10.9596 440 94.4568 1356.92 496.791
199 0 40.0976 13.1429 527 91.685 1357.02 495.808
200 0 39.0493 11.3446 443 96.0316 1358.02 494.323
201 0 45.0389 13.2996 599 91.4574 1357.96 494.053
202 0 46.1334 15.8453 731 86.9261 1356.92 494.257
203 0 45.4174 14.0695 639 92.374 1355.98 493.823
204 0 47.2115 14.0432 663 92.7104 1356.71 493.08
205 0 46.3999 13.0388 605 96.4331 1357.07 492.317
206 0 50.4547 15.3801 776 92.8003 1357.49 490.133
207 0 50.2074 13.0857 657 96.8843 1356.4 491.119
208 0 55.3814 14.03 777 93.1068 1356.85 492.575
209 0 53.2879 13.474 718 96.6128 1355.64 491.302
210 0 56.3161 14.2943 805 95.9826 1355.1 489.641
211 0 57.154 14.3122 818 97.3741 1355.5 487.034
212 0 59.2055 14.1372 837 97.7539 1355.09 487.048
213 0 59.2055 14.171 839 130.765 1355.1 487.131
214 0 62.1955 14.2454 886 98.7731 1354.66 483.81
215 0 62.1955 14.2454 886 133.52 1354.65 483.816
216 0 62.1899 14.1341 879 133.321 1354.66 483.742
217 0 72.2127 15.4959 1119 95.9151 1354.55 482.16
218 0 73.1773 15.0183 1099 98.7616 1353.66 480.01
219 1 38.2481 12.4189 475 96.5432 1355.19 496.88
220 0 39.2784 10.3619 407 97.742 1355.85 498.415
221 0 41.1244 11.7692 484 95.6736 1355.71 498.006
222 0 40.0932 11.4733 460 100.287 1355.89 495.185
223 0 42.0653 12.3617 520 99.0519 1355.53 495.16
224 0 44.1085 11.4037 503 98.3181 1355.33 496.235
225 0 46.0366 14.3581 661 95.1831 1355.38 491.814
226 0 47.0397 13.3292 627 96.8262 1356.07 492.065
227 0 49.1083 12.727 625 97.8752 1356.31 491.458
228 0 50.0492 13.3469 668 95.771 1355.91 489.731
229 0 51.0697 13.648 697 95.6284 1355.67 489.704
230 0 53.0338 13.5762 720 96.2903 1356.7 487.964
231 0 57.04 15.3752 877 91.862 1356.15 488.547
232 0 56.0863 13.8893 779 95.0064 1356.57 488.768
233 0 58.1589 16.2486 945 92.763 1356.6 486.083
234 0 59.0989 13.8581 819 97.6081 1356.93 486.652
235 0 62.1068 14.1208 877 97.1311 1356.55 485.133
236 0 64.211 14.5147 932 97.6974 1356.38 483.416
237 0 65.4342 14.656 959 97.8561 1356.37 483.576
238 0 69.3404 15.3302 1063 95.6143 1356.23 482.436
239 0 70.1689 14.3368 1006 98.1352 1356.64 481.693
240 0 75.2352 14.7138 1107 96.57 1356.49 479.395
241 1 38.1081 11.4936 438 95.3128 1357.31 500.002
242 0 39.0628 12.1343 474 96.1793 1356.96 498.39
243 0 40.0313 11.6409 466 94.8927 1357.06 499.227
244 0 40.0304 12.3656 495 94.7253 1357.06 497.105
245 0 41.0252 11.5051 472 95.0424 1357.31 496.28
246 0 45.0464 15.3841 693 86.6811 1356.63 495.823
247 0 45.0464 15.3841 693 124.485 1355.61 495.831
248 0 46.2443 15.0937 698 87.0272 1354.65 495.265
249 0 47.5496 13.7541 654 89.078 1353.52 494.121
250 0 47.3507 13.2627 628 90.4682 1352.97 492.782
251 0 50.2222 14.2766 717 88.4282 1353.35 491.056
252 0 50.2222 14.2367 715 137.248 1352.35 490.952
253 0 53.3057 13.0755 697 91.5997 1353.71 490.874
254 0 54.2077 13.725 744 91.7675 1353.48 488.784
255 0 56.2185 14.1946 798 91.302 1353.84 487.209
256 0 60.2816 16.4229 990 87.3293 1354.04 485.927
257 0 61.2433 16.165 990 88.8384 1353.72 484.682
258 0 61.3605 13.7385 843 93.2539 1354.38 484.336
259 0 63.2027 15.3949 973 90.5036 1354.92 481.634
260 0 66.3241 16.7209 1109 87.5437 1355.25 481.146
261 0 67.2756 14.9088 1003 91.9262 1354.82 481.447
262 0 71.2813 14.576 1039 91.8826 1354.91 478.219
263 0 74.1733 16.6097 1232 88.3044 1355.29 478.043
264 0 74.1733 16.2457 1205 154.246 1355.31 477.685
265 1 40.2216 12.0085 483 91.4803 1357.17 495.079
266 0 42.2038 11.4208 482 89.5 1357.58 496.888
267 0 44.0571 13.7776 607 89.3904 1358.6 494.488
268 0 45.095 12.5291 565 90.7929 1358.84 494.742
269 0 47.0463 13.2635 624 92.0929 1358.18 492.71
270 0 48.3472 13.0721 632 91.5285 1356.24 493.228
271 0 49.1062 14.6621 720 88.8014 1357.49 493.608
272 0 53.1379 15.5068 824 86.7257 1357.39 492.716
273 0 53.0902 14.7485 783 89.7944 1356.63 491.897
274 0 55.0928 15.2289 839 89.0608 1357.09 492.409
275 0 57.1789 16.3347 934 86.7184 1356.95 491.59
276 0 56.0592 14.4312 809 91.7404 1356.67 489.957
277 0 61.1236 14.0699 860 90.1233 1356.6 489.415
278 0 61.0781 14.2604 871 90.9816 1355.92 489.534
279 0 61.0781 14.3914 879 140.641 1354.89 489.538
280 0 67.0832 15.6075 1047 87.361 1355.07 487.602
281 0 67.3719 13.9673 941 92.6748 1353.94 483.01
282 0 72.2941 16.2531 1175 87.063 1353.65 483.604
283 0 73.2686 15.0132 1100 90.9391 1352.91 480.351
284 0 74.2317 15.7749 1171 90.5687 1352.52 479.496
285 1 38.2007 12.382 473 90.0486 1353.67 497.729
286 0 40.0915 11.6733 468 92.5107 1353.44 496.628
287 0 38.1526 8.57084 327 96.211 1353.98 497.829
288 0 40.1722 11.0773 445 92.7191 1354.63 496.978
289 0 43.218 12.9807 561 92.0927 1354.06 493.884
290 0 44.3511 13.4157 595 89.7345 1354.27 494.551
291 0 47.3643 15.2435 722 84.856 1354.39 494.485
292 0 49.2827 15.6039 769 85.8752 1354.94 490.585
293 0 48.3608 14.6193 707 89.2716 1354.69 490.829
294 0 50.1725 14.2708 716 88.9623 1355.08 491.149
295 0 54.2492 14.9127 809 88.3968 1355.49 489.443
296 0 55.2521 15.2935 845 89.4071 1355.12 487.321
297 0 55.2459 14.1549 782 92.1419 1355.57 489.184
298 0 58.2278 16.3324 951 89.2723 1357.24 487.312
299 0 60.0963 15.1923 913 91.3987 1357.55 487.411
300 0 60.1161 15.1706 912 93.1009 1356.97 487.07
301 0 66.5649 16.9609 1129 88.2143 1357.62 489.052
302 0 67.1742 15.5417 1044 92.3209 1357.4 486.801
303 0 70.3386 16.2358 1142 91.444 1356.64 486.7
304 0 73.3224 16.4479 1206 91.4851 1356.87 484.007
305 0 74.4516 16.0373 1194 93.5369 1356.21 482.238
306 1 35.1942 10.4563 368 97.0435 1356.25 502.378
307 0 38.3456 11.5267 442 96.7624 1356.41 500.921
308 0 38.3456 11.4485 439 155.437 1356.43 500.977
309 0 42.4052 13.7247 582 92.7612 1356.12 499.498
310 0 43.2424 13.0659 565 94.1381 1354.61 499.834
311 0 43.2599 13.2686 574 94.7439 1353.89 498.78
312 0 46.2971 12.9166 598 95.1756 1353.75 497.283
313 0 48.1956 14.0469 677 92.6027 1353.87 497.459
314 0 50.2995 13.7576 692 92.646 1353.36 495.897
315 0 50.2974 13.7582 692 154.184 1353.38 496.036
316 0 53.201 15.2253 810 89.4753 1353.7 494.436
317 0 52.3592 15.852 830 91.6446 1353.02 490.945
318 0 56.2791 15.1566 853 92.8581 1352.51 489.261
319 0 56.2045 14.892 837 93.2067 1353.45 490.078
320 0 58.3841 15.1582 885 93.3616 1353.07 486.859
321 0 60.2309 14.1124 850 94.7224 1353.7 486.841
322 0 61.2396 14.6474 897 93.7191 1353.6 485.368
323 0 66.3653 16.4845 1094 90.8154 1354.3 483.264
324 0 68.2095 14.822 1011 93.3986 1355.03 482.699
325 0 68.4473 15.0188 1028 94.607 1356.32 481.853
326 0 73.4591 15.9 1168 92.0214 1356.47 481.245
327 0 76.184 15.0163 1144 94.6311 1356.86 480.386
328 1 40.2341 13.0984 527 92.3454 1358.16 497.875
329 0 43.173 14.4998 626 91.0974 1357.5 497.565
330 0 44.3283 12.43 551 95.6261 1357.82 497.138
331 0 46.2272 14.0826 651 93.0507 1358.4 495.853
332 0 47.2592 14.2829 675 93.5141 1357.78 495.973
333 0 46.3505 14.3472 665 94.1534 1357.76 494.598
334 0 49.2972 15.3761 758 92.8562 1357.59 494.711
335 0 49.3701 13.0646 645 97.1209 1357.96 495.766
336 0 52.3454 12.7614 668 97.1332 1357.85 494.669
337 0 55.4921 15.1733 842 93.2708 1357.39 494.876
338 0 55.1437 13.6008 750 97.896 1356.37 494.46
339 0 59.1838 12.4696 738 89.9011 1355.77 490.822
340 0 59.1321 14.6621 867 98.0588 1354.35 488.87
341 0 62.313 15.3419 956 95.9351 1354.44 487.617
342 0 62.313 15.3098 954 144.656 1353.46 487.534
343 0 65.4563 16.0871 1053 96.301 1354.59 485.128
344 0 66.2366 14.6596 971 99.4243 1353.98 484.346
345 0 71.3497 15.3049 1092 97.8095 1353.65 481.8
346 1 34.1188 10.5221 359 100.337 1354.43 500.181
347 0 36.3092 11.2919 410 100.715 1353.62 499.066
348 0 40.2202 11.8348 476 98.3004 1352.66 498.128
349 0 38.3818 11.8806 456 102.294 1352.92 496.502
350 0 41.3879 13.7721 570 97.1123 1353.27 496.782
351 0 42.0883 13.4004 564 94.6879 1353.95 497.52
352 0 43.0971 13.5044 582 97.2526 1353.35 494.053
353 0 43.2935 14.5056 628 95.9538 1353.6 494.325
354 0 44.3736 14.0849 625 97.5424 1355.09 494.712
355 0 45.2323 14.5029 656 97.6098 1355.12 493.625
356 0 48.1711 14.3239 690 99.0348 1356.63 492.004
357 0 50.3149 14.608 735 97.5184 1357.05 492.713
358 0 50.2119 15.335 770 97.2883 1357.11 490.799
359 0 52.2671 14.9425 781 97.3649 1357.3 492.488
360 0 54.3394 15.0535 818 98.055 1357.27 491.344
361 0 54.3394 15.1455 823 152.796 1356.26 491.309
362 0 59.1668 15.8873 940 95.6521 1357.86 489.944
363 0 58.1704 15.042 875 99.3337 1358.08 489.343
364 0 62.2344 15.2006 946 97.8467 1358.06 488.942
365 0 62.2308 14.3337 892 101.436 1358.09 487.77
366 0 67.2064 15.6384 1051 97.2103 1358.03 488.286
367 0 68.1796 16.2219 1106 97.8101 1356.91 485.448
368 0 69.1686 14.761 1021 102.332 1356.38 485.633
369 0 73.2277 14.7622 1081 101.54 1355.93 486.027
370 0 73.2372 16.1803 1185 100.336 1355.57 483.679
371 1 40.0485 11.3113 453 105.503 1355.99 499.362
372 0 43.1045 12.7829 551 101.574 1354.87 500.08
373 0 44.142 11.7575 519 103.083 1354.51 498.586
374 0 44.1019 12.7432 562 103.865 1353.59 496.635
375 0 48.1374 14.9156 718 99.961 1353.12 495.214
376 0 49.0694 16.0996 790 96.9759 1352.95 492.995
377 0 51.0667 14.3734 734 99.9223 1352.54 492.707
378 0 52.1446 15.1693 791 101.005 1351.7 490.654
379 0 53.0362 15.0086 796 101.176 1353.06 490.474
380 0 56.0328 16.0977 902 98.5455 1353.49 489.578
381 0 56.2581 14.2913 804 102.336 1353.09 488.757
382 0 58.2345 15.6608 912 98.8695 1353.4 486.76
383 0 60.1928 15.4005 927 100.279 1353.81 485.924
384 0 64.15 14.9026 956 100.84 1355.35 486.052
385 0 64.1931 15.8272 1016 99.8543 1355.36 485.039
386 0 65.13 15.707 1023 101.426 1355.9 481.637
387 1 37.06 12.3314 457 100.05 1356.96 498.74
388 0 37.083 12.1349 450 101.089 1357.52 499.269
389 0 36.0217 9.99398 360 107.178 1358 498.978
390 0 37.0761 10.9504 406 106.308 1357.52 498.323
391 0 41.0409 14.0104 575 101.332 1358.12 496.816
392 0 43.073 14.3477 618 100.511 1357.77 497.405
393 0 44.1485 13.749 607 102.145 1358.43 496.142
394 0 46.167 14.1876 655 102.012 1358.06 496.602
395 0 47.2964 15.8575 750 100.743 1357.66 496.16
396 0 49.1481 14.3851 707 103.233 1357.72 496.079
397 0 51.1194 16.2365 830 100.057 1357.24 495.34
398 0 54.2401 15.7817 856 100.543 1356.76 496.513
399 0 54.1484 16.1224 873 101.887 1356.08 493.702
400 0 57.169 16.7573 958 99.9875 1356.4 493.239
401 0 57.2593 15.0543 862 104.466 1355.55 492.113
402 0 59.2361 16.0544 951 137.474 1354.56 490.717
403 0 64.1705 16.8925 1084 101.368 1355.02 487.064
