time division length width area intensity CMx CMy
0 0 39.141 14.6394 573 132.054 887.065 482.213
1 0 40.0862 13.0968 525 136.413 886.897 483.954
2 0 41.0662 15.9742 656 127.613 887.846 483.299
3 0 44.0989 15.4199 680 127.972 887.644 481.887
4 0 43.1139 15.2387 657 130.755 888.601 482.979
5 0 44.209 16.2637 719 128.396 889.232 481.46
6 0 46.2346 17.4544 807 123.848 888.986 482.059
7 0 46.2409 17.5819 813 155.558 889.025 482.151
8 0 45.1828 14.8729 672 136.08 888.408 480.08
9 0 49.1109 16.1878 795 126.624 888.242 480.113
10 0 49.1718 18.3845 904 123.125 887.722 478.69
11 0 51.1135 18.9383 968 121.436 886.829 477.401
12 0 51.0314 17.3619 886 127.946 886.275 476.995
13 0 55.1236 17.5061 965 124.569 887.636 478.25
14 0 55.2287 16.0062 884 132.541 887.613 476.347
15 0 56.2323 17.1432 964 129.646 888.469 476.408
16 0 55.3537 15.7171 870 134.855 889.066 475.825
17 0 57.3014 16.5441 948 132.75 888.344 474.318
18 0 57.3043 14.6935 842 140.088 888.051 474.958
19 0 60.2627 17.6394 1063 129.336 888.074 474.274
20 0 61.1449 16.7307 1023 130.713 887.358 473.533
21 0 63.1984 15.3485 970 133.136 887.473 473.009
22 0 67.4278 17.9303 1209 123.499 889.246 471.878
23 0 68.2684 17.0797 1166 126.425 888.806 470.633
24 0 69.2767 16.5857 1149 129.561 888.957 469.737
25 0 74.2156 17.9342 1331 124.893 888.92 469.669
26 0 76.222 18.0263 1374 124.474 887.678 467.209
27 1 40.0229 11.6183 465 135.378 889.837 486.385
28 0 41.0423 12.1095 497 135.364 889.668 483.901
29 0 41.0423 12.1095 497 180.606 889.668 483.899
30 0 44.1813 12.7203 562 134.509 891.165 481.473
31 0 45.0392 12.4336 560 133.284 891.77 481.488
32 0 46.1128 11.8622 547 135.084 891.082 480.325
33 0 49.0497 13.313 653 128.43 891.289 479.799
34 0 50.1649 13.934 699 129.378 891.296 477.305
35 0 52.1405 15.2856 797 127.177 891.21 476.447
36 0 53.3536 15.3879 821 127.27 892.289 475.027
37 0 55.3316 15.2354 843 126.257 892.689 475.915
38 0 56.1697 16.9308 951 120.657 892.777 476.971
39 0 59.2132 16.2126 960 121.54 892.192 475.509
40 0 60.2009 16.2622 979 121.884 892.265 473.81
41 0 63.1838 16.6182 1050 121.205 892.297 472.113
42 0 66.2252 16.1268 1068 119.983 892.29 472.541
43 0 67.1622 14.7702 992 124.147 892.464 470.799
44 0 71.1924 17.7266 1262 116.057 892.292 470.115
45 0 74.133 17.2123 1276 115.94 892.622 470.022
46 0 74.1497 16.3453 1212 120.448 892.821 468.073
47 0 77.1854 16.1041 1243 119.8 893.105 468.941
48 0 81.195 16.368 1329 119.691 893.41 466.567
49 0 83.3001 16.9268 1410 118.66 892.537 464.152
50 0 87.2286 16.13 1407 117.039 892.614 464.158
51 1 40.0677 11.0313 442 122.762 893.072 484.6
52 0 44.0311 12.8545 566 117.56 892.827 483.843
53 0 45.074 12.4684 562 118.404 891.988 482.002
54 0 50.0688 12.1033 606 116.782 890.985 481.34
55 0 50.1012 13.6324 683 115.086 891.138 480.382
56 0 52.1242 15.2329 794 112.922 891.026 478.101
57 0 53.2359 15.1777 808 113.637 892.554 478.233
58 0 54.1657 14.9356 809 114.833 892.289 475.99
59 0 57.2453 16.1585 925 110.362 892.625 475.003
60 0 60.1757 14.4577 870 113.232 892.487 474.786
61 0 62.2673 16.0758 1001 109.395 892.999 473.271
62 0 65.3968 14.8019 968 110.004 892.868 472.158
63 0 65.3107 15.143 989 114.087 893.282 469.557
64 0 67.1348 15.7444 1057 113.344 892.971 468.942
65 0 70.2824 14.769 1038 114.972 893.045 467.194
66 0 72.2009 14.5705 1052 114.132 893.807 468.243
67 0 74.256 15.2715 1134 113.053 893.657 464.254
68 0 77.2117 16.254 1255 111.399 893.904 463.718
69 0 80.1864 14.9153 1196 114.574 893.41 461.983
70 0 80.1283 14.6889 1177 115.715 893.125 462.065
71 0 85.1014 16.2747 1385 112.164 893.44 458.787
72 1 41.0286 9.74929 400 114.275 891.518 481.948
73 0 47.0244 11.6748 549 111.659 892.435 479.781
74 0 47.0398 12.0111 565 113.821 892.573 478.267
75 0 48.0302 12.3464 593 111.511 892.828 479.516
76 0 52.0864 14.1112 735 106.544 894.065 477.321
77 0 51.0994 12.5442 641 111.895 893.415 475.559
78 0 54.2409 15.0809 818 104.974 892.378 476.053
79 0 55.2563 14.5504 804 107.154 892.759 475.755
80 0 55.2169 13.5828 750 109.939 893.164 474.853
81 0 56.2315 12.4308 699 111.499 893.821 474.187
82 0 61.2853 15.3381 940 105.534 893.845 472.812
83 0 63.2058 14.2708 902 107.491 894.048 472.429
84 0 63.1936 12.9918 821 108.924 894.167 471.727
85 0 66.1732 13.8576 917 107.993 893.639 469.411
86 0 70.2344 14.1099 991 107.726 894.235 469.567
87 0 71.2837 13.8461 987 109.168 894.59 466.625
88 0 75.2941 13.9852 1053 107.639 894.478 466.679
89 0 79.2054 14.8222 1174 103.956 893.85 465.76
90 0 80.2149 13.8877 1114 106.925 894.553 464.212
91 0 84.3393 15.3902 1298 104.62 894.562 459.753
92 1 43.0891 9.23668 398 109.101 896.779 480.568
93 0 45.066 11.4055 514 104.335 896.097 480.724
94 0 45.0338 7.77194 350 109.446 896.977 480.669
95 0 49.0165 11.6899 573 104.239 896.852 478.839
96 0 48.0369 11.4079 548 106.181 896.909 477.672
97 0 52.0289 14.2805 743 98.6703 897.568 476.217
98 0 53.2171 12.5336 667 100.973 895.78 476.691
99 0 53.2029 14.1158 751 101.353 895.726 475.302
100 0 54.3287 14.2098 772 101.259 896.187 473.895
101 0 55.208 13.748 759 102.542 896.759 474.082
102 0 59.2382 13.0659 774 100.973 896.397 473.934
103 0 62.2065 12.9568 806 101.644 895.203 473.295
104 0 65.1326 14.4628 942 97.5711 896.036 472.546
105 0 64.3446 12.1222 780 106.214 896.522 470.536
106 0 68.1962 14.385 981 102.709 896.947 468.662
107 0 71.397 16.3312 1166 98.4005 897.376 468.434
108 0 73.1502 15.1743 1110 102.499 896.437 466.81
109 0 75.3067 14.6866 1106 104.472 897.241 466.034
110 0 77.1155 14.9775 1155 105.244 896.906 463.888
111 0 77.1441 13.9998 1080 107.887 896.215 464.225
112 0 82.1465 15.3993 1265 104.303 896.289 461.621
113 0 87.2938 15.087 1317 104.227 895.283 460.604
114 1 47.0348 10.843 510 103.982 896.775 482.853
115 0 49.1321 10.9094 536 104.679 896.19 482.142
116 0 49.0613 11.8016 579 103.632 896.026 480.693
117 0 50.0602 11.7858 590 103.837 895.368 480.283
118 0 51.0819 10.9628 560 100.362 895.838 480.743
119 0 52.2494 13.0911 684 97.9152 894.414 478.402
120 0 56.1394 13.7693 773 95.969 893.978 477.987
121 0 54.3004 11.1049 603 103.176 893.279 477.156
122 0 59.1558 15.3155 906 94.6137 893.371 475.532
123 0 61.1968 14.723 901 95.9945 893.705 474.699
124 0 62.1821 12.4152 772 101.665 893.707 472.887
125 0 62.1821 12.3347 767 151.368 893.699 472.883
126 0 67.2315 14.1898 954 97.6614 894.57 470.144
127 0 70.2665 14.0465 987 99.8288 894.461 468.919
128 0 71.2532 12.6872 904 103.407 894.489 467.937
129 0 76.2079 14.631 1115 99.1049 894.432 468.165
130 0 77.2019 14.339 1107 101.306 894.278 465.192
131 0 80.3002 13.6114 1093 103.176 894.514 464.773
132 0 82.2421 14.9315 1228 100.638 894.389 464.037
133 0 85.2745 15.7374 1342 98.3838 895.472 461.216
134 0 87.188 16.1031 1404 97.9587 895.802 459.155
135 0 88.2612 13.5394 1195 103.55 895.756 460.312
136 0 92.2779 14.8898 1374 101.478 896.235 457.969
137 0 93.2266 13.8158 1288 104.442 895.643 459
138 0 98.3856 14.8294 1459 102.298 895.465 457.693
139 0 99.2894 15.198 1509 101.755 896.015 453.157
140 0 103.198 16.2212 1674 100.582 896.179 454.67
141 0 103.265 13.9544 1441 106.166 895.282 455.846
142 0 107.237 14.1275 1515 106.035 894.245 454.754
143 0 109.367 16.6503 1821 100.544 894.009 453.974
144 0 111.408 14.6848 1636 105.642 893.523 449.598
145 1 58.3476 11.9628 698 104.112 894.367 478.987
146 0 63.2269 11.1978 708 107.297 893.746 475.284
147 0 63.3721 12.3083 780 106.292 894.656 474.963
148 0 68.3573 11.674 798 106.491 894.076 474.909
149 0 68.2944 12.1679 831 108.746 893.485 472.41
150 0 69.4226 13.7419 954 104.713 893.776 473.789
151 0 72.2767 14.3061 1034 105.803 893.01 471.111
152 0 73.2955 13.3296 977 109.706 893.228 471.32
153 0 75.2965 13.8652 1044 108.318 893.256 470.436
154 0 75.2681 11.7314 883 113.624 892.871 469.669
155 0 76.4872 12.4727 954 111.352 893.01 470.612
156 0 77.2826 14.0135 1083 108.986 893.09 469.175
157 0 79.4006 13.5767 1078 111.435 892.13 466.549
158 0 81.3708 12.228 995 114.135 893.612 466.758
159 1 48.0887 10.3559 498 110.155 895.558 482.892
160 0 48.104 11.0178 530 112.919 896.16 481.447
161 0 49.044 10.4804 514 115.411 895.992 481.051
162 0 53.0673 10.0627 534 114.91 896.393 481.313
163 0 50.1141 10.1369 508 117.606 896.205 481.175
164 0 50.0682 10.8452 543 116.853 896.136 479.576
165 0 49.0951 10.0621 494 119.451 896.3 480.828
166 0 49.0951 10.1028 496 155.599 896.3 480.847
167 0 52.1407 9.99219 521 119.77 895.186 480.175
168 0 52.1952 11.5336 602 118.439 895.972 477.449
169 0 52.151 10.4696 546 121.826 895.835 479.156
170 0 54.2291 12.2443 664 119.375 895.836 477.508
171 0 55.199 12.2647 677 119.118 895.716 478.499
172 0 56.1605 13.1409 738 117.241 895.06 477.53
173 0 56.1605 13.1409 738 153.199 893.083 477.53
174 0 57.0868 11.7716 672 119.99 894.835 480.1
175 0 55.0403 13.0995 721 114.688 894.775 479.133
