time division length width area intensity CMx CMy
0 0 27.1635 10.6393 289 112.522 1265.8 488.799
1 0 28.1145 10.9196 307 112.313 1266.08 488.153
2 0 27.1236 10.6918 290 117.931 1267.1 487.79
3 0 29.0156 10.5116 305 110.78 1266.76 490.243
4 0 29.0039 11.2399 326 111.816 1267.51 488.813
5 0 31.0285 11.0866 344 114.195 1268.73 488.561
6 0 33.0674 12.7316 421 106.176 1268.07 488.285
7 0 33.0674 12.7921 423 149.626 1267.09 488.34
8 0 31.0227 13.3773 415 106.942 1267.43 488.231
9 0 30.0063 12.0975 363 108.226 1267.04 488.708
10 0 31.0123 13.7687 427 104.344 1266.43 488.527
11 0 32.0054 12.4354 398 109.058 1265.52 486.256
12 0 35.1561 14.2507 501 102.156 1264.19 487.032
13 0 36.1558 13.912 503 102.066 1265.56 486.268
14 0 35.1789 12.3654 435 107.508 1264.88 486.168
15 0 35.0654 14.2591 500 104.84 1265.99 484.692
16 0 36.0058 13.8033 497 105.71 1267.61 485.571
17 0 38.0211 14.2553 542 104.53 1267.06 484.917
18 0 41.0452 15.0322 617 101.574 1266.82 485.715
19 0 41.0219 13.9925 574 104.829 1266.62 483.99
20 0 41.032 13.721 563 107.487 1265.82 483.082
21 0 43.0742 13.9062 599 103.573 1265.8 483.15
22 0 44.0507 15.3005 674 103.26 1267.6 481.678
23 0 45.1027 13.4803 608 106.008 1267.19 482.128
24 0 48.1887 15.8336 763 98.9948 1266.37 482.616
25 0 49.0292 15.7253 771 101.464 1267.36 480.613
26 0 49.0919 16.2349 797 101.897 1266.27 479.669
27 0 47.0437 13.8382 651 108.957 1267.3 480.131
28 0 50.2133 15.4939 778 106.195 1267.47 476.748
29 0 51.2203 15.404 789 151.98 1267.5 476.901
30 0 54.0625 15.4821 837 104.925 1269 476.384
31 0 56.3052 15.5048 873 104.55 1268.56 473.107
32 0 56.2479 14.8806 837 106.213 1268.03 474.092
33 0 58.1967 15.7225 915 103.024 1269.05 473.455
34 0 58.2962 15.0439 877 105.814 1269.33 471.961
35 0 61.0976 14.9597 914 106.329 1269.07 471.382
36 0 63.1199 16.128 1018 102.753 1269.6 471.734
37 0 68.2824 16.6222 1135 100.092 1269.89 470.872
38 0 69.2047 15.129 1047 103.796 1269.86 467.479
39 0 72.1516 16.8118 1213 99.2811 1269.57 468.253
40 0 73.2158 16.4172 1202 100.589 1269.38 466.688
41 1 39.143 12.9525 507 103.312 1270.21 483.564
42 0 39.1029 12.3776 484 103.283 1270.11 484.88
43 0 40.0843 10.6027 425 107.099 1270.49 484.221
44 0 42.1288 10.9426 461 104.727 1270.31 485.416
45 0 45.1705 12.5525 567 102.746 1270.5 483.471
46 0 44.1602 14.5606 643 102.142 1270.58 481.681
47 0 45.3056 12.3164 558 106.427 1270.91 479.299
48 0 48.1785 13.7198 661 102.723 1271.24 480.617
49 0 50.1517 14.7154 738 100.131 1270.54 479.08
50 0 52.2677 13.2587 693 101.662 1270.16 478.413
51 0 53.1712 15.3278 815 98.2822 1269.99 478.233
52 0 56.2537 15.039 846 97.6797 1270.05 476.713
53 0 59.2185 15.5357 920 95.712 1270.28 477.818
54 0 60.1308 15.4497 929 96.9763 1269.22 475.589
55 0 61.2226 16.2522 995 96.7568 1269.06 474.455
56 0 62.1614 14.6393 910 101.355 1268.76 473.299
57 0 65.152 15.7324 1025 100.376 1269.78 471.603
58 0 69.1595 15.11 1045 101.483 1269.54 470.059
59 0 70.2222 15.8355 1112 100.159 1269.83 469.561
60 0 72.3593 14.3865 1041 103.623 1269.66 467.961
61 0 76.111 15.8847 1209 100.395 1270.17 466.004
62 0 76.2598 14.608 1114 102.059 1270.05 465.92
63 0 80.1535 15.9444 1278 103.39 1270.35 461.425
64 0 81.1869 14.8669 1207 105.959 1270.08 461.961
65 1 44.0255 11.675 514 105.683 1270.87 479.981
66 0 47.076 12.7241 599 103.055 1271.51 479.863
67 0 47.0151 11.4219 537 103.955 1271.61 479.987
68 0 48.0577 10.7787 518 105.452 1271.61 480.429
69 0 49.0382 8.87064 435 108.637 1271.46 481.285
70 0 52.055 13.4665 701 103.459 1270.84 477.131
71 0 54.0676 14.2229 769 103.008 1271.33 476.97
72 0 56.1351 15.3024 859 101.346 1268.77 475.357
73 0 57.2119 14.5249 831 102.81 1269.15 476.108
74 0 58.3016 13.3444 778 107.707 1269.45 474.305
75 0 62.1557 15.252 948 102.265 1269.64 473.631
76 0 64.2 14.2056 912 105.089 1270.66 472.079
77 0 66.196 14.7139 974 104.01 1269.83 472.324
78 0 68.2482 16.1909 1105 100.88 1269.43 470.167
79 0 70.191 14.3751 1009 105.512 1269.74 469.599
80 0 71.163 14.0101 997 106.06 1270.1 469.047
81 0 77.1077 16.2889 1256 98.6473 1271.13 467.693
82 0 76.195 13.9379 1062 105.67 1271.08 466.227
83 0 80.1937 14.6271 1173 103.75 1271.36 461.348
84 0 85.2566 15.0252 1281 100.496 1271.48 462.429
85 0 86.2403 14.9002 1285 101.825 1271.07 462.019
86 0 89.2133 15.5246 1385 102.92 1271.54 459.009
87 1 49.0686 11.5552 567 100.822 1272.96 481.504
88 0 51.0598 12.3385 630 98.6667 1272.78 480.603
89 0 51.1401 12.808 655 98.858 1272.05 478.988
90 0 53.2133 11.9707 637 102.52 1271.66 477.796
91 0 53.2224 12.2693 653 101.429 1270.99 478.311
92 0 55.1771 12.3058 679 97.5847 1271.7 477.694
93 0 55.033 13.7735 758 98.1794 1272.41 475.22
94 0 60.1597 13.5306 814 97.4951 1273.16 473.817
95 0 62.0457 13.3611 829 98.1834 1273.13 473.171
96 0 62.1013 15.1366 940 96.7319 1272.94 472.506
97 0 62.2246 13.4673 838 100.841 1273.48 469.393
98 0 64.2445 12.2034 784 102.758 1273 472.228
99 0 67.1197 14.422 968 101.329 1273.02 468.893
100 0 70.2329 14.7652 1037 100.106 1273.58 469.936
101 0 73.1078 16.0311 1172 98.3413 1274.1 466.781
102 0 75.4527 14.9498 1128 100.254 1273.35 466.601
103 0 78.4237 16.5384 1297 97.7255 1272.33 466.168
104 0 80.257 15.1638 1217 99.6368 1272.81 466.361
105 0 84.1806 15.2529 1284 100.228 1273.81 463.4
106 0 85.2049 15.1752 1293 102.701 1274.13 461.394
107 1 47.2889 12.4554 589 102.138 1274.44 480.715
108 0 47.371 10.7028 507 106.515 1273.92 480.278
109 0 49.1769 11.9365 587 104.014 1274.75 480.942
110 0 50.2683 13.05 656 102.316 1274.78 478.806
111 0 51.4613 11.8536 610 101.431 1274.18 479.411
112 0 54.2291 12.7054 689 101.287 1274.02 477.023
113 0 55.3437 12.0881 669 102.701 1272.95 476.664
114 0 56.0908 12.9433 726 101.472 1274.18 478.043
115 0 58.0782 12.6726 736 102.175 1273.14 475.42
116 0 60.1912 11.5465 695 103.804 1273.23 473.842
117 0 63.0894 14.4557 912 97.7708 1272.7 474.353
118 0 63.0478 12.9267 815 99.5975 1272.44 474.184
119 0 67.2395 12.7901 860 99.1081 1272.5 471.847
120 0 67.2501 13.5464 911 99.1833 1271.88 470.443
121 0 72.1674 13.7735 994 97.6569 1271.54 471.099
122 0 74.1353 14.2577 1057 97.5279 1271.59 467.943
123 0 75.2349 14.036 1056 98.947 1272.09 464.583
124 0 79.271 14.873 1179 97.8151 1271.9 465.266
125 0 80.2537 14.4915 1163 136.092 1273.88 465.353
126 1 42.1391 9.99072 421 97.0048 1272.88 484.228
127 0 45.1276 10.149 458 99.6703 1272.55 482.092
128 0 47.1331 11.6479 549 97.2769 1272.81 480.88
129 0 48.1308 11.074 533 97.6266 1272.26 482.265
130 0 51.1912 12.7952 655 96.3511 1272.2 478.562
131 0 50.1975 11.6938 587 99.2266 1272.78 479.191
132 0 53.3133 13.6364 727 95.9684 1272.08 476.528
133 0 56.1861 14.7545 829 91.9674 1273.22 474.947
134 0 57.153 13.875 793 93.4666 1273.45 473.816
135 0 58.1943 16.3246 950 89.6126 1273.41 473.809
136 0 59.3861 13.3196 791 94.2756 1273.77 473.67
137 0 60.1334 13.4867 811 94.9396 1273.33 472.535
138 0 62.3967 13.2379 826 94.8317 1273.28 472.872
139 0 64.3121 14.3052 920 93.6467 1273.5 471.789
140 0 66.3416 13.4305 891 95.211 1272.74 470.406
141 0 71.401 15.1678 1083 91.5706 1272.68 468.845
142 0 72.5188 14.4928 1051 94.0381 1271.82 466.094
143 0 72.6873 13.6613 993 95.2266 1271.14 466.026
144 0 78.8435 14.8142 1168 93.3433 1270.67 461.76
145 0 79.6243 14.2168 1132 95.0795 1270.67 463.845
146 0 79.6243 14.1791 1129 151.547 1269.67 463.823
147 0 85.5839 15.4352 1321 93.8562 1271.25 457.514
148 0 89.8541 15.0689 1354 93.8715 1270.79 457.826
149 0 93.6637 14.8937 1395 94.8172 1270.7 454.225
150 0 98.5215 15.6819 1545 92.3398 1270.68 457.175
151 1 53.5843 10.992 589 95.1307 1270.6 476.949
152 0 53.1715 11.6416 619 96.3086 1271.56 475.698
153 0 56.345 12.175 686 95.7901 1271.55 476.453
154 0 59.2893 12.886 764 92.8796 1271.18 476.168
155 0 62.1725 12.2401 761 94.7714 1271.37 475.565
156 0 62.232 13.1283 817 95.1909 1271.19 472.919
157 0 64.4158 13.3508 860 94.7337 1269.69 472.629
158 0 67.2976 13.6706 920 94.6772 1270.85 469.557
159 0 71.3351 14.8314 1058 90.811 1270.89 468.352
160 0 73.2453 13.7483 1007 93.9742 1271.04 467
161 0 74.3566 16.004 1190 91.3807 1270.89 465.014
162 0 75.4047 12.9302 975 97.8103 1271.25 464.885
163 0 80.4549 15.4994 1247 92.7642 1270.87 463.617
164 0 82.4443 14.1914 1170 95.7231 1271 461.925
165 0 85.3591 14.234 1215 96.479 1270.99 459.614
166 0 85.3591 14.2691 1218 139.167 1272 459.745
167 0 92.4198 14.9751 1384 94.5947 1270.02 458.349
168 0 93.2394 14.2858 1332 97.3018 1271.06 455.681
169 1 48.1085 8.91734 429 99.5944 1271.88 478.814
170 0 53.1538 10.5731 562 95.7011 1271.77 479.591
171 0 52.1997 8.92725 466 98.7403 1271.58 480.751
172 0 54.2671 10.8353 588 98.0799 1270.86 476.854
173 0 54.2671 10.909 592 134.787 1269.88 476.792
174 0 59.0706 10.5636 624 98.5048 1270.86 479.111
175 0 61.164 12.9324 791 96.622 1271.27 476.487
176 0 62.1366 11.7644 731 98.6279 1271.41 475.982
177 0 65.0645 13.8632 902 95.5554 1271.36 474.516
178 0 67.203 12.4548 837 99.0299 1271.22 473.216
179 0 69.2259 13.2898 920 98.2283 1270.97 473.172
180 0 69.2259 13.4198 929 146.278 1270.97 473.222
181 0 73.2827 13.4138 983 100.901 1270.53 468.967
182 0 76.3472 14.2114 1085 98.6995 1270.09 468.456
183 0 80.494 15.1191 1217 97.1249 1269.49 466.61
184 0 82.3215 15.2451 1255 96.9036 1268.71 466.634
185 0 83.4525 14.1158 1178 101.595 1268.49 463.654
186 0 88.537 15.9594 1413 97.4926 1268.98 462.877
187 0 90.4467 17.4578 1579 96.4693 1268.57 459.874
188 0 91.6621 14.8589 1362 102.419 1267.83 459.147
189 0 94.4567 14.2817 1349 103.958 1267.82 456.269
190 0 94.4567 14.2287 1344 154.522 1267.81 456.172
191 0 101.507 15.8708 1611 102.018 1268.26 453.807
192 1 52.1793 10.0231 523 101.27 1269.72 480.843
193 0 56.1705 12.7647 717 98.0823 1269.68 477.301
194 0 57.1929 12.0994 692 99.6171 1269.85 475.704
195 0 60.1268 12.1576 731 99.2777 1270.55 476.097
196 0 59.0294 11.6044 685 102.873 1269.79 474.064
197 0 62.4093 13.0589 815 100.156 1270.19 473.595
198 0 66.207 14.3489 950 99.4958 1270.97 470.818
199 0 68.3086 13.7318 938 99.7878 1270.7 471.369
200 0 69.1658 14.1399 978 100.128 1270.54 467.749
201 0 71.2466 13.362 952 101.736 1270.97 467.4
202 0 73.1985 14.2216 1041 100.246 1270.49 467.439
203 0 75.5675 12.598 952 102.5 1270.12 467.697
204 0 78.1712 15.0823 1179 98.5835 1270.2 466.951
205 0 82.3886 14.5287 1197 98.9783 1269.74 465.257
206 0 83.3625 14.263 1189 99.1354 1269.88 464.487
207 0 85.5619 15.7781 1350 96.4867 1269.69 463.781
208 0 87.5403 13.6394 1194 99.6323 1269.18 462.925
209 0 90.3221 14.3708 1298 99 1269.31 460.478
210 0 94.4348 14.9415 1411 97.5578 1269.42 457.496
211 0 97.3868 13.7801 1342 100.004 1269.37 457.349
212 1 54.2846 8.41859 457 97.1554 1269.61 483.039
213 0 56.1873 12.7431 716 93.433 1269.63 478.804
214 0 57.1949 11.557 661 94.6188 1269 477.648
215 0 56.1478 12.0575 677 95.2216 1268.36 474.263
216 0 59.1842 13.5002 799 92.5732 1267.21 474.159
217 0 60.2696 13.3235 803 91.8331 1267.35 476.042
218 0 62.0745 13.7577 854 92.2635 1266.67 473.55
219 0 65.1934 14.0045 913 91.7141 1266.49 470.816
220 0 66.2523 12.6788 840 94.244 1267.25 470.554
221 0 69.1609 13.3891 926 92.2225 1267.3 470.918
222 0 71.1876 14.1598 1008 91.5079 1267.51 468.642
223 0 73.2018 12.4587 912 94.4594 1267.11 468.204
224 0 74.2458 13.9402 1035 93.0126 1268.09 466.271
225 0 76.1987 12.9792 989 95.2912 1269.26 465.206
226 0 79.2924 14.1754 1124 93.048 1269.35 461.849
227 0 82.196 14.5871 1199 92.4229 1269.11 462.485
228 0 82.196 14.5263 1194 139.587 1269.1 462.45
229 0 87.1945 13.3839 1167 94.7112 1268.63 460.276
230 0 91.3357 13.007 1188 94.8737 1269.51 459.753
231 1 49.0136 11.1602 547 90.6856 1269.94 480.775
232 0 48.0549 10.4464 502 91.759 1269.98 481.12
233 0 51.1126 11.8757 607 91.6573 1270.21 479.787
234 0 52.0963 12.9568 675 90.7067 1271.04 477.784
235 0 53.0902 13.7879 732 89.7213 1270.6 476.735
236 0 54.0402 11.7505 635 93.5039 1271.51 478.91
237 0 56.0179 12.3175 690 92.9696 1271.98 479.248
238 0 58.1201 12.8527 747 84.4659 1271.71 476.56
239 0 61.0478 14.0218 856 91.1986 1271.84 477.533
240 0 63.0236 15.042 948 91.3006 1271.32 474.044
241 0 65.0981 13.5334 881 95.1805 1270.34 474.717
242 0 69.0787 15.0842 1042 92.8973 1269.72 473.425
243 0 71.1208 14.7214 1047 94.6791 1269.62 471.065
244 0 74.1677 13.8605 1028 95.1663 1269.92 471.316
245 0 77.0922 15.3582 1184 93.1208 1269.85 469.837
246 0 80.1262 16.474 1320 91.4705 1269.51 467.983
247 1 45.0396 11.0125 496 91.875 1268.59 487.165
248 0 45.0116 10.8416 488 96.6742 1267.96 484.061
249 0 45.0179 9.70725 437 96.2952 1267.1 487.128
250 0 46.0379 10.9692 505 98.1129 1268.46 481.663
251 0 46.0409 11.0337 508 144.128 1268.47 481.687
252 0 50.1978 13.3472 670 95.7522 1267.72 480.609
253 0 51.0497 12.8894 658 97.848 1268.96 479.72
254 0 52.027 12.3013 640 99.2297 1269.15 478.797
255 0 54.0729 13.0564 706 97.915 1268.68 479.796
256 0 55.0345 12.5558 691 99.2865 1268.85 478.499
257 0 58.0822 14.0146 814 96.7346 1268.67 476.713
258 0 59.1086 13.5683 802 97.7307 1269.48 476.06
259 0 59.1086 13.5344 800 146.994 1270.5 476.098
260 0 62.0497 13.2152 820 99.7793 1270.45 472.367
261 0 66.1537 14.6628 970 95.3031 1270.45 472.648
262 0 68.0641 15.2209 1036 95.9141 1270.75 469.133
263 0 70.0613 16.2001 1135 93.6044 1269.97 470.735
264 0 72.2155 14.4429 1043 96.9348 1270.98 470.343
265 0 75.1957 14.6019 1098 96.786 1270.5 468.526
266 0 77.1853 14.4328 1114 97.6149 1270.92 467.448
267 0 78.2666 14.3356 1122 98.7442 1270.32 465.221
268 0 81.1154 12.8829 1045 101.757 1270.66 465.016
269 1 44.0558 10.2824 453 100.329 1271.6 483.978
270 0 45.0665 9.76334 440 100.195 1271.29 485.139
271 0 50.0409 12.4099 621 95.0741 1271.62 484.274
272 0 49.1046 13.1556 646 95.8916 1271.73 481.574
273 0 50.0822 13.2582 664 135.679 1271.77 481.943
274 0 54.2138 13.8526 751 92.6977 1271.4 482.518
275 0 54.4008 14.1358 769 93.4668 1269.49 481.692
276 0 56.2054 12.8457 722 96.5457 1268.76 480.051
277 0 58.3416 15.1007 881 91.8967 1268.33 478.947
278 0 60.0819 12.5662 755 95.7934 1267.4 480.57
279 0 61.2813 14.0173 859 94.3702 1267.54 477.983
280 0 62.2138 13.6626 850 95.3706 1267.11 475.921
281 0 66.3769 14.8696 987 91.4752 1267.46 474.515
282 0 67.3936 14.4079 971 93.4295 1267.31 472.526
283 0 69.3222 14.3533 995 93.1095 1267.23 473.069
284 0 71.3788 13.3793 955 95.8628 1267.44 471.53
285 0 74.187 13.6412 1012 95.0514 1267.48 469.118
286 0 74.2341 12.8243 952 97.0903 1267.06 467.175
287 0 77.2521 14.1226 1091 94.8249 1266.83 466.544
288 0 79.3144 12.898 1023 96.7449 1266.46 463.555
289 0 84.1672 14.7088 1238 93.4887 1266.42 461.036
290 1 48.0489 12.3208 592 92.027 1267.39 480.211
291 0 48.2908 9.50491 459 95.9673 1267.32 479.954
292 0 47.1253 12.5622 592 92.8834 1268.52 478.27
293 0 50.0664 13.0626 654 90.6728 1269.76 479.365
294 0 51.0561 11.5363 589 93.601 1270.34 477.474
295 0 52.0658 12.926 673 92.2065 1270.83 477.238
296 0 55.0964 12.705 700 90.94 1271.9 478.356
297 0 55.1184 12.3552 681 93.6285 1272.05 477.756
298 0 56.3621 12.9875 732 91.2432 1271.02 477.876
299 0 58.2779 13.1954 769 91.8622 1271.24 476.892
300 0 62.3489 13.1518 820 90.8695 1272.03 476.73
301 0 62.3602 13.3739 834 92.9928 1271.42 474.906
302 0 65.4608 12.8627 842 93.9596 1270.81 474.758
303 0 67.166 14.2781 959 92.8634 1270.66 473.112
304 0 70.1549 15.0952 1059 91.204 1270.36 473.177
305 0 70.2519 14.8181 1041 93.9942 1269.99 472.451
306 0 72.2267 14.1499 1022 97.0538 1270.05 469.676
307 0 75.1894 13.3396 1003 99.1715 1270.38 470.324
308 0 78.336 14.7314 1154 96.4627 1269.96 472.049
309 0 80.2183 14.3857 1154 99.214 1269.83 469.076
310 0 84.407 16.7996 1418 95.0684 1268.98 466.98
311 0 86.2202 14.8805 1283 99.689 1268.18 464.761
312 0 89.4316 15.5985 1395 98.6344 1267.81 464.237
313 0 90.2946 15.2501 1377 99.8845 1267.22 459.85
314 0 95.4544 17.1076 1633 96.0196 1266.96 461.31
315 0 96.1622 15.9938 1538 99.8797 1266.67 456.917
316 1 52.0808 13.1911 687 96.3974 1266.62 482.412
317 0 52.1239 10.8588 566 101.998 1266.02 480.32
318 0 54.1437 12.4668 675 98.4889 1267.07 480.073
319 0 56.0771 12.3223 691 99.4718 1267.9 477.051
320 0 58.1736 12.6174 734 101.992 1268.73 473.589
321 0 62.0988 13.5912 844 97.5154 1268.46 475.839
322 0 63.1135 13.6579 862 98.0568 1268.85 472.19
323 0 64.1748 13.6346 875 99.7577 1269.31 473.207
324 0 65.2516 13.7008 894 100.185 1269.76 469.993
325 0 70.209 15.5963 1095 95.9406 1270.51 471.15
326 0 73.3293 14.9054 1093 97.0018 1270.62 470.915
327 0 74.1975 16.2135 1203 96.882 1270.49 467.148
328 0 77.3073 14.7981 1144 99.1469 1271.11 467.873
329 0 79.2674 15.618 1238 97.7375 1270.67 466.822
330 0 80.2948 14.4094 1157 101.023 1271.26 465.501
331 0 84.3719 14.4953 1223 101.809 1271.7 463.802
332 0 84.3719 14.3768 1213 157.758 1271.68 463.624
333 1 47.1439 10.9452 516 100.818 1272.2 482.07
334 0 49.0427 11.2963 554 98.5433 1272.37 483.751
335 0 51.0506 11.6943 597 98.2647 1272.49 481.782
336 0 51.1044 11.9363 610 98.3639 1270.75 483.751
337 0 52.2369 12.3284 644 99.4317 1269.86 483.012
338 0 54.1787 13.5108 732 96.9167 1269.16 481.736
339 0 57.3622 13.807 792 95.9545 1269.67 480.471
340 0 57.1996 13.7239 785 97.5503 1268.94 480.703
341 0 61.3083 13.2935 815 97.384 1269.35 478.102
342 0 62.3171 12.2759 765 99.9804 1269.09 476.525
343 0 65.269 14.264 931 96.3448 1269.17 475.586
344 0 66.2721 13.2333 877 98.984 1267.15 474.138
345 0 69.2864 14.2597 988 97.0091 1266.97 472.074
346 0 70.3802 13.1713 927 99.9299 1267.33 470.21
347 0 72.2943 12.5321 906 100.609 1266.92 470.198
348 0 74.2279 13.5798 1008 99.3542 1267.54 468.227
349 1 45.0116 9.73083 438 101.425 1268.17 483.395
350 0 45.0727 9.54015 430 100.823 1267.61 483.933
351 0 45.0451 11.2998 509 100.079 1267.61 480.605
352 0 47.178 11.9547 564 98.2323 1268.25 479.236
353 0 49.0426 12.0508 591 95.7631 1268.08 479.293
354 0 49.0469 12.0701 592 132.682 1268.09 479.287
355 0 52.1592 13.1712 687 93.7627 1269.37 479.434
356 0 54.1828 14.5987 791 91.7965 1270.47 477.798
357 0 54.3592 11.3504 617 96.3241 1270.83 479.893
358 0 57.2069 14.2116 813 92.4391 1271.23 476.59
359 0 57.2069 14.1417 809 136.705 1272.23 476.592
360 0 60.1076 15.7052 944 90.66 1271.8 475.211
361 0 62.295 14.1905 884 92.905 1272.17 474.64
362 0 63.167 13.583 858 96.176 1271.74 475.791
363 0 67.2001 15.5208 1043 91.2081 1273.39 472.937
364 0 69.1505 15.112 1045 91.2268 1273.09 473.693
365 0 70.1044 13.6511 957 94.652 1273.02 472.147
366 0 74.23 15.452 1147 90.8718 1272.91 472.129
367 0 77.2404 15.0957 1166 91.7753 1272.41 470.848
368 0 78.2073 13.0806 1023 95.8514 1272.62 470.85
369 1 42.0418 9.06241 381 94.6667 1272.88 490.252
370 0 42.0218 9.13812 384 93.6302 1271.9 490.341
371 0 44.0538 9.42029 415 93.6602 1270.99 489.639
372 0 43.0699 11.3304 488 93.7172 1269.85 486.699
373 0 47.0689 10.8352 510 91.7922 1269.25 486.237
374 0 48.0738 12.8968 620 87.75 1268.37 485.005
375 0 50.0514 14.1854 710 85.0986 1266.01 484.913
376 0 49.0191 12.3217 604 88.356 1267.65 483.69
377 0 51.1076 12.8161 655 85.9908 1267.39 484.76
378 0 51.0647 13.4144 685 88.3708 1267.64 480.461
379 0 54.1562 13.738 744 87.4153 1267.85 480.243
380 0 54.0304 11.1604 603 92.0614 1267.67 479.567
381 0 58.0655 13.2437 769 89.0169 1267.21 479.26
382 0 57.1357 11.8315 676 92.4186 1266.4 477.228
383 0 59.0322 12.8404 758 92.1544 1266.74 476.303
384 0 62.0495 14.3112 888 88.7455 1267.78 478.809
385 0 62.1085 12.8807 800 93.3138 1268.06 474.872
386 0 65.2029 14.0485 916 90.6659 1268.67 476.129
387 0 65.1022 13.2868 865 93.2647 1270.05 472.376
388 0 68.1832 13.933 950 91.6789 1271.25 474.305
389 0 73.0996 14.6102 1068 89.2678 1271.28 474.364
390 0 74.2522 14.1679 1052 91.5684 1271.61 473.382
391 0 75.152 13.2265 994 93.5604 1272.41 472.498
392 0 79.2142 14.505 1149 92.4822 1272.35 468.398
393 0 82.2255 13.6089 1119 94.0232 1272.86 469.244
394 1 47.1689 11.9782 565 92.1009 1271.56 487.823
395 0 46.117 9.95294 459 95.9586 1270.85 487.253
396 0 48.2297 11.5489 557 94.0054 1271.32 488.673
397 0 50.2161 11.5103 578 94.8408 1270.92 487.991
398 0 52.4156 13.4693 706 93.7578 1269.71 486.551
399 0 54.057 13.6337 737 93.1872 1271.35 485.533
400 0 53.1153 14.365 763 94.0865 1270.89 483.872
401 0 56.1047 12.0132 674 96.7196 1270.62 485.987
402 0 57.2204 11.4819 657 99.6606 1269.65 482.289
