time division length width area intensity CMx CMy
0 0 40.482 13.611 551 126.109 1114.65 481.187
1 0 44.4398 13.0288 579 126.38 1114.51 480.299
2 0 45.3013 15.0106 680 120.843 1115.44 480.069
3 0 45.3889 14.9156 677 120.845 1115.03 478.589
4 0 46.5799 14.1907 661 129.548 1115.76 478.902
5 0 48.4677 13.6379 661 130.461 1116.28 479.655
6 0 48.462 15.5999 756 126.44 1115.7 477.672
7 0 48.462 15.5999 756 165.021 1115.7 477.672
8 0 51.3511 15.3843 790 124.876 1115.81 478.346
9 0 50.3092 13.8344 696 128.724 1115.4 477.237
10 0 52.358 14.6109 765 127.11 1114.49 475.693
11 0 56.3327 15.3374 864 122.892 1113.78 474.399
12 0 57.3041 16.1943 928 119.233 1113.7 475.881
13 0 58.237 14.8016 862 121.704 1114.9 474.704
14 0 59.2973 17.0834 1013 117.683 1114.18 471.636
15 0 61.3168 16.2924 999 117.98 1115.04 472.072
16 0 63.0805 15.3613 969 117.097 1116.79 473.236
17 0 64.1046 15.9583 1023 117.479 1116.01 471.132
18 0 65.1952 15.8907 1036 118.022 1114.45 470.911
19 0 68.2618 16.0119 1093 115.94 1114.35 471.07
20 1 33.0152 11.0252 364 124.184 1113.2 485.448
21 0 38.0352 11.5945 441 119.054 1113.05 484.698
22 0 38.073 12.1608 463 118.082 1115.79 484.35
23 0 40.0325 11.6905 468 117.671 1116.56 484.267
24 0 42.0897 14.0652 592 113.025 1116.46 483.475
25 0 42.1638 12.8546 542 115.53 1116.17 482.668
26 0 44.1352 14.4556 638 113.511 1114.75 480.234
27 0 45.0804 13.3539 602 114.756 1115.9 482.39
28 0 48.1687 15.8609 764 110.5 1115.62 480.237
29 0 47.2327 14.7991 699 155.883 1115.73 479.223
30 0 49.3029 15.3135 755 113.607 1117.88 478.228
31 0 51.2725 14.9203 765 114.465 1118.48 476.652
32 0 52.2181 15.7417 822 113.035 1117.88 476.602
33 0 54.4462 15.8872 865 113.412 1118.41 473.984
34 0 55.3042 15.026 831 116.533 1118.72 473.529
35 0 57.3254 15.1242 867 116.765 1118.37 472.947
36 0 58.1594 15.4231 897 116.136 1118.88 472.836
37 0 58.3457 14.5341 848 119.064 1119.11 471.792
38 0 63.1518 16.7374 1057 112.356 1119.11 471.535
39 0 65.3373 16.4378 1074 113.022 1118.5 469.996
40 0 66.3504 15.1921 1008 115.864 1118.6 469.367
41 0 68.2753 15.9501 1089 115.035 1118.85 470.587
42 0 70.3434 16.2062 1140 114.901 1118.83 468.807
43 0 74.3204 17.1824 1277 112.265 1119.01 468.797
44 0 72.2476 15.1839 1097 120.109 1118.58 463.304
45 0 76.2438 15.1094 1152 118.966 1119.06 464.102
46 0 77.2183 14.7633 1140 120.887 1119.45 463.762
47 0 79.2666 16.3499 1296 118.475 1119.56 462.765
48 1 43.0403 11.8029 508 120.667 1120.5 481.148
49 0 45.044 12.0549 543 119.451 1119.96 482.448
50 0 49.0298 12.7677 626 114.089 1119.59 480.998
51 0 49.2365 13.0188 641 115.254 1118.3 479.145
52 0 50.1476 13.201 662 115.625 1118.73 480.215
53 0 52.1342 14.9614 780 112.965 1119.36 477.914
54 0 54.2267 16.597 900 107.849 1118.91 477.842
55 0 58.2563 13.7496 801 113.418 1118.98 477.161
56 0 57.1747 14.7793 845 112.09 1118.79 477.305
57 0 60.2102 15.4293 929 111.364 1119.68 475.353
58 0 60.1774 14.7065 885 113.739 1119.33 474.478
59 0 60.246 14.9388 900 113.631 1119.47 471.276
60 0 65.3067 16.1545 1055 109.423 1119.33 468.503
61 0 66.259 14.4886 960 111.736 1119.76 470.596
62 0 69.1802 14.5706 1008 110.303 1119.68 468.426
63 0 72.1907 16.4287 1186 109.352 1120.07 467.765
64 0 73.3806 15.3992 1130 111.944 1119.72 465.367
65 0 76.2487 14.6363 1116 114.595 1119.69 461.573
66 0 78.1491 15.3936 1203 111.146 1119.53 459.368
67 0 83.2063 15.732 1309 109.419 1120.21 459.841
68 0 84.287 15.2693 1287 111.612 1119.93 459.658
69 1 46.0483 12.0308 554 110.262 1119.49 478.341
70 0 45.0297 11.8144 532 113.84 1119.11 476.573
71 0 46.0507 10.901 502 114.289 1118.93 477.102
72 0 49.1514 12.2479 602 111.738 1116.42 475.12
73 0 52.1027 13.2623 691 110.071 1117.58 474.129
74 0 50.0673 13.382 670 112.204 1118.19 474.291
75 0 55.1918 15.4914 855 106.005 1118.96 473.889
76 0 56.2455 14.4367 812 108.276 1120.94 471.046
77 0 59.2776 14.508 860 105.765 1120.22 473.121
78 0 60.2706 13.9703 842 107.127 1119.66 472.536
79 0 63.1453 15.7415 994 104.204 1120.01 470.486
80 0 62.1658 14.204 883 109.014 1120.34 469.005
81 0 65.2572 13.577 886 108.953 1120.85 468.895
82 0 68.1129 14.6228 996 107.46 1120.61 468.283
83 0 70.4054 14.658 1032 108.062 1120.55 463.599
84 0 73.3913 15.6694 1150 104.559 1120.67 463.998
85 0 78.328 16.3798 1283 102.878 1120.35 463.876
86 0 78.3384 14.999 1175 107.583 1120.79 462.591
87 0 82.4329 16.6196 1370 104.474 1121.18 459.192
88 0 85.4444 14.9688 1279 108.172 1120.78 457.076
89 1 45.5633 10.9518 499 107.403 1120.51 479.078
90 0 47.2696 12.8835 609 104.662 1121.03 477.831
91 0 48.252 13.2015 637 104.05 1121.09 477.51
92 0 49.3135 11.579 571 107.566 1121.41 476.053
93 0 49.3721 12.9223 638 104.197 1121.05 476.121
94 0 52.3138 13.075 684 103.295 1122.19 475.746
95 0 55.1649 14.6108 806 100.667 1122.05 473.27
96 0 55.1937 14.1864 783 102.333 1122.15 472.545
97 0 56.249 13.458 757 102.573 1123.14 473.086
98 0 60.2455 15.1547 913 99.7448 1122.64 471.462
99 0 60.1951 13.5725 817 105.632 1122.44 469.082
100 0 63.2441 13.3609 845 105.821 1122.98 469.398
101 0 64.3209 13.5726 873 106.675 1123.38 467.679
102 0 68.2706 14.047 959 103.794 1122.66 467.204
103 0 70.2777 14.5281 1021 104.034 1121.59 467.285
104 0 74.2369 14.0766 1045 103.805 1122.37 465.1
105 0 74.202 14.4875 1075 105.291 1123.22 464.167
106 0 79.1453 14.505 1148 105.851 1123.55 462.967
107 0 79.2703 14.1163 1119 106.13 1123.62 460.929
108 1 41.0407 9.72205 399 107.02 1123.94 479.416
109 0 43.0577 11.3801 490 105.467 1124.51 478.761
110 0 42.1637 9.91373 418 105.77 1123.98 480.964
111 0 46.2427 10.6828 494 104.435 1122.98 479.352
112 0 46.2642 12.1044 560 103.623 1122.57 477.25
113 0 47.2683 11.9742 566 108.733 1122.32 479.009
114 0 51.2938 14.0173 719 102.307 1122.45 479.615
115 0 52.3781 13.8989 728 103.775 1122.03 479.041
116 0 52.3087 13.038 682 107.097 1121.91 476.975
117 0 56.316 14.17 798 103.586 1121.37 476.343
118 0 57.2451 13.7828 789 103.869 1120.94 476.738
119 0 57.1763 13.5895 777 103.976 1121.44 476.423
120 0 61.2884 14.2441 873 102.865 1120.77 474.258
121 0 61.2785 14.0343 860 104.648 1120.31 474.487
122 0 64.2201 15.042 966 101.638 1120.4 473.295
123 0 66.2346 14.9016 987 102.684 1120.66 470.486
124 0 66.2408 12.8471 851 107.873 1120.66 470.667
125 0 66.2428 13.9336 923 148.443 1120.55 469.491
126 0 72.3261 13.8677 1003 104.851 1121.59 465.587
127 0 75.1753 12.8899 969 107.878 1121.52 466.443
128 1 38.1682 9.87732 377 105.151 1122.95 484.422
129 0 42.2193 11.4876 485 103.551 1122.42 482.913
130 0 41.1217 8.24383 339 109.324 1122.34 482.327
131 0 41.1824 10.1257 417 107.875 1122.09 480.506
132 0 44.1295 11.9421 527 101.431 1122.06 480.192
133 0 46.1452 11.4638 529 99.5066 1123.33 479.707
134 0 47.2204 12.1981 576 98.3472 1123.54 478.84
135 0 49.2311 14.178 698 94.8897 1123.41 477.778
136 0 50.225 13.0612 656 97.6845 1123.48 476.63
137 0 53.3262 15.1145 806 92.7308 1123.16 476.947
138 0 52.34 12.4952 654 99.0107 1122.9 478.064
139 0 54.2822 12.435 675 99.7719 1123.14 476.399
140 0 55.3128 13.5954 752 98.234 1122.37 476.307
141 0 59.2951 13.3401 791 97.7661 1122.62 475.976
142 0 59.2193 14.2014 841 97.3722 1121.42 474.078
143 0 62.2923 14.4159 898 96.5312 1121.02 473.176
144 0 65.2969 16.0345 1047 93.4212 1120.87 473.671
145 0 66.2598 14.2469 944 97.0222 1120.56 473.709
146 0 66.2598 14.2319 943 143.35 1120.54 473.758
147 0 70.3873 13.3973 943 99.4846 1121.24 470.295
148 0 74.3214 16.1595 1201 93.6261 1120.75 471.303
149 0 74.2804 14.7549 1096 97.6068 1120.57 469.443
150 0 76.309 14.8213 1131 98.0088 1120.65 467.49
151 0 79.2573 13.8158 1095 98.7205 1120.35 467.947
152 0 79.2932 14.1752 1124 100.437 1120.46 463.948
153 0 83.1944 13.3062 1107 102.484 1121.42 462.309
154 0 84.1228 14.7641 1242 100.116 1121 460.912
155 0 88.1437 14.4423 1273 100.332 1121.02 461.534
156 0 89.2051 13.3737 1193 103.514 1120.92 456.904
157 0 93.1729 14.4999 1351 100.83 1119.64 457.855
158 0 94.2404 14.6646 1382 101.889 1120.6 454.98
159 0 98.1557 14.7521 1448 100.298 1120.61 452.284
160 0 101.193 15.5544 1574 99.7154 1120.99 449.779
161 1 52.1469 10.4512 545 101.327 1121.16 477.629
162 0 56.2222 11.5968 652 99.6334 1121.75 476.492
163 0 58.1935 11.2384 654 101.083 1121.26 473.593
164 0 59.1756 12.0827 715 100.645 1121.35 472.192
165 0 60.2985 13.1512 793 98.6986 1121.09 469.242
166 0 60.2985 13.1512 793 147.98 1121.1 469.192
167 0 66.2655 15.0757 999 94.958 1119.92 469.456
168 0 67.3445 14.0026 943 97.9173 1121.09 470.509
169 0 69.5019 14.532 1010 97.3277 1120.9 469.783
170 0 70.3466 13.8884 977 99.7564 1121.13 469.607
171 0 75.2191 15.621 1175 96.52 1120.73 469.733
172 0 78.2036 16.342 1278 95.6612 1120.13 469.085
173 0 78.2036 16.2652 1272 146.621 1120.13 469.067
174 0 79.2889 14.6805 1164 101.864 1119.66 466.033
175 0 80.2636 15.1625 1217 101.214 1119.62 467.378
176 0 82.2355 15.2003 1250 102.015 1120.52 466.04
177 0 86.2138 15.5891 1344 101.756 1120.08 463.042
178 0 89.1384 15.5489 1386 101.617 1120.16 464.443
179 0 91.1978 16.2504 1482 101.142 1119.99 461.732
180 0 91.1978 16.3052 1487 153.757 1120.01 461.685
181 0 95.2278 16.2978 1552 102.618 1119.58 457.333
182 0 98.2035 14.8874 1462 105.09 1119.17 456.612
183 0 101.287 14.6811 1487 104.841 1118.58 454.923
184 0 104.159 14.9674 1559 102.91 1118.01 454.817
185 1 58.157 11.6925 680 104.279 1118.49 477.743
186 0 60.1152 12.1267 729 102.683 1118.76 476.521
187 0 63.1047 11.9959 757 103.847 1118.15 474.65
188 0 63.0838 12.3486 779 103.051 1117.69 474.779
189 0 67.203 13.8833 933 102.151 1117.39 469.333
190 0 67.2026 13.9429 937 149.673 1116.36 469.221
191 0 72.2018 14.3487 1036 100.732 1117.59 467.582
192 0 71.2192 13.6901 975 102.892 1117.71 466.836
193 0 71.1198 15.734 1119 99.5907 1117.92 465.072
194 0 72.1647 14.3283 1034 95.7369 1118.07 466.105
195 0 68.1832 15.0037 1023 106.371 1118.69 466.282
196 0 71.1578 15.7537 1121 105.423 1118.32 467.284
197 0 76.1574 14.6145 1113 105.447 1119.11 468.091
198 0 74.1628 12.7153 943 108.955 1120.17 469.031
199 0 75.1578 14.1436 1063 107.438 1119.86 466.83
200 0 76.2081 15.1821 1157 104.909 1119.99 465.845
201 0 77.1051 15.2389 1175 104.378 1120.56 465.671
202 0 78.1736 16.118 1260 101.771 1119.99 465.321
203 0 78.1531 13.6783 1069 105.324 1119.84 467.556
204 0 80.0649 15.1627 1214 103.129 1119.81 465.389
205 0 81.0821 15.3918 1248 101.714 1119.54 466.337
206 0 80.1586 14.4339 1157 102.128 1119.59 467.438
207 0 80.1852 15.0028 1203 100.366 1119.45 467.065
208 0 81.0893 13.257 1075 102.195 1118.86 466.879
209 0 82.1441 15.8989 1306 98.7649 1118.88 464.953
210 0 82.0303 16.0063 1313 98.1173 1118.99 464.977
211 0 84.2026 13.1469 1107 101.568 1118.87 466.04
212 0 82.1058 15.3339 1259 99.0095 1118.64 462.154
213 0 84.1464 15.1284 1273 98.0801 1118.61 466.192
214 0 84.1032 14.8746 1251 98.9233 1117.75 462.367
215 0 86.1185 14.1201 1216 98.6776 1117.13 462.794
216 0 86.1751 14.4125 1242 98.2818 1115.92 462.012
217 0 87.2303 14.5248 1267 98.0245 1116.17 458.548
218 0 86.1147 12.7737 1100 98.5318 1115.58 464.216
219 0 86.082 14.9741 1289 96.7812 1115.59 461.026
220 0 89.1879 13.9705 1246 95.7095 1116.34 463.394
221 0 86.1523 11.9324 1028 98.9747 1116.51 456.007
222 0 88.1784 14.1531 1248 96.4952 1116.64 456.677
