time division length width area intensity CMx CMy
0 0 51.2801 15.6201 801 106.79 1268.09 476.934
1 0 50.1925 13.4881 677 114.885 1266.78 477.151
2 0 52.3246 14.2763 747 114.743 1268.14 477.133
3 0 54.2448 14.2502 773 113.661 1268.65 475.561
4 0 55.3904 15.3817 852 110.196 1269.74 476.604
5 0 53.3311 12.5255 668 118.683 1269.1 474.91
6 0 57.2113 15.4515 884 112.038 1268.82 474.854
7 0 59.1505 14.6913 869 111.144 1269.14 472.82
8 1 28.0849 9.6137 270 118.37 1269.82 486.956
9 0 30.1092 10.6612 321 113.452 1270.08 486.732
10 0 31.0356 10.6329 330 111.388 1270.15 487.97
11 0 32.2399 9.83255 317 114.666 1268.96 486.379
12 0 32.1748 11.0646 356 110.742 1269.7 487.135
13 0 33.163 11.3078 375 110.779 1268.54 486.699
14 0 35.251 12.2266 431 109.708 1268.66 484.529
15 0 35.3016 11.9541 422 110.379 1270.41 484.82
16 0 36.2499 12.5518 455 108.358 1270.12 483.679
17 0 40.3776 12.2841 496 108.458 1269.36 483.256
18 0 39.2447 12.9189 507 108.947 1268.76 482.239
19 0 41.2207 14.58 601 106.27 1268.69 482.012
20 0 43.083 15.1336 652 103.508 1268.08 482.018
21 0 44.1273 13.9143 614 106.347 1267.3 481.92
22 0 42.0639 14.5255 611 106.16 1269 481.663
23 0 43.0538 13.5877 585 108.942 1268.85 479.024
24 0 47.0596 14.8323 698 104.284 1269.02 479.656
25 0 48.1769 14.3014 689 105.094 1269.27 480.531
26 0 49.2122 15.0572 741 103.29 1271.58 480.88
27 0 51.0736 15.9769 816 102.127 1271.63 478.892
28 0 52.084 15.9166 829 103.059 1271.89 477.733
29 0 52.1494 13.9024 725 106.433 1270.13 477.83
30 0 54.0789 14.9596 809 105.363 1270.09 474.511
31 0 55.0969 14.1932 782 105.841 1269.87 474.872
32 0 58.0819 14.7895 859 104.932 1269.98 472.928
33 0 59.2003 14.983 887 104.003 1270.79 472.324
34 0 61.1603 15.3367 938 103.33 1270.55 471.65
35 0 61.1872 15.3463 939 105.099 1270.87 470.285
36 0 64.1059 15.3028 981 104.274 1270.93 470.34
37 0 65.1567 16.7136 1089 103.517 1271.48 468.086
38 0 68.343 16.4903 1127 102.242 1271.55 469.972
39 0 69.3113 14.7451 1022 107.477 1271.26 467.871
40 0 72.2827 16.1726 1169 103.808 1271.43 466.965
41 0 74.3379 17.0841 1270 102.654 1271.7 465.592
42 0 76.2257 14.7457 1124 107.362 1271.75 465.518
43 0 79.2306 14.4136 1142 107.08 1272.56 465.518
44 0 80.3547 15.8671 1275 106.346 1272.4 462.997
45 0 84.423 15.8843 1341 105.718 1273.2 461.451
46 0 87.3962 15.3554 1342 107.008 1274.09 459.958
47 0 92.2907 16.8273 1553 103.89 1273.9 459.909
48 0 95.5454 17.7507 1696 102.982 1273.86 458.357
49 1 46.4507 11.2377 522 108.527 1273.6 482.084
50 0 49.5186 11.7532 582 107.07 1273.88 480.328
51 0 51.3962 12.5885 647 107.128 1273.85 479.27
52 0 54.1483 14.4049 780 102.515 1273.67 480.183
53 0 55.1321 14.9096 822 103.214 1273.42 478.006
54 0 55.1415 14.7439 813 104.245 1271.42 477.677
55 0 59.1326 14.4421 854 105.362 1272.24 476.222
56 0 61.1699 15.6286 956 103.971 1272.23 473.987
57 0 64.0902 14.9633 959 104.414 1273.58 474.918
58 0 65.1417 17.6692 1151 101.263 1273.34 472.333
59 0 67.1698 15.9596 1072 104.144 1273.64 471.666
60 0 69.1305 15.8685 1097 104.572 1273.27 470.681
61 0 69.2688 15.5192 1075 106.657 1272.8 467.707
62 0 74.1611 15.8574 1176 104.043 1273.26 467.005
63 0 76.081 15.5755 1185 106.203 1273.95 465.809
64 1 41.0234 12.4319 510 105.429 1274.44 482.112
65 0 41.0258 11.9193 489 105.505 1275.06 482.16
66 0 41.0158 10.3375 424 104.175 1275.55 483.189
67 0 45.0549 12.851 579 101.703 1275.92 480.447
68 0 44.0611 11.3933 502 105.402 1275.74 480.902
69 0 45.071 12.3583 557 105.456 1275.19 480.023
70 0 48.0733 14.2075 683 102.802 1275.43 478.845
71 0 49.1716 13.4427 661 105.746 1275.44 477.192
72 0 51.1223 14.8859 761 104.106 1273.25 475.783
73 0 53.2051 15.2241 810 103.479 1273.87 475.502
74 0 54.2271 15.1954 824 103.961 1274.24 475.557
75 0 56.2376 14.6877 826 103.119 1274.48 476.172
76 0 58.2921 14.7704 861 102.963 1273.34 475.067
77 0 59.0912 15.3661 908 103.613 1273.25 473.555
78 0 62.2174 16.2173 1009 101.154 1273.72 473.078
79 0 64.1132 15.5974 1000 102.619 1274.54 472.311
80 0 67.1466 17.4841 1174 98.7283 1274.38 472.596
81 0 67.0636 15.6866 1052 101.716 1274.68 473.255
82 0 70.2084 15.8243 1111 103.459 1274.42 470.262
83 0 71.1975 14.537 1035 106.429 1273.91 469.824
84 0 76.1398 17.1789 1308 101.125 1275.24 467.916
85 0 77.1481 16.3452 1261 103.097 1274.66 467.518
86 0 80.0858 15.5209 1243 106.113 1275.28 466.639
87 0 80.0832 15.6213 1251 108.132 1274.91 463.948
88 0 85.105 16.1918 1378 106.501 1274.76 463.713
89 1 41.03 11.3332 465 105.875 1274.61 483.981
90 0 42.0522 12.4131 522 105.121 1274.79 483.534
91 0 47.0867 12.1478 572 106.343 1275.45 481.434
92 0 49.162 12.0825 594 106.066 1276.45 481.525
93 0 48.0872 12.7269 612 109.93 1275.64 478.954
94 0 49.0816 13.2433 650 107.806 1276.7 478.546
95 0 52.0844 14.4189 751 105.172 1276.89 477.626
96 0 52.0389 15.0272 782 104.671 1276.51 477.095
97 0 57.1182 14.3562 820 104.69 1277.05 476.139
98 0 55.0441 13.4983 743 107.35 1277.55 476.595
99 0 59.0898 13.7926 815 107.714 1277.39 474.869
100 0 61.0914 15.0594 920 105.255 1277.98 473.832
101 0 64.0669 15.2029 974 104.097 1278.04 474.079
102 0 65.0501 14.927 971 105.305 1276.66 473.658
103 0 66.074 15.6491 1034 105.576 1276.37 472.363
104 0 66.0708 14.7266 973 108.328 1276.14 470.438
105 0 71.0895 15.4313 1097 106.229 1276.93 468.381
106 0 73.1224 15.9048 1163 106.708 1277.06 468.549
107 0 74.1304 15.6211 1158 107.393 1277.39 467.223
108 0 77.0739 14.3888 1109 110 1276.74 467.003
109 0 78.0935 14.6363 1143 110.943 1277.02 466.326
110 0 81.0761 14.0855 1142 112.836 1277.27 462.507
111 0 84.0546 15.2996 1286 109.309 1277.2 464.296
112 0 86.1049 14.6449 1261 111.875 1277.03 462.497
113 0 88.0602 15.0352 1324 111.983 1276.8 461.316
114 0 92.3429 16.103 1487 109.739 1276.3 460.077
115 0 94.1581 14.8367 1397 112.838 1276.04 459.061
116 0 98.1189 15.5729 1528 111.508 1274.86 456.829
117 0 100.182 14.1643 1419 114.452 1275.82 455.082
118 1 54.0526 11.9143 644 107.699 1275.3 479.657
119 0 55.0141 13.0512 718 105.482 1274.96 478.325
120 0 58.0958 13.6326 792 103.225 1274.1 477.596
121 0 60.0571 14.8359 891 101.701 1274.37 475.99
122 0 59.291 12.0423 714 108.325 1274.12 474.943
123 0 63.1447 14.0946 890 104.739 1274.81 474.871
124 0 66.1456 13.9087 920 105.397 1274.48 473.112
125 0 68.1769 13.465 918 107.981 1274.51 470.756
126 0 69.1818 13.7608 952 107.439 1275.36 469.722
127 0 73.1529 14.3535 1050 106.578 1274.94 469.173
128 0 74.2406 14.9244 1108 107.951 1275.31 465.693
129 0 77.1446 14.233 1098 108.153 1275.61 466.411
130 0 79.2325 14.5269 1151 108.429 1276.29 463.834
131 1 44.0342 10.242 451 107.925 1277.84 482.838
132 0 44.0352 10.4008 458 108.085 1276.65 481.934
133 0 45.0112 10.6196 478 107.272 1277.53 481.41
134 0 50.04 12.45 623 102.364 1277.97 480.111
135 0 51.0205 13.818 705 99.9901 1277.35 480.477
136 0 51.0371 13.3628 682 102.689 1276.99 478.79
137 0 54.1852 14.0998 764 100.855 1276.52 478.643
138 0 55.0333 13.7553 757 102.156 1276.31 478.719
139 0 57.0834 13.5416 773 101.856 1276.77 477.225
140 0 58.0244 13.1669 764 103.28 1276.43 476.285
141 0 61.0616 15.8037 965 97.2176 1276.47 477.316
142 0 62.1006 14.2994 888 100.815 1275.98 475.863
143 0 65.0886 13.3971 872 101.1 1276.26 475.576
144 0 68.1657 14.7582 1006 99.1282 1275.96 475.038
145 0 69.1554 14.3011 989 100.978 1276.53 472.217
146 0 71.1178 14.6658 1043 101.36 1275.61 472.389
147 0 73.1108 15.1277 1106 100.672 1276.61 469.325
148 1 39.1146 9.35713 366 103.366 1276.46 488.107
149 0 42.1075 11.8269 498 99.7028 1275.84 487.416
150 0 42.0889 12.4974 526 97.1616 1275.2 488.122
151 0 44.2458 12.7922 566 96.3993 1274.29 485.772
152 0 46.207 12.7037 587 97.3748 1274.14 485.431
153 0 46.2225 12.8076 592 99.4493 1274.46 482.794
154 0 47.2643 12.4407 588 100.087 1274.29 483.794
155 0 48.1838 11.892 573 103.658 1273.84 482.302
156 0 49.0322 12.0329 590 103.471 1275.68 481.32
157 0 50.0526 14.225 712 101.556 1275.73 477.712
158 0 53.0899 12.7143 675 104.431 1275.47 478.376
159 0 54.0991 12.7914 692 104.799 1276.03 476.116
160 0 57.041 13.2887 758 102.931 1275.66 477.794
161 0 59.05 14.039 829 103.069 1276.04 476.813
162 0 59.1132 14.3792 850 104.282 1276.01 474.927
163 0 59.1018 12.7915 756 106.824 1274.55 475.164
164 0 62.0833 13.1597 817 105.942 1274.88 472.464
165 0 65.071 13.5852 884 105.175 1274.61 471.939
166 0 66.0529 13.4892 891 104.636 1275.37 472.56
167 0 69.2059 13.4237 929 104.292 1276.24 471.898
168 0 70.1832 13.2368 929 104.962 1275.61 470.544
169 0 72.125 13.5182 975 106.392 1276.36 467.581
170 1 39.013 10.2274 399 102.985 1276.64 487.847
171 0 37.0473 8.69159 322 107.252 1276.07 488
172 0 41.0471 11.2797 463 102.41 1275.98 486.659
173 0 44.0156 11.7458 517 100.451 1275.46 487.485
174 0 44.0905 12.7692 563 99.659 1274.08 485.197
175 0 46.2646 12.515 579 101.642 1275.09 485.636
176 0 46.1754 12.0627 557 103.716 1274.63 485.359
177 0 49.1229 13.4968 663 100.261 1274.15 484.226
178 0 47.1947 11.442 540 107.12 1274.49 482.587
179 0 52.2475 14.6993 768 99.0677 1274.16 482.095
180 0 53.0308 13.4262 712 102.388 1275.51 481.985
181 0 53.1109 13.613 723 103.122 1275.23 480.539
182 0 55.0601 13.0403 718 104.568 1275.34 479.939
183 0 55.0567 12.4054 683 106.583 1274.82 478.635
184 0 57.1227 13.1822 753 104.963 1274.85 477.888
185 0 59.1115 13.2462 783 105.457 1274.91 475.599
186 0 61.1122 13.6797 836 104.239 1274.56 475.565
187 0 63.0779 13.4595 849 104.572 1273.47 474.33
188 0 65.1097 13.101 853 105.403 1273.79 474.426
189 0 65.1281 13.1894 859 105.487 1274 472.647
190 0 69.2041 14.8835 1030 102.93 1274.4 469.736
191 0 70.085 14.2541 999 105.613 1272.95 469.392
192 0 73.178 14.8542 1087 104.546 1271.79 467.856
193 0 75.2593 15.0812 1135 105.02 1272.58 464.481
194 0 77.216 14.971 1156 105.079 1273.31 464.253
195 0 78.1985 13.632 1066 143.446 1274.44 465.444
196 1 44.0679 10.3704 457 109.926 1274.76 481.908
197 0 43.075 10.1219 436 110.344 1275.11 482.677
198 0 44.0697 11.3911 502 106.888 1275.63 482.711
199 0 46.0654 11.0929 511 108.372 1274.93 481.757
200 0 47.042 12.1593 572 108.43 1275.58 478.467
201 0 52.0682 12.6949 661 104.53 1275.59 480.828
202 0 51.033 11.8943 607 107.657 1275.13 481.127
203 0 52.1376 13.3877 698 106.937 1273.5 480.14
204 0 54.1003 13.6968 741 105.883 1273.93 479.97
205 0 57.2149 14.297 818 104.73 1273.38 479.15
206 0 58.1343 12.4883 726 109.084 1273.87 479.091
207 0 58.1402 14.0866 819 105.608 1274 479.155
208 0 62.1804 14.86 924 103.413 1273.45 477.054
209 0 65.1964 13.9578 910 105.431 1273.95 477.231
210 0 64.2014 14.0028 899 106.634 1273.36 475.99
211 0 66.1767 14.8844 985 106.198 1273 474.675
212 0 70.2383 15.903 1117 103.219 1272.89 473.413
213 0 73.2734 14.6028 1070 105.322 1272.66 472.104
214 0 73.1226 13.9492 1020 107.396 1272.66 470.829
215 1 39.1685 10.3655 406 108.458 1272.77 487.833
216 0 41.0898 10.5622 434 107.189 1272.38 487.908
217 0 42.0902 11.2615 474 105.574 1272.78 487.348
218 0 44.2437 10.2161 452 109.476 1272.14 485.763
219 0 45.2243 11.1223 503 107.4 1272.2 484.344
220 0 47.162 12.3193 581 105.015 1271.99 482.608
221 0 47.3788 12.8539 609 104.878 1273 479.882
222 0 49.1462 13.3683 657 103.368 1272.35 480.102
223 0 49.1269 13.3532 656 103.066 1272.11 479.845
224 0 49.1143 13.8045 678 145.006 1271.11 480.263
225 0 51.3033 13.4884 692 102.798 1272.9 478.195
226 0 54.2339 14.4744 785 99.7236 1273.05 477.805
227 0 54.1961 13.2666 719 102.99 1273.43 475.663
228 0 58.2398 14.9898 873 97.6254 1273.26 476.592
229 0 61.1319 16.2926 996 95.6004 1274.01 474.618
230 0 61.1497 13.0009 795 101.122 1274.4 475.279
231 0 63.1642 14.6919 928 98.4062 1274.77 472.863
232 0 63.243 13.962 883 100.698 1275.11 471.755
233 0 67.1226 14.5406 976 99.7029 1275.06 470.607
234 0 69.0701 15.4046 1064 98.0771 1275.33 469.824
235 0 72.0839 15.6207 1126 97.738 1275.32 470.319
236 0 73.1468 14.3137 1047 100.953 1275.05 469.187
237 1 40.0365 11.1898 448 100.779 1276.79 487.15
238 0 40.0591 10.5344 422 103.289 1276.6 486.697
239 0 43.0404 12.5696 541 99.6747 1276.55 486.824
240 0 43.083 11.6287 501 101.798 1276.06 486.347
241 0 42.1138 10.9228 460 105.702 1275.32 484.996
242 0 47.0973 14.056 662 99.364 1274.66 484.557
243 0 49.1975 14.208 699 99.5522 1274.61 482.989
244 0 48.1821 12.7848 616 104.291 1274.59 483.417
245 0 51.1612 14.7768 756 101.083 1274.26 482.224
246 0 52.2389 13.668 714 103.646 1273.81 481.497
247 0 53.295 13.5848 724 103.243 1273.46 481.185
248 0 55.1391 14.9984 827 101.285 1272.95 478.674
249 0 55.1656 12.8885 711 105.547 1272.21 478.835
250 0 57.1425 13.5276 773 104.115 1272.79 476.109
251 0 59.1219 15.3412 907 101.032 1273.08 474.869
252 0 61.1489 14.4402 883 102.143 1273.08 474.935
253 0 64.2581 14.5818 937 101.181 1273.26 474.387
254 0 66.1814 15.8957 1052 98.1245 1273.05 473.784
255 0 68.3162 15.6039 1066 98.9887 1273.28 471.465
256 0 70.1191 14.5895 1023 100.35 1272.77 471.066
257 0 71.2234 13.928 992 102.708 1272.69 469.848
258 0 74.375 15.6639 1165 98.9665 1272.89 467.454
259 1 38.1751 10.3209 394 102.325 1273.81 483.635
260 0 42.2597 11.382 481 101.067 1273.58 482.345
261 0 44.1226 12.284 542 98.1125 1274.04 483.469
262 0 44.1481 11.4161 504 100.653 1274.28 482.081
263 0 43.2059 11.4336 494 102.921 1274.63 481.273
264 0 48.1264 11.9893 577 99.364 1275.5 481.645
265 0 48.073 13.0011 625 99.9536 1275.19 481.632
266 0 49.1395 13.9806 687 97.7001 1276.34 480.937
267 0 53.2103 13.3433 710 97.9634 1276.34 481.463
268 0 54.0892 13.5332 732 98.418 1276.48 480.672
269 0 55.132 13.6037 750 99.8253 1276.28 479.415
270 0 56.1154 14.5236 815 97.7264 1276.07 480.854
271 0 57.084 12.9108 737 102.707 1276.02 478.198
272 0 62.2048 14.7577 918 96.9096 1275.69 479.319
273 0 62.2294 14.3019 890 99.5011 1275.22 479.008
274 0 65.2114 14.8594 969 99.4892 1275.66 477.58
275 0 66.1978 14.3358 949 101.021 1275.35 475.828
276 0 68.1501 14.5708 993 100.293 1274.61 475.694
277 0 70.1904 14.5319 1020 100.417 1274.69 473.179
278 0 74.0882 14.8607 1101 100.245 1274.23 472.432
279 0 77.1922 14.3149 1105 100.752 1273.68 470.418
280 1 45.1323 11.2558 508 95.126 1274.18 490.199
281 0 45.0405 11.5008 518 97.8822 1273.95 486.824
282 0 45.0772 10.8259 488 100.166 1273.72 485.68
283 0 47.0355 12.7988 602 97.6611 1272.82 484.578
284 0 48.114 14.2578 686 96.605 1271.73 482.79
285 0 48.1275 12.3214 593 101.654 1272.12 481.234
286 0 48.0917 12.7881 615 100.621 1271.26 481.148
287 0 50.0603 12.8645 644 101.432 1270.43 479.995
288 0 53.1157 12.3127 654 100.821 1270.46 479.557
289 0 56.1477 14.2303 799 97.9374 1271.47 476.041
290 0 58.1692 14.4406 840 96.675 1271.81 477.073
291 0 59.1827 14.5144 859 97.2491 1272.36 476.547
292 0 59.1549 13.2702 785 100.986 1272.13 475.004
293 0 62.0822 15.3184 951 88.6172 1272.76 472.712
294 0 66.0858 14.2693 943 97.5069 1273 473.532
295 0 65.1587 15.1323 986 97.5416 1273.22 471.786
296 0 69.1062 13.8193 955 99.3099 1274.94 470.526
297 0 70.2285 15.1078 1061 98.2385 1275.15 469.032
298 1 38.0963 9.81723 374 100.799 1275.01 487.163
299 0 40.0493 11.6357 466 99.7039 1275.4 485.307
300 0 41.0721 11.565 475 99.6147 1276.44 487.215
301 0 42.0247 11.2315 472 98.7775 1275.15 487.672
302 0 45.1059 12.6813 572 96.8217 1276.23 487.453
303 0 46.0928 12.9738 598 98.0619 1275.13 486.375
304 0 47.1656 13.336 629 98.9873 1274.01 483.049
305 0 49.0923 14.5848 716 96.2193 1274.62 484.454
306 0 51.0509 16.2387 829 93.6236 1275.05 484.351
307 0 52.097 15.2024 792 95.5505 1274.73 483.169
308 0 52.1293 13.3131 694 100.084 1273.51 482.414
309 0 53.0851 12.9415 687 101.263 1272.74 481.854
310 0 57.0557 14.109 805 98.2634 1272.45 480.913
311 0 57.2581 15.4389 884 97.7602 1272.06 480.85
312 0 58.1361 13.9672 812 99.2475 1271.83 479.683
313 0 61.2821 14.0987 864 98.7685 1272.07 476.051
314 0 63.1876 13.9268 880 98.6318 1272.45 476.201
315 0 66.4364 16.1207 1071 95.1755 1271.68 473.337
316 0 68.31 13.9658 954 97.7809 1272.24 474.579
317 1 36.0531 11.3167 408 97.4657 1271.91 488.855
318 0 38.2256 12.0861 462 96.6905 1271.54 486.403
319 0 38.2681 9.90382 379 97.5989 1272.56 487.704
320 0 42.3661 12.2976 521 95.6641 1272.26 483.61
321 0 42.2224 12.8131 541 93.8558 1272.93 483.963
322 0 44.2477 12.3396 546 93.6648 1272.9 483.916
323 0 47.2473 13.6939 647 91.7883 1273.19 483.019
324 0 47.2473 13.6939 647 143.096 1273.18 482.934
325 0 48.1847 13.6143 656 93.8918 1274.55 481.851
326 0 51.1583 15.0318 769 91.6957 1274.87 479.546
327 0 54.1185 13.9878 757 93.2497 1275.97 480.524
328 0 55.0726 13.8 760 93.7487 1276.3 479.587
329 0 56.167 14.4925 814 92.8268 1275.5 480.059
330 0 56.119 14.0059 786 95.3321 1276.49 477.931
331 0 60.1069 13.6257 819 94.2259 1276.9 479.769
332 0 64.158 15.1969 975 91.6667 1276.73 478.119
333 0 66.1099 15.8978 1051 91.3406 1277.16 476.753
334 0 67.203 13.5559 911 95.9594 1276.62 475.806
335 0 70.1837 14.2911 1003 93.6002 1275.33 477.411
336 0 73.2842 14.7508 1081 94.0361 1275.36 474.388
337 0 76.4536 15.8397 1211 92.474 1274.86 473.597
338 1 38.072 10.3488 394 91.6447 1274.83 494.312
339 0 40.0564 10.3105 413 94.4576 1275 490.712
340 0 41.1113 10.5324 433 93.5058 1274.17 492.037
341 0 43.1562 10.4041 449 94.2428 1273.72 490.561
342 0 44.1042 11.7903 520 92.5923 1273.19 488.542
343 0 44.1042 11.7222 517 132.025 1273.22 488.505
344 0 48.0504 12.8615 618 92.1958 1271.95 483.793
345 0 48.0611 12.0055 577 93.948 1272.23 483.3
346 0 51.1371 13.5127 691 91.8263 1271.69 480.974
347 0 52.0926 12.0363 627 93.134 1271.14 481.818
348 0 55.0549 14.0224 772 90.5324 1271.73 478.775
349 0 55.0614 12.368 681 93.8781 1272.08 475.583
350 0 57.0244 12.5911 718 94.8036 1271.61 476.553
351 0 60.0449 14.0728 845 91.7101 1271.83 474.742
352 0 63.1468 13.0965 827 93.6167 1272.21 472.926
353 0 65.0822 13.6596 889 93.0416 1272.4 472.386
354 0 67.0838 15.0558 1010 91.2168 1273.32 472.335
355 0 69.0869 14.1127 975 93.2277 1274.01 471.326
356 0 71.152 13.1128 933 95.1061 1274.89 470.06
357 0 74.1213 14.3144 1061 93.2828 1275.53 468.439
358 0 76.1013 14.0733 1071 94.2325 1274.99 467.731
359 0 78.2769 13.1456 1029 96.5112 1275.09 465.735
360 0 79.225 13.0893 1037 97.4609 1275.9 465.957
361 0 79.225 13.001 1030 146.371 1275.89 465.891
362 1 46.1622 11.4163 527 93.2505 1276.46 487.055
363 0 49.1151 9.6508 474 96.6287 1276.1 485.245
364 0 50.0764 11.8419 593 91.6627 1275.49 487.31
365 0 53.2086 12.0657 642 95.0078 1275.31 483.813
366 0 53.2086 11.953 636 139.319 1276.29 483.73
367 0 57.1241 13.0068 743 93.3445 1274.97 482.351
368 0 57.1021 13.8173 789 93.4588 1274.81 480.763
369 0 59.2337 14.2824 846 91.5697 1275.2 480.982
370 0 62.108 13.4443 835 91.2503 1274.96 482.195
371 0 63.0968 13.6457 861 93.1672 1273.8 477.884
372 0 67.1466 15.1907 1020 90.5275 1273.69 476.868
373 0 68.2032 14.2662 973 92.4728 1272.7 474.493
374 0 71.119 14.8765 1058 92.1597 1272.25 475.22
375 0 72.0891 15.7167 1133 92.5384 1271.06 473.843
376 0 75.2675 16.2753 1225 90.6914 1271.66 469.264
377 0 78.2064 15.702 1228 90.7842 1270.75 469.677
378 0 80.4148 14.6366 1177 93.8088 1270.42 467.504
379 1 45.3645 12.146 551 93.7913 1270.77 485.058
380 0 43.1749 11.1639 482 96.6286 1270.62 483.929
381 0 47.1562 12.2571 578 94.1055 1270.54 483.898
382 0 50.0769 14.4777 725 90.8428 1270.21 482.508
383 0 49.1256 12.3561 607 96.5091 1271.13 482.061
384 0 51.1589 13.6438 698 95.2479 1271.63 481.656
385 0 53.232 15.4418 822 92.8528 1271.73 479.618
386 0 54.1011 14.2326 770 95.1532 1272.39 478.225
387 0 55.0536 13.0237 717 95.3947 1274.09 480.524
388 0 56.0243 14.2617 799 94.8936 1275.46 478.546
389 0 59.1126 15.6989 928 91.8588 1276.07 478.329
390 0 59.0502 13.5309 799 96.6846 1276.11 478.233
391 0 62.0698 13.5171 839 96.0989 1277.01 476.17
392 0 66.1014 17.8816 1182 88.0059 1277.21 476.339
393 0 68.12 15.9131 1084 92.5683 1277.41 475.085
394 0 71.1575 16.3581 1164 91.2998 1277.45 475.628
395 0 74.1242 15.6359 1159 92.0569 1277.81 474.528
396 0 75.2421 14.1543 1065 95.538 1277.72 473.047
397 0 78.1031 16.5294 1291 91.8459 1276.76 471.504
398 0 81.1993 15.4189 1252 93.5615 1275.73 471.042
399 1 46.0141 11.9529 550 90.4855 1275.94 490.744
400 0 46.0141 11.9963 552 145.105 1275.97 490.605
401 0 47.0658 11.2183 528 93.9148 1274.5 488.18
402 0 47.0589 12.3462 581 93.1188 1274.21 486.518
403 0 52.0519 14.7737 769 87.0182 1273.79 485.525
