time division length width area intensity CMx CMy
0 0 33.1189 11.7758 390 120.251 1196.15 503.049
1 0 34.0441 14.5106 494 113.263 1197.05 501.907
2 0 34.0294 11.1081 378 124.804 1198.62 500.971
3 0 36.2492 13.1865 478 114.992 1197.33 500.107
4 0 35.1363 12.5796 442 118.278 1197.51 500.124
5 0 35.2593 12.2805 433 119.33 1196.65 500.037
6 0 37.3303 12.3224 460 117.559 1196.5 499.761
7 0 36.1775 11.5818 419 119.153 1196.88 498.594
8 0 39.2817 13.1868 518 112.498 1196.51 498.828
9 0 36.155 13.1655 476 116.032 1196.56 497.79
10 0 38.2122 14.8382 567 111.683 1196.23 496.199
11 0 38.3524 12.8805 494 117.935 1196.21 496.032
12 0 40.3689 13.1289 530 116.151 1196.95 497.023
13 0 42.2223 13.5 570 113.991 1196.69 495.582
14 0 42.2275 12.5747 531 119.563 1196.89 495.066
15 0 43.1841 12.8057 553 118.002 1195.72 495.224
16 0 44.1335 13.2779 586 115.35 1196.29 495.894
17 0 44.2246 12.934 572 119.196 1196 494.147
18 0 47.1942 14.0059 661 116.254 1196.35 493.976
19 0 47.222 13.4471 635 119.132 1196.56 493.753
20 0 49.1881 13.4179 660 118.774 1196.09 493.462
21 0 51.141 13.1988 675 119.526 1196.92 493.034
22 0 52.2696 14.5783 762 118.475 1198.58 491.698
23 0 55.2582 15.7262 869 116.091 1198.42 492.537
24 0 56.1855 16.5167 928 113.372 1198.83 492.903
25 0 56.347 15.1383 853 118.059 1198.89 491.928
26 0 59.3293 15.4224 915 117.424 1199.8 492.084
27 0 60.2861 15.7748 951 117.471 1200.17 490.531
28 0 61.247 14.7273 902 120.145 1200.01 489.141
29 0 66.2941 17.0302 1129 109.74 1199.05 489.531
30 0 67.3509 16.7036 1125 111.081 1198.73 487.504
31 0 68.1655 15.9612 1088 112.26 1198.62 486.791
32 0 68.1458 13.295 906 118.026 1198.44 487.196
33 0 74.1092 15.1263 1121 109.846 1199.04 485.176
34 0 74.2908 15.2374 1132 110.755 1198.81 482.344
35 0 77.1655 14.1384 1091 112.172 1198.9 482.847
36 1 42.0806 10.2422 431 115.613 1199.8 500.086
37 0 43.0242 11.4122 491 112.707 1199.83 498.42
38 0 43.0243 13.2483 570 108.925 1199.93 498.775
39 0 43.0247 13.3179 573 108.525 1200.24 499.672
40 0 47.0291 13.7362 646 105.063 1200.33 497.966
41 0 48.0928 14.2225 684 105.822 1200.19 497.656
42 0 50.0846 14.6552 734 103.357 1200.71 496.997
43 0 51.0638 14.805 756 103.771 1200.53 496.997
44 0 54.0464 14.9686 809 102.282 1200.5 497.178
45 0 53.1376 13.8132 734 105.312 1201.04 496.099
46 0 57.0778 15.1548 865 101.22 1201.43 494.726
47 0 58.0766 15.8756 922 99.5824 1201.71 493.989
48 0 60.0452 15.3551 922 101.529 1201.5 491.015
49 0 62.1443 16.9283 1052 97.7158 1201.28 491.856
50 0 64.022 16.2757 1042 97.3676 1200.38 490.488
51 0 66.1095 14.8995 985 100.045 1201.28 491.146
52 0 68.2585 14.8406 1013 98.923 1201.12 490.908
53 0 70.3404 15.1122 1063 97.9642 1201.4 488.751
54 0 73.2782 15.5435 1139 97.9025 1201.48 484.818
55 0 76.4708 15.0777 1153 97.8708 1201.65 486.5
56 1 43.3204 12.3729 536 97.6343 1202.01 501.494
57 0 40.2675 10.4054 419 101.053 1202.26 502.184
58 0 43.2445 10.6141 459 99.8497 1201.65 501.471
59 0 45.2619 12.1073 548 99.0219 1201.74 499.122
60 0 45.1567 13.6857 618 97.6003 1202.34 497.948
61 0 47.3304 13.5642 642 95.4688 1202.14 498.092
62 0 50.3352 14.4432 727 94.1623 1202.15 495.935
63 0 52.2755 14.3853 752 96.0572 1202.94 494.396
64 0 54.0935 14.7337 797 95.059 1202.26 494.113
65 0 54.2526 14.7827 802 96.1471 1202.51 493.036
66 0 56.1529 14.5852 819 93.2601 1202.8 494.563
67 0 59.2168 16.7351 991 90.4924 1203.06 490.764
68 0 60.2009 14.3686 865 95.1422 1203.02 490.755
69 0 60.234 14.1448 852 96.5892 1202.12 490.601
70 0 64.1736 14.0868 904 96.1969 1202.18 488.718
71 0 67.3084 14.8867 1002 94.8194 1202.88 487.796
72 0 68.1993 14.5603 993 95.3988 1200.59 485.747
73 0 71.1626 14.502 1032 95.4796 1201.66 484.766
74 0 73.1936 13.6761 1001 97.9051 1201.6 482.969
75 0 75.1512 14.3178 1076 96.921 1202.71 482.637
76 0 77.2007 14.3651 1109 97.3886 1203.03 479.747
77 0 82.1514 15.4836 1272 92.8758 1203.54 483.057
78 0 83.3109 15.8082 1317 94.5543 1203.41 478.191
79 0 85.1367 14.5413 1238 97.5355 1204.32 477.76
80 0 90.2335 14.529 1311 96.6636 1204.52 477.583
81 0 94.1551 15.4426 1454 95.1898 1203.32 475.056
82 0 96.1654 13.3624 1285 100.089 1202.74 472.779
83 1 52.1274 11.9898 625 96.4208 1203.89 494.763
84 0 53.2434 12.1517 647 95.5811 1204.24 494.569
85 0 55.1712 12.6153 696 96.0388 1203.5 492.918
86 0 56.16 12.5534 705 96.4582 1202.77 492.994
87 0 59.3777 12.3952 736 94.8859 1202.51 494.496
88 0 60.2471 13.7102 826 95.822 1202.45 488.114
89 0 62.1789 12.3354 767 96.399 1202.36 489.566
90 0 64.3706 14.5253 935 93.3508 1203.2 487.327
91 0 66.3192 12.4097 823 96.1738 1203.17 486.973
92 0 66.3192 12.5152 830 139.246 1204.18 487.041
93 0 71.3012 13.6183 971 94.2884 1203.15 485.133
94 0 74.2584 15.2979 1136 92.3389 1203.96 481.231
95 0 76.4621 12.9345 989 95.8038 1204.05 480.369
96 0 78.3397 12.2799 962 96.368 1204.32 477.667
97 0 80.7209 13.1069 1058 95.4575 1204.64 477.629
98 0 86.424 15.343 1326 89.9238 1205.06 478.168
99 0 87.2961 14.4909 1265 93.4878 1203.84 474.132
100 0 91.3994 14.3436 1311 93.1838 1203.69 471.927
101 1 43.2019 10.6477 460 92.5522 1204.56 494.224
102 0 44.2481 9.98913 442 92.4728 1204.4 494.887
103 0 47.2025 10.5291 497 89.4326 1205.61 496.338
104 0 52.1893 12.1864 636 86.5362 1205.77 495.489
105 0 52.101 11.8616 618 88.6974 1205.32 494.018
106 0 55.2802 13.3864 740 88.6811 1204.93 492.328
107 0 56.3373 12.8512 724 89.0649 1203.62 491.059
108 0 58.2464 11.5372 672 92.4345 1203.53 490.68
109 0 61.1427 13.4276 821 89.8624 1204.33 490.345
110 0 62.3243 13.526 843 90.7248 1203.63 489.504
111 0 65.2328 13.996 913 89.6933 1203.59 488.973
112 0 65.1792 12.8875 840 92.8357 1203.62 487.152
113 0 67.3226 14.1854 955 92.0147 1203.56 485.466
114 0 69.169 12.9249 894 94.3669 1203.81 486.2
115 0 72.1582 13.4011 967 95.0672 1204.76 483.043
116 0 75.193 15.161 1140 92.4658 1203.92 483.035
117 0 83.4755 17.2865 1443 86.3451 1204.64 487.073
118 0 80.2674 14.215 1141 94.2296 1203.23 483.519
119 0 83.3062 15.485 1290 93.0062 1203.31 481.495
120 0 85.2114 15.62 1331 94.3712 1204.41 476.887
121 0 88.2041 13.1513 1160 97.7862 1202.73 478.93
122 0 91.2033 14.7911 1349 95.275 1202.69 475.661
123 0 94.2461 14.112 1330 96.5962 1203.33 476.429
124 0 98.2794 14.2655 1402 97.6719 1202.66 472.812
125 1 50.1388 9.37398 470 96.3745 1203.57 499.289
126 0 52.2363 11.4671 599 95.8314 1203.03 495.114
127 0 53.5109 12.2592 656 95.3369 1203.04 494.48
128 0 56.1675 12.801 719 95.0918 1202.82 493.104
129 0 56.1948 13.3998 753 94.7556 1204.28 493.466
130 0 59.2566 13.0787 775 96.2206 1203.41 491.814
131 0 60.1206 13.8721 834 95.723 1204.34 491.078
132 0 61.1545 13.6703 836 97.3337 1203.56 489.242
133 0 63.1223 13.2283 835 97.2467 1203.83 488.41
134 0 66.1905 13.4158 888 95.2691 1204.17 489.355
135 0 69.2227 15.9052 1101 92.3588 1204.71 487.203
136 0 70.1381 12.7178 892 98.5258 1204 487.706
137 0 71.1076 13.9929 995 97.2261 1204.03 486.464
138 0 75.1666 14.3548 1079 96.9629 1203.7 485.225
139 0 79.2133 15.1111 1197 95.7268 1203.75 483.117
140 0 82.1783 14.1035 1159 97.1346 1203.38 483.97
141 1 45.1059 11.861 535 96.4673 1204.2 502.135
142 0 45.0858 10.5355 475 99.9179 1204.15 500.552
143 0 49.0967 11.8745 583 95.3345 1205.04 500.878
144 0 48.0938 11.4152 549 98.3898 1203.89 498.832
145 0 50.0619 11.8453 593 96.7386 1204.1 499.261
146 0 52.0533 11.834 616 97.2662 1203.48 497.24
147 0 54.0294 13.3076 719 94.7608 1202.59 495.809
148 0 55.0738 11.9476 658 95.6702 1203.03 496.483
149 0 58.0888 13.1178 762 94.3556 1202.71 493.806
150 0 59.0726 12.527 740 95.6689 1202.99 492.796
151 0 60.0241 12.0951 726 96.168 1202.48 492.306
152 0 61.0769 12.9673 792 94.5619 1202.33 492.634
153 0 62.0966 12.4484 773 96.9133 1202.14 488.792
154 0 67.085 15.5773 1045 89.9914 1201.9 490.097
155 0 68.1209 13.4467 916 95.1714 1201.29 487.01
156 0 69.0926 12.3892 856 97.9147 1201.46 485.536
157 0 74.1119 14.2487 1056 93.6932 1201.34 484.813
158 0 75.0899 13.597 1021 96.286 1201.48 483.26
159 0 76.323 13.1022 1000 96.795 1201.85 481.723
160 0 80.2689 14.277 1146 97.3473 1202.55 478.586
161 1 46.2899 11.7088 542 95.0609 1202.81 498.419
162 0 45.352 11.7966 535 97.2822 1203.01 496.744
163 0 45.2492 11.072 501 99.1497 1203.45 496.563
164 0 50.1857 10.5807 531 98.4501 1205.1 496.328
165 0 48.1348 11.2808 543 98.6906 1204.87 495.064
166 0 52.1174 12.6445 659 95.1275 1206.3 496.027
167 0 53.2795 12.5001 666 96.2117 1205.77 495.23
168 0 53.1719 11.98 637 96.0973 1204.44 495.074
169 0 55.1321 12.3159 679 95.6421 1205.14 494.127
170 0 56.085 12.6594 710 95.1451 1204.74 494.027
171 0 57.1718 12.1564 695 97.1597 1205 494.23
172 0 59.2125 12.7845 757 96.3223 1205 493.144
173 0 61.2373 14.2397 872 94.2936 1204.72 492.018
174 0 64.0717 12.5797 806 97.9404 1203.76 492.032
175 0 65.0884 14.1346 920 95.8783 1203.64 492.118
176 0 66.0622 13.8052 912 97.7741 1203.27 489.248
177 0 69.0885 13.5044 933 97.3312 1203.05 490.044
178 0 71.0893 14.2638 1014 95.8077 1203.59 489.404
179 0 73.1633 14.8709 1088 94.9026 1202.68 487.395
180 0 75.1266 14.5754 1095 97.2073 1202.12 484.601
181 0 78.1642 13.9834 1093 96.4831 1201.34 484.917
182 0 79.1352 14.9365 1182 97.2445 1201.44 481.367
183 1 38.0572 8.40841 320 99.1156 1200.48 503.584
184 0 42.2048 9.80931 414 98.0773 1201.56 501.862
185 0 47.0899 11.2551 530 94.7377 1201.91 501.223
186 0 48.371 13.2931 643 91.9751 1201.74 500.009
187 0 46.1595 10.5287 486 97.4239 1201.23 500.778
188 0 48.2098 12.093 583 95.9674 1201.07 498.794
189 0 51.1279 12.5763 643 94.4495 1200.98 497.61
190 0 51.2243 11.8303 606 96.3713 1201.61 496.536
191 0 53.317 12.9415 690 94.0623 1202.14 494.628
192 0 53.3565 12.9881 693 94.57 1202.14 494.306
193 0 56.2819 13.6634 769 93.3589 1202.42 493.282
194 0 56.3738 12.7364 718 96.2772 1202.84 492.563
195 0 60.3694 14.6763 886 92.7054 1204.12 490.576
196 0 60.1945 13.3235 802 95.8604 1203.41 491.045
197 0 62.1952 13.329 829 95.5875 1203.31 489.516
198 0 63.3108 12.3518 782 98.4821 1204.16 488.648
199 0 66.2071 13.9864 926 95.7678 1203.3 485.839
200 0 68.173 15.0793 1028 94.034 1203.56 485.987
201 0 70.2635 13.8194 971 96.1473 1202.77 487.154
202 0 72.2082 14.4859 1046 95.6386 1202.61 484.035
203 0 76.163 15.283 1164 93.2122 1202.46 487.195
204 0 77.1188 16.7145 1289 92.3134 1203.08 484.795
205 0 80.2501 14.8286 1190 95.9496 1203.08 483.069
206 0 81.337 14.1141 1148 97.4625 1203.21 483.246
207 0 83.1986 14.4834 1205 97.1162 1203.3 483.407
208 0 86.2222 13.2564 1143 99.5381 1202.46 481.738
209 1 46.1074 11.6033 535 97.0262 1203.61 502.252
210 0 50.1837 11.2387 564 96.9504 1203.68 499.711
211 0 51.2473 13.5227 693 95.0664 1202.67 499.811
212 0 51.1634 12.0399 616 99.6948 1201.82 497.023
213 0 54.2049 12.8217 695 95.8144 1201.73 497.894
214 0 55.1525 12.2025 673 97.9406 1200.64 496.743
215 0 56.0542 11.3818 638 99.7006 1200.44 494.619
216 0 58.1596 13.7037 797 95.4316 1199.84 493.937
217 0 60.144 13.4677 810 95.6864 1199.9 493.41
218 0 60.103 13.3105 800 96.1388 1199.14 490.436
219 0 62.2165 13.6298 848 95.0413 1199.59 490.873
220 0 64.0938 13.1682 844 96.109 1200.05 488.173
221 0 65.0976 13.3031 866 95.7633 1200.52 488.859
222 0 70.208 13.0612 917 94.8201 1200.12 488.713
223 0 72.1498 12.7928 923 95.2969 1199.76 487.323
224 0 73.2066 12.7721 935 95.3337 1200.18 484.41
225 0 76.1122 13.5458 1031 94.3773 1200.04 483.08
226 0 78.2744 12.2134 956 97.1527 1200.01 481.851
227 0 79.2595 13.8911 1101 95.4787 1200.47 481.012
228 0 80.2024 13.7028 1099 97.0118 1200.62 478.371
229 0 85.42 14.9263 1275 93.7537 1200.73 477.816
230 1 47.0979 12.2511 577 94.1889 1201.64 496.811
231 0 48.4814 10.3132 500 97.782 1202.13 495.154
232 0 50.147 11.9848 601 94.4093 1202.63 493.454
233 0 51.1441 12.6896 649 92.8305 1202.68 495.165
234 0 53.3708 13.5093 721 90.8017 1202.86 495.09
235 0 54.22 12.8366 696 93.3779 1202.1 493.474
236 0 54.1199 12.3245 667 95.5667 1201.95 493.913
237 0 55.0735 12.8919 710 95.8901 1202.24 492.206
238 0 58.0285 14.0793 817 93.6916 1202.41 491.732
239 0 60.2093 13.0711 787 95.5489 1202.58 491.681
240 0 62.1877 13.5236 841 95.6159 1202.44 491.837
241 0 61.0709 11.8714 725 99.6869 1201.38 491.421
242 0 65.1959 12.9763 846 97.5556 1201.22 490.403
243 0 68.1641 14.8172 1010 94.9337 1201.53 488.78
244 0 71.1815 15.0601 1072 92.7603 1201.84 490.507
245 0 71.0823 14.0823 1001 97.3546 1201.68 486.789
246 0 75.1391 16.5826 1246 92.3571 1201.25 485.582
247 0 78.1756 16.5141 1291 92.9791 1201.28 486.248
248 0 80.2984 15.3303 1231 95.2673 1200.06 485.34
249 0 82.1043 14.3841 1181 91.619 1199.43 482.651
250 1 43.105 10.1844 439 96.3531 1200.15 503.672
251 0 46.1363 10.8591 501 95.1158 1200.73 503.25
252 0 46.1363 10.9892 507 141.138 1201.7 503.079
253 0 46.2695 11.9949 555 97.8901 1200.42 498.258
254 0 49.0623 13.7173 673 92.8336 1200.06 498.935
255 0 50.0326 13.4712 674 93.7107 1200.64 498.123
256 0 51.1871 13.6167 697 94.5222 1200.73 496.006
257 0 50.0915 12.3574 619 97.2391 1199.92 495.688
258 0 51.1159 12.3249 630 96.581 1200.88 494.581
259 0 52.0371 12.7986 666 96.2943 1201.03 492.623
260 0 57.1039 14.0971 805 92.9478 1200.76 492.595
261 0 58.2385 12.6892 739 95.9364 1201.16 493.222
262 0 59.1162 14.4292 853 94.286 1201.97 488.848
263 0 61.0831 12.7531 779 97.6983 1201.12 488.558
264 0 65.1484 15.411 1004 92.3765 1202.51 487.786
265 0 64.0687 12.2056 782 99.6854 1201.81 489.336
266 0 69.1689 14.9923 1037 94.1948 1202.64 488.051
267 0 69.1689 15.1079 1045 135.392 1203.64 488.146
268 0 73.1988 14.5221 1063 96.9134 1203.51 486.509
269 0 76.1297 13.4245 1022 98.7583 1203.45 486.537
270 0 77.2236 14.5292 1122 98.5998 1203.45 482.968
271 0 81.1612 17.225 1398 94.4692 1203.3 481.129
272 1 44.0273 12.3333 543 97.4843 1203.58 502.462
273 0 45.1076 10.5969 478 101.713 1204.07 502.642
274 0 48.0957 12.7246 612 97.165 1204.47 502.234
275 0 48.143 12.7329 613 99.4551 1204.3 501.217
276 0 48.0744 11.9398 574 101.087 1203.58 501.652
277 0 51.0499 12.3409 630 101.962 1203.59 498.995
278 0 53.0535 12.6476 671 101.945 1202.27 498.3
279 0 57.1116 14.6555 837 97.6977 1201.64 496.149
280 0 59.0915 14.1137 834 98.506 1201 496.839
281 0 58.0808 13.7223 797 101.176 1200.93 495.542
282 0 60.0533 13.538 813 102.893 1200.57 493.234
283 0 63.0876 14.5195 916 101.701 1199.81 491.277
284 0 65.0493 14.0663 915 103.176 1199.43 490.763
285 0 69.2444 14.225 985 102.255 1200.23 489.883
286 0 71.0512 14.4403 1026 103.238 1200.26 486.905
287 0 72.1445 13.4452 970 105.268 1200.36 487.077
288 0 75.2143 14.5584 1095 103.345 1199.7 482.439
289 0 79.2458 14.3351 1136 103.009 1200.36 481.533
290 1 43.0723 10.1225 436 100.507 1200.97 502.679
291 0 45.0939 11.7089 528 99.9905 1201.49 499.907
292 0 46.0747 11.286 520 100.325 1201.82 498.748
293 0 46.0965 10.196 470 101.051 1202.66 499.57
294 0 50.0678 13.5017 676 94.2559 1203.64 499.151
295 0 48.0864 13.5589 652 96.1472 1203.41 496.946
296 0 50.0791 12.7798 640 97.1703 1204.72 496.639
297 0 52.0917 11.8829 619 98.2714 1205.07 495.973
298 0 55.0531 13.1146 722 94.6344 1204.07 496.188
299 0 55.1025 13.6836 754 94.4642 1204.5 495.955
300 0 58.1173 14.1094 820 93.2098 1204.09 496.772
301 0 59.1109 13.9061 822 132.859 1204.09 496.848
302 0 61.0856 11.885 726 97.1198 1202.83 495.616
303 0 62.0502 12.6349 784 96.6594 1203.88 494.793
304 0 68.08 15.1733 1033 90.1791 1202.06 494.512
305 0 67.0961 13.816 927 94.6645 1202.19 492.955
306 0 69.0895 13.8661 958 96.2881 1202.46 491.709
307 0 72.3176 13.2748 960 97.5365 1202.14 490.343
308 0 75.2324 12.7206 957 98.9498 1201.71 489.235
309 1 41.1169 9.9959 411 98.1946 1201.86 505.781
310 0 41.0945 10.0013 411 98.4866 1201.38 505.47
311 0 43.0474 11.0808 477 99.9224 1200.41 505.094
312 0 43.0474 11.0808 477 151.308 1197.4 505.021
313 0 47.0666 12.3017 579 97.3558 1199.59 502.242
314 0 46.1106 12.6435 583 97.1201 1199.36 501.225
315 0 49.104 12.4226 610 97.1 1198.97 499.174
316 0 49.0976 12.4853 613 141.073 1198.95 499.277
317 0 52.0496 13.7369 715 96.7776 1199.57 496.783
318 0 53.2557 12.9751 691 98.9971 1199.5 495.201
319 0 56.1737 12.942 727 98.5089 1199.4 495.663
320 0 56.0527 12.9343 725 99.7117 1199.99 493.062
321 0 60.1224 13.9549 839 95.944 1200.72 492.763
322 0 60.1777 12.3468 743 87.825 1201.38 492.487
323 0 61.1034 12.7161 777 101.384 1201.21 490.224
324 0 66.0372 14.4161 952 95.2574 1202.08 492.067
325 0 68.0751 13.7348 935 97.8588 1202 489.414
326 0 67.1511 13.0601 877 100.542 1202.76 488.323
327 0 73.1519 14.8868 1089 96.505 1202.89 487.688
328 0 74.29 14.8741 1105 96.924 1203.47 485.909
329 0 75.1517 13.6391 1025 99.6215 1203.14 485.741
330 0 81.0717 14.9004 1208 97.6763 1203.73 484.772
331 0 84.1996 15.0238 1265 99.5668 1203.49 482.758
332 1 46.1025 11.1057 512 98.9688 1203.13 503.848
333 0 48.0178 10.0171 481 100.073 1202.8 503.719
334 0 48.0832 10.981 528 100.354 1203.33 501.458
335 0 50.0467 12.5283 627 100.327 1204.25 501.536
336 0 53.1464 13.3593 710 98.6225 1204.23 500.749
337 0 52.1485 12.8479 670 102.09 1204.51 500.055
338 0 56.0945 12.7642 716 100.367 1204.03 499.951
339 0 59.0582 12.8687 760 100.812 1203.24 498.628
340 0 59.0833 13.6756 808 100.379 1203.21 496.472
341 0 61.1021 13.3547 816 100.779 1201.79 496.319
342 0 64.1904 13.9585 896 96.9855 1200.31 495.103
343 0 66.1889 15.2442 1009 94.8216 1199.95 494.883
344 0 66.1654 14.2522 943 97.9014 1199.77 492.586
345 0 66.199 13.2328 876 99.2774 1199.87 492.49
346 0 71.151 13.9281 991 97.3512 1199.57 489.878
347 0 73.1982 15.055 1102 95.3358 1200.33 487.247
348 0 76.152 12.9872 989 98.9575 1199.18 487.758
349 0 77.1207 13.7966 1064 98.2105 1199.12 485.632
350 0 80.2041 14.9369 1198 96.6945 1199.46 482.492
351 0 82.1901 14.5151 1193 97.4946 1200.31 481.339
352 0 83.2967 14.1902 1182 99.7208 1200.17 479.736
353 0 86.3052 14.0084 1209 100.727 1200.21 476.978
354 0 89.3232 15.3488 1371 98.8315 1201.12 476.346
355 1 47.1932 11.6542 550 98.9545 1202.56 498.431
356 0 49.1879 10.897 536 99.5578 1204.2 497.662
357 0 49.1536 11.2097 551 98.3503 1204.58 498.196
358 0 50.347 10.2091 514 99.7549 1205.1 499.173
359 0 55.065 13.5113 744 93.3266 1205.3 499.259
360 0 54.0797 12.7959 692 97.5506 1205.49 497.582
361 0 56.1453 12.4677 700 98.8257 1204.4 497.217
362 0 59.2229 12.6302 748 98.1003 1205.11 496.699
363 0 59.1196 14.0224 829 97.9505 1205.12 494.359
364 0 63.1547 14.6941 928 95.1358 1205.02 495.518
365 0 65.0965 14.7166 958 94.9896 1205.12 495.432
366 0 66.0662 13.1989 872 99.0482 1204.69 493.622
367 0 70.1318 13.2037 926 99.594 1204.25 493.245
368 0 72.2472 13.7168 991 100.601 1203.59 491.423
369 0 74.3034 14.6023 1085 99.1134 1203.47 490.187
370 0 77.2402 14.1636 1094 99.2386 1202.43 490.25
371 0 80.4335 14.1981 1142 99.6121 1201.81 487.317
372 0 83.2431 14.4877 1206 99.1965 1201.77 484.315
373 0 87.3005 14.5245 1268 97.3935 1201.04 483.871
374 0 89.1875 14.5985 1302 98.0177 1200.96 481.342
375 0 90.3256 13.3849 1209 101.05 1200.72 479.051
376 0 95.3725 14.7946 1411 96.1354 1201.31 477.145
377 0 98.3165 14.016 1378 97.9049 1200.7 474.51
378 1 55.2202 11.1191 614 95.4528 1200.72 495.182
379 0 56.1792 9.27389 521 98.4012 1199.04 495.228
380 0 59.2703 10.6461 631 95.8653 1198.75 494.319
381 0 60.0854 12.2326 735 93.6 1199.62 494.075
382 0 62.1925 12.6543 787 93.8869 1200.84 490.712
383 0 63.2884 11.9137 754 96.256 1200.27 489.662
384 0 66.3544 13.247 879 92.851 1201.27 489.809
385 0 69.2995 12.4676 864 94.4213 1202.24 488.763
386 0 70.1243 13.7328 963 92.9491 1202.4 486.695
387 0 73.2519 14.2249 1042 91.3628 1202.57 485.974
388 0 73.1616 13.6684 1000 92.537 1203.06 487.567
389 0 74.257 12.8742 956 94.8661 1203.64 486.11
390 0 79.5275 13.6934 1089 92.4885 1203.31 485.723
391 0 79.1889 12.6912 1005 94.3542 1204.15 483.724
392 0 83.2585 14.8213 1234 90.8258 1204.09 482.37
393 0 83.2585 14.9054 1241 135.338 1204.09 482.246
394 0 89.2667 13.3308 1190 93.0605 1204.17 481.36
395 0 93.3171 14.6383 1366 91.7592 1204.08 481.321
396 1 45.131 8.26482 373 92.5121 1204.58 504.987
397 0 52.3972 12.0044 629 88.1129 1203.86 503.313
398 0 52.3423 10.3931 544 88.432 1203.99 506.732
399 0 52.224 11.106 580 89.8741 1203.88 501.679
400 0 56.2174 13.6612 768 85.0469 1203.9 500.405
401 0 56.2297 14.3341 806 86.2742 1204.31 499.592
402 0 57.2655 12.9572 742 88.566 1203.46 499.085
