time division length width area intensity CMx CMy
0 0 39.0218 13.8384 540 124.97 741.733 501.226
1 0 40.0894 14.9167 598 123.273 742.508 499.968
2 0 38.1236 13.5874 518 133.728 743.521 498.959
3 0 41.0349 13.5738 557 127.587 744.095 498.521
4 0 43.2453 13.5968 588 130.276 744.01 497.393
5 0 42.1679 14.9877 632 126.345 743.538 498.46
6 0 42.0932 14.3729 605 130.582 743.261 498.387
7 0 46.1128 14.7248 679 123.278 743.875 498.601
8 0 45.1371 15.752 711 125.177 742.993 497.031
9 0 45.2279 15.0129 679 127.389 743.442 495.832
10 0 48.1947 16.3088 786 122.653 743.121 496.612
11 0 48.1705 15.113 728 128.24 743.255 494.959
12 0 49.1255 15.7556 774 128.506 743.871 495.24
13 0 51.1591 16.048 821 124.173 743.844 494.323
14 0 50.1848 15.1241 759 130.506 744.224 493.138
15 0 51.2585 14.3976 738 131.081 743.131 493.772
16 0 54.162 16.0444 869 124.779 743.365 492.601
17 0 55.107 15.479 853 126.55 743.312 491.96
18 0 58.1271 16.808 977 123.22 743.321 491.89
19 0 58.1184 14.4877 842 130.04 743.287 490.366
20 0 58.084 15.4776 899 128.426 742.798 490.356
21 0 59.0454 14.2263 840 132.663 743.586 488.97
22 0 64.1289 16.3889 1051 122.812 745.202 489.912
23 0 63.0523 15.4316 973 129.146 744.83 487.878
24 0 65.1889 15.1099 985 129.332 745.314 487.483
25 0 68.1112 15.9739 1088 127.813 745.239 483.891
26 0 72.1282 17.1639 1238 123.118 745.601 485.414
27 0 72.2288 15.7001 1134 128.405 746.046 484.081
28 0 75.2947 16.3889 1234 127.173 746.359 480.801
29 0 79.2977 16.7218 1326 123.159 745.459 482.253
30 1 39.2214 12.6971 498 133.02 744.743 498.474
31 0 41.1211 12.5726 517 128.439 745.153 498.93
32 0 44.1246 13.5979 600 125.832 744.765 497.793
33 0 45.1457 13.6004 614 124.976 744.774 496.607
34 0 45.1091 13.1237 592 128.191 744.64 496.233
35 0 47.0872 13.2095 622 128.449 744.616 495.818
36 0 49.0572 14.5137 712 126.874 745.15 493.76
37 0 52.0304 15.6832 816 122.353 745.7 493.407
38 0 52.1594 15.8936 829 122.136 746.025 493.209
39 0 52.1202 14.1979 740 127.128 746.041 492.786
40 0 56.148 15.7975 887 120.125 746.466 491.329
41 0 56.111 15.6297 877 120.331 746.477 492.26
42 0 60.0739 15.3478 922 120.031 746.638 489.061
43 0 59.0858 15.6552 925 120.401 746.489 489.315
44 0 64.2095 16.7421 1075 116.003 746.341 489.533
45 0 65.2663 14.3106 934 120.995 746.776 489.308
46 0 66.1678 15.8234 1047 119.138 747.124 486.413
47 0 68.1571 15.8164 1078 119.034 747.537 487.474
48 0 71.1199 16.423 1168 118.12 747.321 485.383
49 0 72.2273 15.9912 1155 118.814 747.123 485.356
50 0 75.2072 15.2512 1147 118.697 746.318 482.958
51 0 79.5359 16.3574 1301 115.84 747.055 482.244
52 0 80.274 14.5128 1165 119.411 746.75 481.13
53 1 44.1172 10.4268 460 115.391 746.798 501.724
54 0 44.0401 10.7629 474 116.943 747.11 499.675
55 0 44.031 13.5586 597 113.322 747.162 498.04
56 0 45.0524 12.7407 574 113.958 747.594 498.296
57 0 48.0842 13.5387 651 112.456 748.192 498.035
58 0 49.1812 13.2164 650 113.422 747.509 496.375
59 0 50.1539 13.977 701 110.632 747.773 496.377
60 0 53.064 14.4166 765 109.333 748.278 493.663
61 0 56.0528 15.646 877 105.556 748.151 493.449
62 0 55.045 14.2792 786 108.59 748.229 491.225
63 0 57.1146 13.8318 790 112.343 749.146 489.642
64 0 60.0885 16.7253 1005 106.095 748.502 489.728
65 0 61.0609 14.1334 863 111.761 748.771 489.008
66 0 63.105 15.8466 1000 107.053 749.072 489.605
67 0 64.0814 16.0109 1026 109.019 749.01 485.258
68 0 69.0848 15.4737 1069 110.036 749.008 485.867
69 0 70.0739 15.2696 1070 112.758 748.041 485.545
70 0 70.1164 12.6789 889 119.331 748.251 484.213
71 0 73.1385 14.8075 1083 115.822 748.757 484.895
72 0 76.0874 15.3245 1166 115.637 746.659 482.144
73 0 80.076 17.1462 1373 111.588 747.788 482.239
74 0 82.1002 17.6857 1452 111.302 747.748 480.225
75 0 84.1351 16.5567 1393 114.688 748.826 479.045
76 1 44.0375 10.7635 474 116.447 748.88 501.209
77 0 45.0892 12.3311 556 115.329 749.473 498.921
78 0 46.0291 13.4915 621 113.127 749.448 498.794
79 0 48.0997 13.1186 631 113.739 750.531 497.742
80 0 50.0407 13.2692 664 112.367 750.762 498.068
81 0 51.0371 12.344 630 112.689 749.483 497.77
82 0 54.0732 14.0735 761 109.997 749.033 496.028
83 0 57.0498 14.9519 853 108.395 749.946 494.559
84 0 58.1351 13.6406 793 109.079 750.383 496.333
85 0 59.0939 14.5023 857 109.372 749.916 493.866
86 0 62.2808 14.8842 927 110.671 749.202 491.495
87 0 65.1945 15.5381 1013 110.482 749.106 489.801
88 0 65.0357 16.4064 1067 109.942 749.211 488.688
89 0 67.2369 14.501 975 112.905 749.023 488.635
90 0 71.2065 16.4451 1171 109.392 749.74 486.858
91 0 71.1179 15.411 1096 113.464 749.501 483.097
92 0 71.1179 15.397 1095 158.67 749.495 483.067
93 0 77.2688 14.7666 1141 114.835 749.264 482.656
94 0 79.2995 15.5108 1230 113.691 750.028 481.459
95 0 82.3521 15.1544 1248 114.885 750.152 480.447
96 0 84.2901 15.7788 1330 113.856 750.35 477.602
97 0 87.2127 14.6194 1275 116.569 750.649 477.456
98 1 45.1354 10.9449 494 113.87 751.166 499.557
99 0 47.0619 12.9617 610 113.369 750.103 496.952
100 0 49.1475 12.1878 599 112.417 750.068 498.87
101 0 50.1295 13.3454 669 111.009 750.42 497.253
102 0 51.1136 13.4407 687 111.349 750.295 496.418
103 0 55.2855 13.3489 738 110.978 751.55 495.325
104 0 54.1499 13.4626 729 112.081 751.885 494.088
105 0 56.1392 14.09 791 113.412 751.803 492.278
106 0 60.0793 14.614 878 111.785 752.038 492.934
107 0 62.1439 14.2572 886 110.782 750.723 491.907
108 0 64.1299 15.0008 962 111.337 750.379 489.601
109 0 66.1334 13.7298 908 114.794 750.888 489.526
110 0 67.0898 13.8173 927 115.318 750.16 489.611
111 0 71.3204 15.9562 1138 110.613 749.975 487.144
112 0 73.2178 13.1935 966 115.575 750.084 487.794
113 0 74.3267 14.6515 1089 114.305 750.139 485.037
114 0 78.309 14.6599 1148 112.596 750.184 485.305
115 0 81.1342 15.1601 1230 111.228 751.321 484.511
116 0 84.1813 14.6707 1235 112.296 750.507 480.74
117 0 85.1342 14.3538 1222 113.571 750.738 480.382
118 1 45.0938 11.4872 518 109.471 750.014 501.832
119 0 48.0863 10.8139 520 111.408 750.046 499.069
120 0 49.0371 11.4199 560 110.752 751.061 498.214
121 0 51.0739 13.5098 690 104.645 749.181 497.754
122 0 53.0872 12.6396 671 105.835 749.098 496.726
123 0 54.0514 14.4492 781 103.58 750.543 496.219
124 0 55.0473 12.9525 713 107.663 749.909 495.045
125 0 57.0834 13.016 743 106.649 749.569 495.439
126 0 59.1494 12.9672 767 108.571 749.455 492.319
127 0 62.1008 13.9612 867 106.788 749.293 491.156
128 0 63.0802 12.7774 806 111.074 749.244 489.27
129 0 65.0605 13.2338 861 109.922 750.364 489.387
130 0 68.0849 13.8504 943 109.269 750.837 487.661
131 0 70.0846 13.4837 945 109.738 751.58 487.722
132 0 72.1154 13.2981 959 111.067 750.973 484.914
133 1 39.0235 10.4809 409 108.584 751.34 501.98
134 0 40.123 11.714 470 105.823 752.087 501.202
135 0 41.1012 11.6785 480 105.679 752.735 501.4
136 0 40.1127 9.74753 391 109.951 752.125 501.532
137 0 42.1965 10.4037 439 109.18 752.025 500.355
138 0 45.1128 11.2385 507 107.235 751.099 500.179
139 0 48.1084 12.5758 605 105.212 751.304 499.473
140 0 48.1843 12.7012 612 104.199 751.018 498.949
141 0 48.2047 12.1772 587 106.768 751.555 498.927
142 0 52.1213 13.5837 708 103.411 751.355 498.818
143 0 54.0815 12.703 687 103.856 752.54 498.758
144 0 55.1239 13.4243 740 103.836 751.623 497.662
145 0 55.0615 14.1115 777 103.03 751.958 495.613
146 0 58.1333 13.7443 799 103.26 751.476 495.722
147 0 59.0638 13.7309 811 103.533 750.618 494.689
148 0 61.201 13.5619 830 103.577 749.943 493.105
149 0 62.2163 13.4852 839 103.386 749.614 493.588
150 0 63.1468 13.1756 832 104.43 749.832 490.929
151 0 66.1875 12.6459 837 105.086 749.38 488.337
152 0 69.1831 13.7606 952 102.738 749.32 487.576
153 0 72.3116 13.3588 966 103.8 748.71 485.056
154 0 75.1003 14.6737 1102 100.142 748.617 486.302
155 1 38.1385 9.70149 370 101.892 748.514 503.862
156 0 40.2013 12.6115 507 96.6331 748.688 502.337
157 0 42.1223 12.3213 519 96.7071 748.817 501.403
158 0 43.2138 11.8712 513 97.3743 748.852 501.862
159 0 44.2298 12.0281 532 97.9286 749.423 499.476
160 0 46.1895 12.7302 588 96.8537 749.745 498.971
161 0 46.1768 14.3145 661 96.7988 749.682 497.585
162 0 48.1299 13.6921 659 98.3672 750.096 496.762
163 0 49.0743 12.3079 604 101.783 750.437 496.904
164 0 50.1431 12.8033 642 100.248 751.861 495.832
165 0 55.112 15.7497 868 93.1302 751.198 495.289
166 0 55.1972 14.421 796 96.6847 751.916 493.966
167 0 56.1904 14.9492 840 96.4679 751.679 492.987
168 0 57.2059 13.4077 767 100.159 751.209 493.746
169 0 58.1575 13.3775 778 100.243 751.189 492.844
170 0 61.3783 13.4901 828 99.3841 750.894 492.28
171 0 64.2696 14.4392 928 98.3427 751.275 491.607
172 0 69.3605 15.3401 1064 94.9145 751.428 491.659
173 0 68.2869 13.3408 911 101.655 751.246 489.211
174 0 69.2084 14.6081 1011 100.783 750.551 488.976
175 0 72.1985 15.7482 1137 99.504 750.372 487.033
176 0 76.416 15.0361 1149 100.163 749.923 486.352
177 0 79.2859 15.5765 1235 99.4259 749.874 485.457
178 0 82.3503 15.6526 1289 99.014 750.431 483.749
179 1 42.2252 9.85194 416 103.262 749.358 504.154
180 0 42.1764 8.25106 348 104.224 748.615 505.566
181 0 44.2565 11.3882 504 102.399 748.103 501.933
182 0 48.3042 11.1791 540 101.4 748.23 501.876
183 0 47.3289 12.149 575 101.21 747.529 500.056
184 0 49.2089 11.4613 564 104.025 748.037 498.89
185 0 51.1856 13.4022 686 99.6924 748.223 498.363
186 0 55.0916 14.9025 821 96.2022 747.942 496.436
187 0 55.1551 13.2173 729 101.192 748.043 496.708
188 0 55.0925 11.7076 645 105.064 747.502 495.144
189 0 56.1047 12.4945 701 102.87 747.767 494.559
190 0 61.0957 14.1581 865 99.6994 747.92 492.288
191 0 60.0975 14.0106 842 102.091 748.52 488.546
192 0 64.0747 15.4351 989 97.1577 748.431 489.346
193 0 65.1107 13.8533 902 100.109 748.878 488.95
194 0 69.179 15.0913 1044 97.9224 749.152 487.67
195 0 70.256 13.9632 981 101.265 750.411 485.57
196 0 72.2077 14.1121 1019 101.159 749.851 484.042
197 0 75.2093 14.7189 1107 99.9566 749.584 483.898
198 0 77.3137 14.7063 1137 101.631 750.429 481.131
199 1 41.1609 10.6412 438 103.879 749.895 498.477
200 0 43.1012 10.1157 436 102.64 749.654 500.002
201 0 45.1926 11.0638 500 102.688 748.832 498.992
202 0 44.0688 10.6651 470 104.345 748.909 498.587
203 0 49.0496 12.1306 595 101.155 749.055 498.627
204 0 49.0415 13.1725 646 100.941 749.621 496.69
205 0 49.0513 11.07 543 105.409 749.713 497.33
206 0 52.0216 14.148 736 99.9198 749.644 496.126
207 0 53.0434 13.0836 694 101.817 749.617 496.863
208 0 55.1379 12.8043 706 101.52 748.885 496.326
209 0 55.0962 12.3057 678 103.891 749.478 496.296
210 0 58.241 13.633 794 101.354 749.576 493.29
211 0 61.1095 15.1368 925 99.4681 748.501 492.694
212 0 62.1061 13.1066 814 102.516 748.047 494.106
213 0 64.0929 14.6506 939 100.032 747.695 490.603
214 0 67.1386 13.7924 926 100.317 747.763 489.067
215 0 69.1042 14.8616 1027 98.4761 747.092 488.631
216 0 71.208 14.4506 1029 99.9981 746.594 487.077
217 0 73.0893 14.6533 1071 99.3623 746.561 487.092
218 0 77.0952 14.4497 1114 100.039 745.825 485.604
219 0 78.0737 14.5247 1134 100.967 746.14 482.962
220 0 81.1136 14.7078 1193 100.614 746.427 481.365
221 0 80.1147 12.8316 1028 105.749 746.966 479.78
222 0 84.1684 14.2928 1203 103.222 746.521 478.228
223 1 45.1001 9.95564 449 101.356 745.786 500.615
224 0 44.1698 11.4332 505 99.1723 746.303 500.535
225 0 48.1526 11.692 563 100.123 746.549 497.579
226 0 48.0433 12.0724 580 101.214 746.555 495.893
227 0 49.1543 11.5148 566 101.191 747.15 497.493
228 0 53.0491 12.988 689 98.0479 747.531 495.592
229 0 53.1672 13.467 716 98.6089 747.852 492.541
230 0 55.074 12.801 705 100.245 748.374 492.475
231 0 59.3192 14.6158 867 94.97 748.581 493.134
232 0 60.2054 14.1682 853 96.9625 748.694 491.171
233 0 62.1965 13.9075 865 97.9329 748.74 490.704
234 0 63.1271 13.9877 883 98.3114 748.886 490.027
235 0 66.1725 13.4497 890 98.9708 748.838 489.003
236 0 67.1485 12.6287 848 101.433 748.653 488.761
237 0 71.0538 14.3835 1022 98.5616 749.093 488.064
238 0 72.1749 14.16 1022 100.111 749.205 485.689
239 0 76.0964 14.4948 1103 99.9991 749.305 486.409
240 0 78.1011 14.1995 1109 101.432 749.119 485.186
241 0 82.1403 14.5239 1193 100.767 748.23 483.837
242 0 84.1573 13.6887 1152 103.397 747.969 481.684
243 0 86.4024 13.7728 1190 103.727 747.695 482.695
244 1 44.1416 10.3757 458 98.6703 748.452 504.605
245 0 46.0663 10.2895 474 100.044 748.462 502.635
246 0 48.0611 10.341 497 101.658 747.545 500.111
247 0 48.092 11.6651 561 101.251 747.588 497.932
248 0 52.0712 12.5789 655 96.7481 746.484 498.418
249 0 53.039 13.2356 702 89.8447 745.848 496.688
250 0 56.1261 12.8995 724 95.9199 745.696 495.544
251 0 55.0432 12.0269 662 99.8202 745.935 494.236
252 0 55.0432 11.9361 657 136.566 745.921 494.32
253 0 60.0463 12.0241 722 99.2161 745.409 493.68
254 0 60.0978 13.062 785 98.7185 745.474 489.893
255 0 63.0614 12.1152 764 99.8966 746.103 488.277
256 0 66.1261 12.5064 827 99.023 746.213 488.222
257 0 67.1361 13.8227 928 97.3642 745.986 486.067
258 0 69.0877 13.9099 961 96.3819 746.867 485.175
259 0 72.1126 13.9088 1003 96.1446 747.178 482.872
260 0 75.0661 13.5081 1014 96.7012 746.964 482.704
261 0 78.1018 13.38 1045 97.8967 747.44 479.767
262 0 81.1429 13.6549 1108 97.6877 748.412 478.739
263 0 83.0644 13.7845 1145 98.3319 747.785 478.668
264 0 84.2893 12.4571 1050 101.173 749.284 475.53
265 1 47.0556 10.7957 508 97.0354 748.776 496.974
266 0 48.1067 11.3082 544 96.2574 749.221 496.524
267 0 51.0893 9.68891 495 97.3636 750.026 496.594
268 0 53.0764 10.0421 533 96.651 750.173 497.649
269 0 55.0745 10.4041 573 96.5183 750.49 496.346
270 0 57.0517 12.3397 704 93.3977 750.379 497.099
271 0 57.0413 12.7802 729 96.2044 750.342 493.815
272 0 59.1199 14.1238 835 93.1976 749.842 494.247
273 0 61.0492 12.1378 741 97.8367 750.023 493.043
274 0 60.1661 11.3685 684 100.928 750.289 492.387
275 0 63.097 14.8343 936 95.2938 750.274 492.012
276 0 66.1393 13.8344 915 96.9497 749.587 491.755
277 0 68.1792 13.5232 922 97.9132 749.542 491.284
278 0 68.2051 13.5767 926 99.3952 748.578 488.185
279 0 71.1829 13.8236 984 98.9157 748.111 487.941
280 0 74.1621 15.965 1184 94.2652 747.57 488.396
281 0 76.0862 15.995 1217 96.0838 747.24 485.367
282 1 41.0325 10.6988 439 98.2369 748.016 503.608
283 0 44.0297 11.2197 494 97.6255 747.136 502.091
284 0 42.0654 10.864 457 100.683 747.074 502.199
285 0 46.0263 12.4494 573 97.1117 747.34 501.012
286 0 48.1139 13.7382 661 94.0787 747.817 501.08
287 0 47.0809 11.8944 560 100.418 748.066 498.321
288 0 49.0578 12.577 617 98.0243 747.527 497.543
289 0 49.0664 12.7582 626 98.4425 747.599 497.462
290 0 51.1597 12.1385 621 99.7504 747.461 496.939
291 0 52.0961 13.2064 688 99.9142 748.096 495.69
292 0 54.0985 12.2739 664 102.36 748.161 493.572
293 0 55.0308 14.0649 774 100.333 749.151 492.596
294 0 57.0387 13.149 750 102.435 750.032 493.02
295 0 57.1575 13.4365 768 102.023 749.997 493.408
296 0 61.1298 13.7249 839 103.186 751.428 490.265
297 0 61.1039 13.0761 799 105.233 752.064 491.02
298 0 63.2606 14.1162 893 105.664 751.075 488.57
299 0 67.1428 14.8638 998 103.566 751.714 489.863
300 0 68.1085 14.1686 965 105.808 751.288 490.383
301 0 68.1085 14.0805 959 148.815 751.273 489.739
302 0 74.164 14.0634 1043 108.526 750.075 487.693
303 0 76.1004 14.5203 1105 109.742 751.12 485.759
304 0 78.1606 14.1504 1106 111.109 749.4 485.974
305 0 81.2761 15.3428 1247 109.338 749.561 486.553
306 0 83.3293 14.4967 1208 112.264 749.635 485.802
307 0 88.165 15.3122 1350 110.798 749.221 482.714
308 0 89.1574 15.3661 1370 111.364 748.664 482.68
309 1 46.0693 10.6579 491 112.668 749.291 503.925
310 0 50.0584 10.8274 542 113.018 748.779 502.832
311 0 51.155 12.1396 621 113.18 747.604 500.424
312 0 49.1663 11.5526 568 156.602 746.667 501.78
313 0 53.0785 12.9431 687 110.135 746.959 498.936
314 0 55.0862 13.379 737 109.109 746.772 497.588
315 0 59.1525 15.6376 925 103.808 745.265 497.095
316 0 59.1525 15.6037 923 147.654 744.296 497.007
317 0 62.2475 14.1692 882 109.661 746.011 493.075
318 0 61.1483 13.917 851 111.233 746.137 492.115
319 0 65.1435 13.5854 885 110.47 746.073 490.599
320 0 66.1176 13.9297 921 110.997 746.61 489.262
321 0 69.1413 14.7669 1021 107.596 747.396 489.064
322 0 73.1352 16.0251 1172 92.5085 748.038 489.066
323 0 74.1348 14.6895 1089 108.15 747.802 487.13
324 0 77.1423 15.2964 1180 106.059 748.547 484.358
325 0 78.1683 14.8654 1162 108.8 748.385 484.481
326 0 81.1998 15.2833 1241 107.587 749.286 482.739
327 0 83.2297 15.0187 1250 109.108 749.213 479.41
328 0 85.1294 14.0727 1198 109.098 749.868 482.068
329 1 48.0619 11.9221 573 107.141 750.068 501.454
330 0 50.0716 12.8017 641 106.491 750.477 499.819
331 0 51.1203 13.6345 697 106.735 750.311 499.176
332 0 53.1228 13.5159 718 105.515 749.816 500.513
333 0 53.0679 12.7572 677 107.453 749.839 499.053
334 0 54.04 13.9526 754 105.895 750.692 498.057
335 0 58.1383 14.9987 872 101.656 751.417 499.544
336 0 60.0973 13.4282 807 107.559 751.403 495.822
337 0 62.0878 14.0446 872 105.942 750.467 496.491
338 0 65.1022 14.4849 943 105.907 749.825 493.24
339 0 66.0805 14.1645 936 106.272 749.312 494.397
340 0 69.0395 14.47 999 105.688 749.827 493.088
341 0 70.1304 14.1023 989 106.914 748.42 491.598
342 0 73.2146 14.396 1054 107.104 747.151 487.308
343 0 75.5258 13.1478 993 109.234 746.779 488.631
344 0 78.4516 13.6135 1068 108.274 746.48 484.463
345 1 42.1106 11.7785 496 104.093 746.298 503.224
346 0 44.1143 10.3141 455 105.637 745.888 502.404
347 0 45.1089 11.0621 499 104.591 746.511 500.655
348 0 44.0716 10.5283 464 105.856 745.375 499.672
349 0 47.139 10.0554 474 106.192 745.312 499.359
350 0 49.0914 13.0573 641 101.078 745.721 496.156
351 0 52.0136 11.8431 616 102.773 746.369 494.818
352 0 51.0507 12.1252 619 102.806 746.081 493.688
353 0 53.0621 12.9471 687 102.204 746.172 491.678
354 0 54.1308 11.7863 638 103.484 746.929 495.063
355 0 56.0795 12.6606 710 103.652 747.459 494.248
356 0 58.0601 13.486 783 103.351 748.974 491.815
357 0 58.0553 13.0221 756 105.153 750.499 491.108
358 0 61.0904 12.8825 787 105.372 750.976 492.738
359 0 62.0443 14.0222 870 105.662 751.689 491.628
360 0 66.1139 13.9154 920 106.498 752.049 490.625
361 0 68.1148 14.4315 983 106.522 751.759 490.365
362 0 68.2504 13.6849 934 110.213 752.518 489.397
363 0 71.1791 13.7119 976 110.352 752.119 489.154
364 0 74.2855 13.825 1027 111.435 752.131 487.204
365 0 77.0924 15.5917 1202 108.951 752.096 486.94
366 0 80.1211 15.514 1243 109.742 751.517 486.307
367 0 83.1172 16.0737 1336 109.813 751.179 485.666
368 0 85.1069 14.9224 1270 114.188 750.537 483.943
369 0 88.1987 14.1159 1245 115.811 750.529 484.343
370 0 91.1197 15.6497 1426 114.013 749.363 479.334
371 1 45.0634 11.162 503 117.225 748.867 503.211
372 0 49.0456 12.1112 594 116.806 748.712 501.157
373 0 51.0962 11.5664 591 114.552 747.934 502.377
374 0 51.1264 11.9703 612 116.286 747.81 499.807
375 0 54.0483 13.4139 725 114.11 746.797 498.299
376 0 54.1651 13.5327 733 113.246 747.438 495.042
377 0 58.0585 14.7437 856 109.671 746.584 495.606
378 0 59.1507 14.3025 846 112.359 746.013 493.495
379 0 60.1065 13.6092 818 113.78 744.177 493.348
380 0 63.175 15.1326 956 111.528 744.029 492.115
381 0 64.1002 15.1482 971 112.973 744.615 489.706
382 0 66.0512 13.8983 918 114.827 746.024 490.411
383 0 68.1639 13.9077 948 116.35 746.16 489.285
384 0 73.0515 15.9477 1165 110.703 747.088 488.402
385 0 73.112 16.1807 1183 112.577 748.167 486.18
386 0 78.1498 15.24 1191 113.683 748.398 484.751
387 0 77.1312 14.3781 1109 116.464 748.744 484.402
388 1 40.0467 9.36406 375 120.979 749.619 502.501
389 0 43.0412 8.89845 383 120.214 750.52 503.828
390 0 46.0319 11.6876 538 116.561 750.426 501.695
391 0 47.1015 11.1461 525 116.827 751.05 501.912
392 0 50.0499 12.7473 638 114.29 750.798 501.58
393 0 50.0499 12.7673 639 162.238 750.809 501.577
394 0 49.1218 12.866 632 115.823 750.801 500.146
395 0 53.1767 13.4269 714 114.578 751.041 500.444
396 0 55.0596 13.8395 762 112.824 750.978 500.946
397 0 57.0634 14.9132 851 110.477 749.739 500.812
398 0 58.1302 14.2783 830 112.661 749.755 499.543
399 0 63.051 13.0847 825 112.77 749.799 498.928
400 0 64.0672 14.2819 915 110.268 749.915 496.78
401 0 64.1015 14.2742 915 111.884 750.246 495.768
402 0 67.1193 14.4966 973 111.069 749.508 494.853
