time division length width area intensity CMx CMy
0 0 48.0491 12.5289 602 132.229 1351.32 464.319
1 0 49.2272 14.0573 692 128.16 1350.68 463.532
2 0 49.1025 14.1541 695 133.735 1350.46 465.761
3 0 50.0306 16.8097 841 126.778 1350.32 466.442
4 0 50.0306 16.7298 837 118.356 1350.3 466.417
5 0 55.014 15.287 841 128.735 1347.53 461.693
6 0 55.014 15.3052 842 130.985 1344.52 461.701
7 0 56.0363 13.1879 739 134.681 1346.01 461.667
8 0 58.2897 15.4744 902 129.132 1346.22 459.49
9 0 59.1316 15.7953 934 129.869 1345.01 458.778
10 0 60.1758 13.4107 807 133.582 1344.79 458.353
11 0 64.1914 14.5035 931 132.306 1344.62 456.218
12 0 66.1196 18.5119 1224 121.484 1344.71 456.678
13 0 68.1504 14.3506 978 131.478 1343.71 454.824
14 0 69.0678 12.7701 882 134.858 1344.04 450.23
15 0 72.2017 15.7198 1135 131.537 1343.83 448.786
16 0 75.0841 14.4904 1088 135.323 1343.36 447.713
17 1 39.0881 10.924 427 138.899 1342.93 464.026
18 0 41.0736 13.8775 570 134.395 1343.12 463.221
19 0 41.0667 11.5422 474 137.458 1342.58 464.354
20 0 44.0948 13.1081 578 140.716 1342.55 462.097
21 0 44.2596 16.8777 747 126.783 1343.01 457.443
22 0 43.0592 12.9589 558 134.188 1343.4 456.817
23 0 45.0565 11.763 530 144.491 1343.46 457.155
24 0 49.0503 15.27 749 131.893 1345.95 454.801
25 0 51.0506 17.0615 871 125.304 1348.51 454.566
26 0 53.1891 15.3603 817 129.088 1348.93 450.649
27 0 53.1312 15.7911 839 127.803 1349.23 453.364
28 0 57.105 14.9024 851 128.517 1349.27 450.118
29 0 58.1128 15.7625 916 126.308 1349.72 448.144
30 0 58.1385 15.3599 893 128.227 1349.18 447.113
31 0 61.1583 15.8114 967 122.433 1350.61 446.958
32 0 62.172 16.7921 1044 123.71 1352.36 446.311
33 0 62.172 16.7439 1041 143.817 1353.36 446.311
34 0 68.096 14.5089 988 125.719 1354.61 446.444
35 0 69.1288 17.547 1213 119.329 1354.83 445.478
36 0 73.1885 16.7376 1225 121.709 1355.21 446.735
37 0 72.1036 15.242 1099 124.943 1354.99 446.409
38 0 76.1278 14.9354 1137 126.629 1354.6 445.576
39 0 79.1998 15.947 1263 120.405 1354.13 445.299
40 0 81.1845 17.0722 1386 119.193 1354.63 445.907
41 0 82.1181 17.5357 1440 116.74 1354.23 448.263
42 0 86.3278 14.1554 1222 121.43 1353.3 445.346
43 0 87.159 16.3494 1425 118.725 1353.34 440.18
44 0 93.2033 16.802 1566 119.725 1353.62 441.166
45 0 97.2809 17.5882 1711 113.423 1352.87 446.083
46 1 50.0308 12.8521 643 129.266 1351.71 465.757
47 0 51.0446 13.1258 670 127.984 1351.86 464.749
48 0 53.0678 12.4746 662 127.781 1350.06 467.813
49 0 53.0678 12.5311 665 135.177 1349.07 467.913
50 0 60.1514 16.3754 985 118.784 1349.23 462.109
51 0 59.1342 12.8183 758 127.438 1348.62 463.757
52 0 59.1342 12.8521 760 142.464 1348.62 463.863
53 0 64.2435 13.0286 837 125.913 1347.57 461.39
54 0 66.1521 13.4387 889 127.271 1346.75 456.999
55 0 71.3556 16.7751 1197 120.706 1345.76 455.337
56 0 72.383 13.8845 1005 126.719 1345.98 456.008
57 0 76.194 16.5892 1264 122.979 1345.61 452.604
58 0 77.2014 14.8572 1147 127.61 1344.78 447.612
59 0 81.2826 16.215 1318 123.603 1345.91 448.704
60 0 84.2032 17.5409 1477 120.062 1344.48 444.419
61 0 84.1976 17.6371 1485 135.819 1343.52 444.314
62 0 87.5792 12.8113 1122 128.495 1344.71 447.087
63 0 92.3593 14.9092 1377 126.354 1344.81 437.02
64 0 97.3682 17.5725 1711 120.781 1344.28 437.518
65 1 49.0704 14.9581 734 117.748 1344.8 459.394
66 0 50.0172 9.99657 500 127.628 1345.31 458.95
67 0 53.1316 14.7746 785 119.09 1344.95 455.39
68 0 53.1316 14.8311 788 135.051 1344.94 455.492
69 0 56.059 13.2896 745 116.839 1345.09 453.995
70 0 58.0825 14.6171 849 114.246 1345.44 450.747
71 0 58.0838 12.6025 732 118.255 1346.56 449.488
72 0 60.2171 13.4513 810 117.025 1347.8 449.979
73 0 62.1577 10.1355 630 123.471 1347.5 448.059
74 0 64.1807 12.6206 810 120.4 1347.68 443.881
75 0 67.2423 12.1947 820 120.141 1347.9 446.454
76 0 70.2749 13.0488 917 117.995 1348.9 446.102
77 0 74.2657 13.3171 989 117.24 1350.46 444.88
78 0 75.2367 13.3711 1006 117.195 1350.78 442.839
79 0 77.1416 14.3243 1105 114.801 1351.69 447.121
80 0 77.1416 14.3502 1107 120.447 1352.69 447.08
81 0 87.0954 15.328 1335 113.865 1352.02 445.202
82 1 43.0375 8.71333 375 122.221 1353.28 464.691
83 0 46.1073 9.39114 433 119.152 1353.82 465.014
84 0 48.0703 11.5664 556 117.881 1353.26 462.216
85 0 46.1452 11.8756 548 118.604 1352.04 461.286
86 0 49.0795 12.7548 626 116.711 1352.05 464.139
87 0 53.2512 18.8728 1005 106.531 1352.26 464.195
88 0 55.0912 13.0148 717 118.024 1352.22 465.067
89 0 55.0606 13.3308 734 118.185 1352.06 467.73
90 0 56.0868 13.9783 784 118.635 1351.65 462.329
91 0 57.127 12.9886 742 119.729 1351.76 465.282
92 0 59.0601 11.9031 703 121.58 1350.24 461.98
93 0 61.2591 12.4879 765 120.434 1349.11 465.431
94 0 65.1608 13.4283 875 118.815 1348.42 463.146
95 0 66.3094 12.4266 824 121.089 1347.33 459.785
96 0 67.3092 12.346 831 137.153 1346.32 459.517
97 0 70.0907 11.5279 808 123.371 1347.11 459.843
98 0 71.1271 12.9627 922 121.564 1346.86 456.997
99 0 76.1507 14.4056 1097 119.384 1346.34 454.588
100 0 76.1178 12.1522 925 123.47 1344.93 455.076
101 0 80.0701 12.2018 977 124.443 1345.55 447.926
102 1 41.0643 10.5201 432 120.521 1344.64 470.676
103 0 44.1739 11.4095 504 118.139 1344.7 467.96
104 0 43.054 9.29065 400 121.762 1345.2 467.608
105 0 46.0328 13.4035 617 115.258 1343.96 464.796
106 0 46.0328 13.3383 614 131.65 1342.95 464.782
107 0 51.0864 14.3874 735 109.673 1343.95 463.605
108 0 51.1781 13.1697 674 113.082 1343.61 460.85
109 0 51.0566 15.3751 785 110.167 1343.86 456.87
110 0 55.2476 17.1772 949 105.651 1344.08 457.881
111 0 52.2685 11.7853 616 115.992 1344.6 456.002
112 0 56.1603 12.3575 694 115.382 1345.97 453.014
113 0 57.1971 14.6686 839 111.725 1345.96 448.489
114 0 58.1453 16.218 943 107.268 1345.82 456.042
115 0 60.103 13.2606 797 113.031 1346.7 453.718
116 0 62.1884 13.8611 862 110.669 1347.66 453.201
117 0 65.1427 14.0921 918 110.829 1347.58 450.67
118 0 66.1712 17.2734 1143 107.498 1347.76 448.15
119 0 69.165 13.8654 959 113.011 1348.56 448.208
120 0 68.1937 12.0246 820 115.59 1349.8 448.865
121 0 73.269 17.8111 1305 107.293 1350.61 447.593
122 0 74.1718 13.4957 1001 113.284 1351.4 445.451
123 0 76.1891 18.441 1405 105.288 1351.89 447.479
124 0 80.2373 14.2203 1141 111.723 1350.96 442.428
125 0 82.262 19.4136 1597 104.941 1350.71 442.301
126 0 86.2969 13.7201 1184 112.459 1351.77 441.687
127 0 87.3399 13.6936 1196 114.937 1351.03 440.634
128 1 47.1448 10.9662 517 113.778 1352.7 464.23
129 0 49.0167 14.5053 711 108.595 1351.2 464.437
130 0 50.1588 16.7069 838 103.95 1351.52 462.594
131 0 52.0966 15.3369 799 109.305 1350.28 463.608
132 0 56.0839 13.0697 733 112.786 1350.46 464.608
133 0 55.0474 12.6618 697 114.126 1349.67 465.085
134 0 57.1423 14.1751 810 111.8 1349.43 464.206
135 0 58.1606 14.1161 821 111.926 1348.95 462.379
136 0 61.0758 15.4398 943 109.302 1348.7 465.26
137 0 63.0838 12.8401 810 114.698 1348.8 460.591
138 0 66.116 14.5804 964 110.788 1345.92 463.532
139 0 69.09 14.2857 987 111.782 1347.34 462.393
140 0 69.1564 14.2575 986 111.189 1345.38 464.486
141 0 71.4352 13.5087 965 115.54 1344.94 457.64
142 0 75.5432 14.6936 1110 113.512 1344.63 455.395
143 0 77.4676 15.3354 1188 112.783 1343.22 454.737
144 0 79.4543 13.6682 1086 115.739 1342.81 453.637
145 0 83.5809 16.7742 1402 109.422 1340.72 451.833
146 1 46.1283 10.2323 472 115.222 1340.96 469.466
147 0 43.2343 8.51176 368 122.071 1340.6 468.049
148 0 47.0441 11.7974 555 111.434 1341.36 466.766
149 0 49.13 14.0851 692 107.487 1340.09 464.999
150 0 51.1001 15.0489 769 109.018 1339.1 461.248
151 0 51.136 11.049 565 113.993 1338.38 464.752
152 0 54.0942 14.1235 764 110.397 1339.79 457.576
153 0 51.3147 13.388 687 113 1340.7 455.757
154 0 57.1198 13.8656 792 109.342 1340.62 460.73
155 0 55.1649 16.9492 935 109.151 1340.94 454.462
156 0 57.2224 17.196 984 107.994 1341.05 454.091
157 0 60.2464 14.5237 875 111.631 1340.86 452.341
158 0 61.1478 14.8493 908 111.526 1341.39 449.298
159 0 63.2264 12.2892 777 115.466 1342.65 453.179
160 0 63.2857 13.9052 880 114.633 1343.25 448.361
161 0 66.2124 12.6864 840 117.612 1344.03 451.958
162 0 67.1785 11.462 770 120.269 1344.5 449.001
163 0 73.3054 14.1872 1040 114.458 1345.88 447.762
164 0 74.3048 17.1591 1275 110.942 1346.68 447.892
165 0 75.4179 12.1457 916 120.33 1347.31 445.703
166 1 42.0741 12.7632 537 116.078 1346.59 463.879
167 0 41.0594 13.2978 546 115.603 1348.27 466.908
168 0 45.1293 13.8713 626 114.631 1347.81 462.906
169 0 45.0474 13.0973 590 118.007 1347.64 464.915
170 0 46.0703 13.6096 627 121.389 1347.59 467.719
171 0 47.1597 15.3097 722 115.547 1347.78 465.583
172 0 48.3257 13.8642 670 118.097 1347.54 467.084
173 0 49.2276 14.4837 713 119.203 1347.34 464.133
174 0 48.0555 13.0682 628 124.29 1346.57 467.54
175 0 51.0565 12.3784 632 124.082 1346.68 467.714
176 0 52.0968 13.1678 686 124.512 1346.58 469.036
177 0 56.075 14.7303 826 119.835 1345.97 469.432
178 0 56.1698 12.8361 721 125.839 1345.45 466.84
179 0 58.1982 14.9489 870 121.329 1345.63 468.941
180 0 59.0832 13.7772 814 123.068 1344.15 466.904
181 0 61.1354 13.74 840 121.476 1343.74 467.356
182 0 63.1948 14.1467 894 121.078 1343.45 465.11
183 0 66.3138 14.1449 938 121.029 1341.89 461.979
184 0 68.1883 13.932 950 122.227 1341.5 460.834
185 0 70.1578 13.099 919 123.738 1341.24 460.273
186 0 72.2489 13.9933 1011 123.207 1341.48 453.757
187 0 76.1821 16.093 1226 118.996 1339.95 452.436
188 0 76.1821 16.0536 1223 146.741 1338.96 452.417
189 0 74.1882 13.2096 980 155.433 1337.65 455.878
190 0 87.2086 16.7185 1458 116.984 1339.24 449.405
191 1 43.1198 10.3201 445 124.515 1338.12 469.499
192 0 46.0556 14.6996 677 117.75 1338.56 465.764
193 0 46.0162 13.4083 617 120.404 1337.96 463.632
194 0 47.0798 12.893 607 121.089 1337.27 460.867
195 0 48.106 15.84 762 112.942 1338.11 461.739
196 0 51.0822 18.9107 966 107.278 1340.29 459.579
197 0 51.0288 13.6002 694 116.465 1338.42 459.64
198 0 52.0726 15.0559 784 115.865 1339.18 455.911
199 0 52.0726 15.0175 782 132.563 1339.16 455.753
200 0 56.0732 14.9982 841 114.653 1340.78 455.759
201 0 56.0582 12.4157 696 121.032 1340.65 452.751
202 0 58.0391 15.4206 895 113.418 1341.87 454.154
203 0 58.0391 15.5068 900 136.276 1342.89 454.179
204 0 61.3336 16.1902 993 115.325 1343.32 450.592
205 0 63.5709 14.0158 891 118.696 1344.9 451.199
206 0 65.1512 14.1824 924 118.526 1345.95 449.705
207 0 68.2199 14.7904 1009 116.818 1346.19 453.285
208 0 68.122 13.6667 931 121.745 1347.1 452.254
209 0 72.2189 16.6438 1202 116.367 1346.29 445.723
210 0 74.1395 16.8871 1252 116.228 1347.18 449.359
211 0 75.1301 14.628 1099 121.34 1347.23 447.389
212 0 78.2044 20.6254 1613 111.894 1347.64 446.543
213 0 81.4138 17.0856 1391 117.472 1347.44 445.004
214 0 82.1814 11.6936 961 125.253 1346.67 448.212
215 0 86.1778 16.3499 1409 117.917 1347.27 448.463
216 0 90.2134 15.3081 1381 118.46 1347.6 448.022
217 0 93.4206 12.1065 1131 123.801 1346.86 440.602
218 0 94.3311 13.2618 1251 122.861 1346.5 441.128
219 0 99.5376 14.7181 1465 117.487 1346.31 448.443
220 0 103.327 12.175 1258 119.972 1345.92 442.849
221 1 55.0559 11.2794 621 109.844 1345.04 464.198
222 0 52.0899 11.461 597 110.481 1343.99 464.928
223 0 51.0994 11.1547 570 125.856 1342.94 464.314
224 0 61.0808 13.8996 849 114.717 1342.1 465.598
225 0 61.0808 13.8505 846 130.418 1342.08 465.635
226 0 66.18 17.9964 1191 107.736 1340.82 467.736
227 0 66.1589 14.3443 949 116.068 1339.34 460.843
228 0 66.0611 11.232 742 121.154 1338.68 461.606
229 0 72.1219 14.6142 1054 115.347 1338.28 458.738
230 0 76.3166 16.5757 1265 111.633 1338.31 457.595
231 0 77.3846 18.3499 1420 109.321 1337.84 457.72
232 0 81.4302 15.5839 1269 113.748 1339.15 449.77
233 0 83.3443 13.3542 1113 116.764 1339.12 451.22
234 0 85.1187 16.3184 1389 113.675 1337.8 446.138
235 0 87.4134 14.6659 1282 111.785 1337.41 445.105
236 0 90.5539 12.799 1159 113.997 1336.89 443.983
237 0 95.3138 12.7788 1218 111.463 1336.1 443.741
238 1 55.0807 12.6542 697 109.26 1337.27 459.861
239 0 56.161 11.2356 631 109.55 1336.97 461.745
240 0 57.0381 12.8686 734 110.636 1339.83 455.293
241 0 58.0453 9.40644 546 112.31 1338.2 460.11
242 0 58.0453 9.33753 542 138.535 1337.16 460.087
243 0 63.1909 12.7867 808 110.833 1341.36 451.938
244 0 64.0992 11.4042 731 111.358 1339.9 447.685
245 0 64.188 10.9678 704 113.29 1341.45 450.358
246 0 66.2181 12.5947 834 111.481 1341.34 446.776
247 0 72.1444 14.8452 1071 107.504 1342.52 445.271
248 0 73.2708 12.7609 935 110.61 1341.56 445.42
249 0 78.1797 13.8399 1082 108.28 1342.49 443.148
250 0 80.1632 14.1461 1134 104.717 1343.74 450.802
251 0 81.2714 12.5382 1019 109.737 1344.41 442.199
252 0 86.1598 14.7284 1269 107.685 1344.94 443.615
253 1 47.0457 13.1149 617 104.872 1346.38 467.366
254 0 47.1134 11.1858 527 112.694 1346.74 460.786
255 0 49.0675 11.1887 549 113.8 1347.67 462.184
256 0 53.1238 14.8898 791 107.517 1346.64 460.205
257 0 53.0483 17.4935 928 104.888 1347.56 459.392
258 0 54.1842 10.9257 592 118.41 1348.5 463.057
259 0 52.2119 11.0511 577 118.828 1348.06 462.236
260 0 57.1589 13.4362 768 114.876 1349.18 462.797
261 0 58.2708 10.537 614 120.248 1348.38 461.941
262 0 59.1576 12.6104 746 117.233 1347.22 463.493
263 0 61.068 11.872 725 118.799 1346.51 464.397
264 0 64.235 16.0037 1028 111.986 1346.61 464.671
265 0 66.2411 12.379 820 117.626 1345.8 464.554
266 0 68.1651 14.3769 980 113.67 1346.43 460.32
267 0 70.2079 14.3004 1004 113.818 1345.17 461.945
268 0 72.3535 14.2771 1033 112.968 1343.94 461.304
269 0 75.1912 14.0974 1060 114.855 1343.39 454.918
270 0 78.1434 15.446 1207 111.134 1342.55 458.389
271 0 81.2541 15.1869 1234 112.557 1342.39 451.395
272 1 40.0946 10.0013 401 116.621 1342.09 473.92
273 0 44.1233 11.6492 514 115.63 1340.46 469.399
274 0 44.0423 15.2127 670 109.797 1339.61 468.345
275 0 41.2048 10.4599 431 115.736 1339.86 470.476
276 0 44.1365 12.5066 552 110.723 1339.22 467.239
277 0 46.2677 10.677 494 112.059 1339.5 470.03
278 0 47.1764 14.202 670 109.178 1339.24 467.436
279 0 49.1393 14.5912 717 108.556 1339.25 463.066
280 0 49.0977 10.4689 514 114.87 1338.98 459.377
281 0 51.1992 10.9377 560 114.354 1339.14 462.529
282 0 52.3522 9.37878 491 116.289 1338.7 462.937
283 0 57.2315 13.9958 801 108.365 1338.77 457.607
284 0 58.2221 13.5 786 110.017 1340.3 453.386
285 0 60.0943 12.9962 781 109.941 1340.93 453.89
286 0 61.2564 13.419 822 109.484 1340.52 449.835
287 0 64.1939 13.4437 863 109.55 1341.55 449.568
288 0 64.3023 15.2094 978 106.913 1340.9 447.3
289 0 68.1026 14.625 996 105.01 1342.14 451.317
290 0 68.4182 12.7305 871 110.59 1342.94 447.906
291 0 70.4681 11.7216 826 112.234 1344.26 446.775
292 0 75.1126 12.6077 947 108.253 1344.75 449.202
293 0 77.2663 17.032 1316 105.742 1346.27 441.852
294 0 80.2103 15.5466 1247 106.958 1347.48 443.705
295 0 81.3474 15.4645 1258 108.228 1348.03 443.401
296 0 81.3474 15.4522 1257 137.88 1348.06 443.256
297 0 85.4455 13.5525 1158 113.002 1348.27 440.669
298 0 90.6606 15.0782 1367 111.164 1349.09 439.612
299 0 94.5842 14.2413 1347 113.475 1348.47 439.212
300 0 93.5476 13.5867 1271 115.864 1348.93 436.297
301 0 99.7917 15.4121 1538 112.365 1348.82 438.338
302 0 101.518 16.6375 1689 108.886 1348.51 440.828
303 0 108.373 17.9012 1940 106.342 1348.1 440.497
304 1 55.1697 9.98736 551 116.149 1348.5 456.704
305 0 58.277 13.8133 805 111.243 1347.62 455.113
306 0 59.1802 13.3998 793 112.854 1347.26 456.769
307 0 62.1 13.2528 823 115.468 1348.04 461.739
308 0 65.0901 15.7474 1025 109.908 1347.09 462.064
309 0 64.1262 13.4734 864 115.715 1347.44 461.676
310 0 68.0881 14.3197 975 114.555 1347.58 459.157
311 0 70.1635 12.7844 897 117.366 1347.36 462.058
312 0 72.2319 14.2181 1027 114.555 1345.71 461.724
313 0 76.4636 14.0067 1071 115.111 1344.85 460.232
314 0 75.2317 13.8638 1043 117.598 1343.66 457.245
315 0 80.3954 13.3465 1073 117.409 1343.06 452.971
316 0 82.2068 13.8553 1139 117.252 1342.79 452.258
317 0 87.396 18.0214 1575 110.755 1342.79 448.09
318 0 89.23 16.0148 1429 113.15 1340.6 446.516
319 0 92.5201 16.5802 1534 112.952 1339.92 442.404
320 0 97.6161 13.9219 1359 116.597 1340.09 437.132
321 0 99.4438 13.0727 1300 120.014 1340.01 436.894
322 1 52.7569 14.9933 791 109.239 1340.02 460.98
323 0 54.5105 14.089 768 111.48 1338.55 455.888
324 0 57.4483 15.5096 891 112.114 1339.59 450.496
325 0 59.1188 19.8245 1172 104.869 1339.73 454.895
326 0 61.4524 15.8659 975 113.893 1338.55 452.763
327 0 62.3458 14.3394 894 117.554 1339.61 450.709
328 0 65.225 14.9329 974 114.988 1340.08 449.774
329 0 68.418 16.2823 1114 112.521 1340.39 446.686
330 0 70.68 13.4267 949 118.005 1341.5 446.96
331 0 71.3796 17.498 1249 112.058 1341.3 443.409
332 0 76.3789 17.9369 1370 110.604 1343.39 442.239
333 0 76.4666 14.0192 1072 117.064 1343.6 443.485
334 0 80.628 15.9994 1290 113.298 1344.47 442.723
335 0 81.3463 14.7272 1198 116.805 1345.21 440.537
336 0 83.3406 14.4467 1204 115.977 1346.52 438.689
337 0 87.6216 16.8794 1479 112.375 1346.78 436.766
338 0 90.3177 13.5965 1228 113.787 1347.62 435.024
339 1 45.1905 13.4542 608 110.548 1348.72 458.988
340 0 45.1905 13.5648 613 143.269 1349.74 458.961
341 0 49.5942 14.78 733 106.276 1349.48 460.675
342 0 48.4781 13.9445 676 110.605 1348.57 457.038
343 0 51.1382 15.331 784 109.588 1348.74 458.939
344 0 51.1675 15.1854 777 111.481 1347.95 457.425
345 0 52.1524 12.0992 631 113.783 1349.48 464.238
346 0 56.3338 15.2839 861 105.438 1349.34 460.677
347 0 56.179 13.5104 759 106.929 1349.6 461.04
348 0 59.1427 14.017 829 105.166 1349.2 464.837
349 0 59.2914 12.5651 745 108.063 1349.27 462.609
350 0 63.1586 14.044 887 105.541 1348.99 463.351
351 0 63.2318 14.0752 890 106.704 1348.2 457.292
352 0 67.1771 15.8983 1068 103.782 1347.35 460.35
353 0 69.1738 14.6732 1015 106.051 1347.11 455.803
354 0 71.2213 13.1141 934 107.708 1346.58 458.992
355 0 73.1369 14.5754 1066 104.778 1346.24 458.372
356 0 77.2178 16.7448 1293 103.156 1345.83 455.334
357 0 79.1838 13.2603 1050 106.59 1344.75 457.247
358 1 38.0443 9.77808 372 110.051 1345.85 474.108
359 0 39.0724 11.1332 435 108.982 1346 474.032
360 0 41.1625 15.5481 640 103.973 1346.25 472.772
361 0 42.0939 14.8715 626 105.66 1345.65 469.652
362 0 45.2697 12.8784 583 109.611 1346.62 469.261
363 0 45.1833 12.0398 544 111.566 1345.42 466.428
364 0 46.167 13.0396 602 110.963 1345.25 464.404
365 0 47.2549 13.8821 656 109.893 1344.78 462.91
366 0 51.2444 14.0503 720 108.419 1344.26 463.801
367 0 50.2587 11.3811 572 106.603 1342.51 463.049
368 0 55.3128 15.6022 863 100.658 1342.44 461.394
369 0 53.1674 12.6393 672 107.329 1341.87 456.463
370 0 58.1841 15.4338 898 102.024 1342.51 455.832
371 0 59.1854 14.5644 862 103.097 1342.93 454.812
372 0 61.2039 17.2375 1055 100.652 1343.24 452.682
373 0 61.2452 13.8297 847 105.678 1343.69 449.907
374 0 64.1548 12.8128 822 105.612 1344.66 450.023
375 0 67.3532 14.9213 1005 103.437 1345.1 450.608
376 0 69.4119 13.2686 921 106.332 1345.21 445.995
377 0 72.2729 13.3107 962 107.644 1346.45 446.62
378 0 76.6395 16.4406 1260 103.363 1346.8 445.817
379 0 76.3523 13.2936 1015 107.636 1347.79 449.03
380 0 80.251 15.0403 1207 106.59 1348.94 439.502
381 1 42.1205 12.9628 546 108.121 1349.23 458.936
382 0 43.193 12.4094 536 109.011 1349.45 460.528
383 0 46.0886 14.841 684 105.75 1351.43 459.675
384 0 46.0886 14.8193 683 128.668 1352.42 459.647
385 0 47.1173 16.2785 767 104.996 1351.77 458.276
386 0 50.167 15.4484 775 105.41 1350.46 459.591
387 0 52.3122 13.9356 729 108.285 1351.13 460.979
388 0 50.1079 14.1095 707 109.86 1351.68 458.798
389 0 54.4309 14.4771 788 108.845 1351.88 459.668
390 0 54.4343 10.6367 579 113.649 1352.1 461.546
391 0 58.2234 15.8871 925 107.349 1352.78 456.081
392 0 66.7729 16.4588 1099 107.671 1353.15 458.864
393 0 65.3568 17.5651 1148 107.938 1351.79 457.759
394 0 65.2989 18.5455 1211 106.505 1351.26 461.142
395 0 65.2989 18.4383 1204 135.87 1351.24 461.198
396 0 69.3108 14.6298 1014 114.048 1350.67 456.977
397 0 69.3108 15.5243 1076 145.884 1349.69 457.757
398 0 75.6189 17.9056 1354 108.835 1349.12 454.609
399 0 78.5348 15.1271 1188 113.583 1348.76 453.012
400 1 40.3132 12.13 489 113.634 1348.46 474.104
401 0 41.3007 15.8109 653 110.24 1347.1 471.96
402 0 44.2541 12.5186 554 115.076 1347.24 470.343
