time division length width area intensity CMx CMy
0 0 47.1797 13.544 639 152.368 1197.43 470.933
1 0 49.064 15.1231 742 143.814 1195.88 469.523
2 0 51.1419 16.9137 865 145.083 1196.42 467.822
3 0 53.0951 16.9131 898 141.648 1195.35 469.275
4 0 56.047 17.5388 983 140.105 1194.6 466.295
5 0 58.08 17.8719 1038 135.351 1194.16 466.924
6 0 58.0693 17.2036 999 139.817 1191.94 465.894
7 0 58.065 17.0326 989 153.509 1189.94 465.853
8 0 58.065 16.981 986 153.223 1187.94 465.882
9 0 65.068 16.9822 1105 142.187 1189.8 463.332
10 0 65.0716 16.1822 1053 143.602 1189.95 463.073
11 0 66.1072 16.0043 1058 145.199 1189.1 458.728
12 0 66.1072 15.9741 1056 163.065 1188.1 458.655
13 0 74.366 17.6021 1309 133.832 1190.09 459.911
14 1 36.267 11.2499 408 144.676 1188.41 471.527
15 0 38.1471 15.2305 581 140.983 1188.59 471.348
16 0 39.1624 14.7335 577 140.766 1188.34 470.39
17 0 41.1932 15.1481 624 141.63 1188.73 467.423
18 0 43.1069 17.9786 775 133.975 1189.05 466.395
19 0 45.1938 15.9757 722 132.475 1188.94 467.116
20 0 45.0738 16.3953 739 135.081 1188.69 464.675
21 0 46.0656 17.7573 818 132.34 1188.64 463.178
22 0 48.0336 16.8007 807 129.561 1188.64 459.062
23 0 50.1818 16.8188 844 127.435 1192.65 457.161
24 0 50.1111 16.643 834 133.789 1191.94 458.362
25 0 53.0706 15.4888 822 138.719 1192.47 455.59
26 0 56.1444 19.6636 1104 127.313 1192.4 453.841
27 0 54.2218 15.3997 835 138.249 1193.5 453.459
28 0 58.2451 14.1128 822 138.88 1193.61 453.337
29 0 58.2316 14.2019 827 160.227 1194.64 453.351
30 0 63.143 17.1674 1084 131.667 1195.9 451.833
31 0 65.3257 20.3289 1328 126.714 1194.9 450.912
32 0 67.0467 17.4058 1167 130.112 1196.13 453.961
33 0 70.18 19.3787 1360 124.025 1197.65 452.899
34 0 69.3698 17.8031 1235 131.599 1198.05 450.777
35 0 73.1383 17.7472 1298 133.796 1199.06 450.263
36 0 73.1774 15.9749 1169 135.612 1199.16 450.128
37 0 76.1931 15.0145 1144 135.393 1200.62 450.919
38 0 79.2272 16.6105 1316 132.118 1199.32 448.758
39 0 82.0791 20.0538 1646 125.724 1200.93 449.128
40 0 86.1298 16.8118 1448 125.067 1199.94 449.816
41 1 44.0373 14.079 620 125.039 1199.05 470.813
42 0 50.1036 16.8052 842 119.909 1198.29 469.463
43 0 50.241 13.3158 669 125.59 1198.85 469.414
44 0 52.0523 16.2913 848 122.893 1198.92 469.435
45 0 53.0646 16.8285 893 118.661 1198.46 467.966
46 0 55.2846 15.7006 868 137.358 1198.27 469.268
47 0 58.1402 15.9958 930 135.542 1197.39 468.562
48 0 61.0657 17.3911 1062 132.297 1196.96 467.355
49 0 62.3107 17.2201 1073 131.372 1196.65 466.891
50 0 64.1087 15.4425 990 135.575 1197.48 467.775
51 0 66.0822 15.4202 1019 139.907 1195.45 463.265
52 0 70.1534 16.3499 1147 137.31 1194.8 462.344
53 0 70.0979 14.9505 1048 140.203 1194.11 461.577
54 0 76.2715 16.6379 1269 135.781 1193.55 459.638
55 0 78.2006 15.1405 1184 137.72 1193.55 461.456
56 0 81.3117 16.3445 1329 136.649 1193.01 455.309
57 0 83.2959 17.2037 1433 136.146 1192.01 451.676
58 0 84.1627 15.3631 1293 140.93 1192.34 450.187
59 0 88.1307 16.0557 1415 137.273 1190.56 450.112
60 1 48.0986 14.6782 706 133.271 1191.95 469.547
61 0 50.0929 16.4494 824 131.14 1191.24 466.708
62 0 52.1232 13.2762 692 135.438 1189.69 465.671
63 0 53.1157 16.1158 856 127.551 1190.04 463.515
64 0 55.17 14.4825 799 130.528 1190.38 464.232
65 0 56.0684 13.3943 751 132.483 1190.82 461.23
66 0 58.227 14.3919 838 132.683 1191.37 457.192
67 0 60.3367 13.5738 819 132.374 1191.62 459.624
68 0 62.2172 14.1761 882 133.133 1192.78 455.544
69 0 65.3997 16.2692 1064 129.772 1192.92 453.115
70 0 65.2393 12.9983 848 134.229 1193.66 455.532
71 0 67.3941 12.9685 874 135.727 1193.17 452.182
72 0 71.3969 15.8971 1135 130.522 1194.71 449.818
73 0 77.3597 14.9303 1155 130.794 1194.8 449.675
74 0 74.2123 12.8415 953 136.97 1196.22 446.935
75 0 78.4167 15.6982 1231 131.49 1196.8 444.549
76 0 83.3782 14.9559 1247 134.882 1196.83 443.331
77 0 84.5326 12.8353 1085 139.118 1196.32 442.228
78 0 88.2016 14.9204 1316 134.38 1197.7 442.002
79 1 46.1895 12.6003 582 126.124 1197.49 466.35
80 0 48.1428 12.546 604 126.267 1198.69 465.329
81 0 48.3251 11.7951 570 127.882 1198.5 465.474
82 0 51.1055 14.0689 719 123.494 1199.03 463.017
83 0 51.1055 14.0885 720 121.494 1199.04 463.031
84 0 56.0765 13.5172 758 127.292 1198.4 465.201
85 0 57.2931 12.4448 713 129.914 1198.57 465.456
86 0 60.2325 14.6765 884 127.369 1198.22 461.219
87 0 62.2643 13.8282 861 126.574 1197.41 463.822
88 0 63.2347 13.4894 853 128.641 1196.59 463.263
89 0 65.1406 11.1144 724 133.18 1197.35 461.193
90 0 68.2088 13.8838 947 126.987 1196.12 461.602
91 0 72.2046 11.7998 852 129.498 1195.36 462.246
92 0 75.4526 14.7775 1115 124.117 1196.16 461.994
93 0 77.3639 14.1151 1092 124.599 1195.41 461.813
94 0 79.2621 13.4238 1064 125.462 1193.97 460.276
95 0 83.3414 13.8827 1157 123.978 1193.66 455.158
96 0 84.3104 12.7505 1075 125.448 1191.49 455.028
97 0 87.415 11.863 1037 126.017 1193.36 453.783
98 0 90.2948 12.9354 1168 124.864 1191.09 454.142
99 0 96.2494 14.639 1409 122.299 1190.74 446.357
100 1 51.0971 11.8402 605 116.964 1189.4 473.964
101 0 54.1898 10.6847 579 118.886 1188.69 469.965
102 0 54.0849 13.2939 719 115.121 1188.26 467.968
103 0 58.0903 11.4821 667 116.64 1187.51 464.727
104 0 59.3225 12.2719 728 114.602 1188 462.567
105 0 62.1948 11.2871 702 116.754 1188.35 456.447
106 0 62.1948 11.2871 702 120.553 1188.39 456.395
107 0 65.2337 10.746 701 119.241 1187.7 453.991
108 0 67.3863 10.0911 680 119.46 1187.45 456.419
109 0 71.4122 14.2833 1020 115.389 1188.23 453.723
110 0 73.3552 10.5514 774 119.208 1188.7 454.169
111 0 73.3552 10.4696 768 135.417 1188.7 454.091
112 0 77.4752 13.6044 1054 116.872 1189.94 451.352
113 0 80.2491 14.3553 1152 116.89 1190.85 445.978
114 0 85.4421 13.2956 1136 120.007 1192.52 438.608
115 0 87.4926 13.1668 1152 120.033 1192.25 440.513
116 0 87.5945 12.2496 1073 122.738 1192.67 437.13
117 0 91.5613 14.8644 1361 119.32 1194.32 434.855
118 0 94.6002 12.315 1165 123.367 1195.4 430.859
119 1 50.9726 13.2228 674 113.466 1195.83 458.585
120 0 51.9181 11.6915 607 118.58 1195.59 458.755
121 0 52.3699 9.10828 477 117.34 1194.84 465.65
122 0 53.144 11.4971 611 115.887 1195.97 463.25
123 0 56.1809 12.5843 707 116.151 1196.36 459.665
124 0 57.3098 14.4653 829 112.695 1196.39 460.274
125 0 57.449 11.1403 640 116.511 1196.31 462.152
126 0 60.332 10.7737 650 118.586 1197.4 459.16
127 0 62.2205 12.0861 752 117.249 1197.06 457.324
128 0 65.4551 12.1916 798 116.807 1196.04 459.93
129 0 68.6411 11.9753 822 116.889 1197.3 460.343
130 0 71.3137 13.686 976 115.238 1195.56 457.12
131 0 73.4018 12.0978 888 119.774 1195.49 459.852
132 0 77.3459 15.3337 1186 112.728 1194.46 461.448
133 0 77.5546 11.4242 886 120.392 1194.37 454.791
134 0 82.4824 9.95364 821 121.716 1195.03 458.211
135 0 85.5274 14.5217 1242 116.127 1194.61 451.754
136 0 88.5956 11.2195 994 120.912 1195.22 454.752
137 0 91.3998 13.5339 1237 118.664 1193.13 449.064
138 1 50.3366 11.8204 595 113.442 1193.85 476.689
139 0 51.0476 11.597 592 114.552 1189.96 475.453
140 0 52.0565 10.0276 522 118.113 1189.97 475.67
141 0 55.2897 12.8234 709 120.107 1191.84 472.903
142 0 56.1779 13.9735 785 119.373 1191.86 468.629
143 0 55.0882 10.2563 565 126.956 1191.64 466.396
144 0 58.1659 11.7423 683 123.217 1191.94 465.01
145 0 63.1256 13.6395 861 120.044 1191.3 462.827
146 0 62.2322 12.5498 781 122.718 1190.17 463.079
147 0 65.1827 12.58 820 122.6 1189.11 462.517
148 0 68.187 13.067 891 121.935 1189.66 458.698
149 0 70.2746 13.988 983 119.561 1189.84 458.972
150 0 73.1539 12.8086 937 123.819 1189.45 455.317
151 0 76.0591 14.0154 1066 121.593 1190.34 454.6
152 0 76.1982 14.4492 1101 122.375 1190.36 449.68
153 0 82.075 15.7173 1290 119.827 1190.3 448.398
154 0 81.2442 13.441 1092 126.385 1191.71 444.394
155 0 86.0856 16.0306 1380 119.434 1191.13 442.703
156 0 87.2002 13.3371 1163 123.825 1192.1 443.654
157 0 91.2382 13.8539 1264 123.063 1191.9 437.611
158 1 46.1155 12.4036 572 117.764 1193.01 461.694
159 0 47.107 9.36167 441 124.492 1192.74 460.862
160 0 52.1056 12.6474 659 118.121 1194.09 460.909
161 0 52.4335 14.5899 765 111.773 1191.05 460.243
162 0 47.1061 11.0601 521 113.449 1193.25 458.115
163 0 51.0645 12.1807 622 110.386 1193.29 457.773
164 0 54.3595 11.7735 640 112.045 1193.36 458.825
165 0 55.2867 12.8241 709 118.636 1194.03 458.432
166 0 56.0754 15.0868 846 111.605 1194.91 462.392
167 0 58.269 12.1849 710 117.883 1194.75 458.746
168 0 61.2176 15.6001 955 111.448 1195.23 459.97
169 0 62.2233 16.2479 1011 109.723 1195.25 464.501
170 0 63.4454 12.9718 823 117.9 1195.62 458.836
171 0 68.4219 14.7467 1009 114.919 1195.38 460.246
172 0 67.3065 16.878 1136 111.896 1196.12 463.892
173 0 71.335 15.8688 1132 114.754 1195.55 461.416
174 0 72.2414 13.1642 951 120.302 1195.5 460.158
175 0 75.2737 15.3307 1154 117.925 1195.28 459.323
176 0 77.4382 18.6213 1442 113.211 1194.38 455.725
177 0 80.5509 14.736 1187 118.709 1195.11 461.141
178 0 82.4942 14.7404 1216 120.232 1195.18 457.748
179 0 83.4341 16.54 1380 118.649 1193.57 455.824
180 0 85.4654 13.877 1186 122.433 1192.4 457.79
181 0 88.8217 13.4089 1191 124.199 1191.86 456.228
182 0 92.6018 15.0969 1398 121.814 1191.54 452.392
183 0 95.6195 17.5069 1674 117.486 1191.08 452.089
184 0 100.727 15.8349 1595 118.692 1190.81 447.685
185 0 100.608 16.4301 1653 116.742 1189.19 448.74
186 0 104.718 17.9435 1879 115.246 1187.87 441.877
187 1 52.1804 10.6745 557 121.919 1187.7 461.269
188 0 56.1633 14.4934 814 114.372 1185.67 461.56
189 0 58.2321 13.9099 810 113.8 1186.87 461.759
190 0 63.3698 12.8294 813 117.916 1186.96 465.707
191 0 64.407 16.1318 1039 112.155 1185.64 461.734
192 0 66.3435 12.9176 857 117.748 1186.36 459.632
193 0 68.2316 18.1587 1239 107.616 1186.19 457.747
194 0 71.3448 14.8855 1062 111.253 1186.43 455.37
195 0 72.6246 14.0448 1020 112.418 1185.71 451.288
196 0 74.5456 14.7024 1096 111.557 1186.24 451.684
197 0 77.71 15.249 1185 112.424 1186.75 452.038
198 0 79.6918 10.7665 858 119.8 1187.75 447.723
199 0 81.5511 14.1016 1150 111.965 1188.42 445.66
200 0 86.6176 14.9161 1292 109.758 1189.41 446.385
201 0 85.517 12.3133 1053 115.465 1188.77 444.248
202 0 91.7755 14.8297 1361 111.764 1189.82 440.461
203 1 50.0983 11.9964 601 111.782 1189.47 461.642
204 0 51.2642 13.4207 688 111.279 1192.34 460.222
205 0 53.2746 12.3886 660 110.274 1191.2 461.724
206 0 50.1429 11.547 579 111.686 1192.19 459.079
207 0 56.4343 16.1604 912 104.596 1193.31 458.579
208 0 53.2887 11.2782 601 112.957 1193.85 460.208
209 0 56.4412 13.0047 734 110.048 1194.38 460.448
210 0 59.2914 14.4372 856 108.607 1195.26 460.674
211 0 61.3951 10.4731 643 112.806 1194.37 465.289
212 0 63.1725 12.5846 795 110.259 1194.77 464.463
213 0 64.4254 10.8498 699 112.505 1194.43 463.906
214 0 68.2989 13.1188 896 111.071 1194.89 462.316
215 0 70.2538 12.5402 881 112.98 1195.85 462.074
216 0 72.6667 16.211 1178 107.967 1195.58 463.86
217 0 75.4131 11.2845 851 116.324 1194.53 462.714
218 0 78.1848 14.6192 1143 111.782 1193.7 462.146
219 0 79.2219 13.2539 1050 115.586 1193.75 455.308
220 0 85.3051 11.664 995 114.765 1193.33 464.359
221 0 89.3556 16.5742 1481 110.099 1192.2 452.434
222 0 89.3753 13.6615 1221 114.308 1191.72 458.148
223 0 94.2796 16.048 1513 110.044 1191.59 451.99
224 1 49.1055 12.2797 603 113.776 1189.51 475.358
225 0 50.0675 11.824 592 114.152 1188.24 474.573
226 0 53.1245 14.3813 764 109.694 1186.9 473.972
227 0 54.2961 18.1413 985 103.102 1187.58 472.156
228 0 54.1164 13.1938 714 107.392 1185.35 475.511
229 0 57.1104 11.8192 675 110.539 1185.44 473.212
230 0 59.5458 12.6121 751 109.555 1185.43 470.509
231 0 61.2772 13.0391 799 107.748 1185.87 473.135
232 0 62.1769 10.7918 671 112.621 1184.81 467.382
233 0 66.5115 15.8018 1051 106.171 1185.23 466.33
234 0 68.2839 14.8351 1013 108.642 1185.09 463.542
235 0 71.3782 14.6543 1046 109.396 1185.03 459.145
236 0 74.367 13.5409 1007 109.801 1184.07 461.763
237 0 75.2459 11.9741 901 114.401 1183.77 457.019
238 0 80.2841 15.1088 1213 110.648 1183.83 452.948
239 0 82.3167 16.5459 1362 114.302 1184.67 449.063
240 0 83.6726 13.8755 1161 117.606 1182.69 451.121
241 0 86.3801 15.7675 1362 117.17 1184.99 445.618
242 1 48.0686 13.6888 658 112.918 1184.85 466.453
243 0 46.2155 11.3598 525 119.269 1184.84 462.968
244 0 48.0852 11.9371 574 115.568 1185.39 464.88
245 0 51.1327 13.4943 690 116.435 1184.42 458.862
246 0 51.2151 14.976 767 116.145 1187.39 459.708
247 0 54.1756 14.5453 788 112.004 1186.81 460.26
248 0 55.0735 14.5624 802 112.061 1187.57 459.909
249 0 55.207 11.9731 661 116.59 1188.95 461.201
250 0 56.3833 13.621 768 115.008 1188.88 460.329
251 0 60.2449 15.7192 947 111.232 1190.41 459.516
252 0 60.1469 13.1179 789 116.303 1190.21 458.622
253 0 64.2219 14.917 958 113.641 1191.5 458.006
254 0 65.1197 14.9724 975 114.704 1192.04 456.087
255 0 67.21 14.477 973 114.715 1191.66 461.047
256 0 70.3447 16.0495 1129 113.477 1192.85 458.905
257 0 70.2904 16.3891 1152 113.728 1193.87 459.916
258 0 73.2595 14.6739 1075 111.775 1194.97 461.953
259 0 75.201 14.3881 1082 113.768 1193.72 458.888
260 0 76.376 15.2535 1165 114.633 1193.11 456.322
261 0 81.3218 16.9819 1381 111.154 1193.46 457.658
262 0 82.278 13.8433 1139 115.894 1192.36 457.71
263 0 84.582 12.6623 1071 116.339 1193.31 452.144
264 0 87.231 11.8994 1038 116.736 1192.02 457.035
265 0 90.1927 13.3381 1203 115.529 1191.84 447.606
266 1 47.0638 12.0262 566 116.834 1189.18 473.064
267 0 50.1612 13.2772 666 113.227 1188.7 476.023
268 0 53.3648 12.7425 680 114.607 1187.12 469.893
269 0 56.1902 13.5077 759 111.974 1190.23 473.818
270 0 56.3269 13.3684 753 112.74 1189.34 471.718
271 0 57.1694 13.4337 768 111.217 1188.67 472.54
272 0 58.1965 14.6572 853 110.113 1188.6 468.94
273 0 58.1756 13.1842 767 112.756 1188.69 466.098
274 0 63.1622 13.4574 850 111.168 1188.01 466.261
275 0 65.2568 14.2974 933 110.745 1187.42 460.781
276 0 66.1488 13.9534 923 112.677 1186.44 461.322
277 0 67.3264 14.6896 989 110.697 1187.14 458.436
278 0 70.2026 13.8172 970 112.584 1186.34 459.09
279 0 73.1768 20.4027 1493 104.012 1186.27 453.754
280 0 77.4859 16.0933 1247 109.747 1185.15 450.472
281 0 78.1616 16.5682 1295 113.041 1184.23 448.744
282 0 83.3854 14.2351 1187 117.087 1187.7 447.779
283 0 85.2582 14.2039 1211 116.027 1187.83 449.399
284 1 45.0305 12.5026 563 111.799 1188.3 466.446
285 0 43.0167 10.8795 468 118.609 1188.59 465.605
286 0 48.1624 11.8765 572 117.073 1188.77 465.224
287 0 44.0608 12.8232 565 119.731 1186.88 461.77
288 0 47.0515 12.4332 585 117.133 1186.21 459.4
289 0 48.112 14.8196 713 111.957 1191.05 464.825
290 0 52.0758 13.6148 709 115.791 1191.37 461.705
291 0 51.2693 12.3271 632 117.29 1191.65 458.095
292 0 53.174 13.6909 728 115.238 1193.51 458.389
293 0 54.2372 14.8422 805 112.848 1194.25 459.779
294 0 58.2161 15.5283 904 111.574 1195.72 459.155
295 0 58.2161 15.4768 901 131.267 1196.71 459.178
296 0 59.2222 12.8837 763 116.548 1196.38 459.076
297 0 62.257 15.1469 943 113.112 1196.85 455.873
298 0 61.2904 14.7168 902 114.345 1196.25 455.312
299 0 65.1905 14.6187 953 113.558 1197.52 459.082
300 0 65.1905 14.5266 947 144.112 1198.49 458.996
301 0 65.1905 14.5727 950 143.513 1199.49 458.965
302 0 67.1551 13.923 935 117.273 1196.7 455.608
303 0 75.3126 17.9917 1355 108.844 1196.5 454.047
304 0 74.1888 14.8136 1099 114.63 1196.17 456.769
305 0 78.2366 17.1148 1339 111.798 1196.02 455.349
306 0 81.2812 13.9393 1133 117.312 1196.31 452.868
307 1 42.353 11.3097 479 114.965 1195.52 474.697
308 0 44.3206 13.4475 596 111.517 1194.31 474.616
309 0 45.3374 14.1826 643 109.841 1193.58 474.928
310 0 47.0969 13.7589 648 112.394 1193.6 473.296
311 0 50.4915 13.0517 659 112.736 1192.45 472.968
312 0 52.3909 13.4565 705 110.475 1192.66 472.013
313 0 51.297 12.9637 665 112.436 1191.31 473.989
314 0 54.8574 15.7864 866 108.39 1192.08 471.67
315 0 58.3367 16.9019 986 104.907 1191.61 469.573
316 0 59.6305 12.9799 774 110.722 1190.62 466.189
317 0 59.1679 16.1067 953 108.045 1189.74 463.108
318 0 62.297 14.768 920 107.728 1188.59 461.736
319 0 66.6002 12.9879 865 110.842 1188.23 459.779
320 0 67.5487 13.5014 912 110.841 1187.99 461.616
321 0 75.2381 14.2481 1072 108.672 1187.72 455.983
322 0 73.5479 13.651 1004 111.528 1187.14 454.366
323 0 73.5479 13.5286 995 131.995 1187.14 454.352
324 0 79.2581 15.2792 1211 108.386 1187.78 451.717
325 0 78.2439 12.7933 1001 114.296 1187.44 447.623
326 0 83.1796 13.6091 1132 112.902 1188.36 442.032
327 0 88.192 15.8404 1397 109.512 1188.64 441.722
328 1 46.0273 12.623 581 108.494 1190.25 458.923
329 0 47.1151 11.3127 533 109.062 1191.34 461.67
330 0 50.0654 14.9604 749 105.378 1189.39 462.162
331 0 50.3503 11.8569 597 115.663 1189.45 457.142
332 0 53.4137 14.6592 783 110.81 1190.01 456.641
333 0 54.7246 16.7384 916 109.939 1191.98 454.508
334 0 57.5236 15.4545 889 111.247 1191.85 452.659
335 0 58.5354 14.9824 877 111.31 1192.37 454.119
336 0 57.4741 16.8076 966 110.709 1193.37 451.844
337 0 61.4454 13.2964 817 115.716 1193.44 450.81
338 0 62.5737 13.4881 844 116.261 1194.81 449.455
339 0 67.4204 14.684 990 111.087 1194.28 454.316
340 0 68.3495 14.1918 970 114.66 1195.28 450.103
341 0 71.4991 16.0422 1147 111.121 1196.79 448.139
342 0 74.3278 15.9967 1189 110.638 1195.4 449.965
343 0 76.7028 17.0398 1307 109.92 1195.94 449.234
344 0 77.5795 15.0426 1167 113.754 1197.48 447.078
345 0 81.3881 14.6827 1195 114.598 1196.7 449
346 0 85.3315 15.0706 1286 114.191 1196.93 449.273
347 0 84.4128 13.1852 1113 118.234 1197.7 446.291
348 1 47.099 11.5714 545 111.752 1196.35 470.952
349 0 48.1781 14.3634 692 110.27 1196.08 468.711
350 0 49.1409 11.5993 570 111.275 1195.38 469.123
351 0 50.0393 12.8099 641 110.947 1195.1 467.891
352 0 51.1576 12.9599 663 109.293 1197.1 468.836
353 0 53.0946 13.6925 727 106.547 1197.44 468.099
354 0 52.1368 10.5875 552 108.583 1194.82 470.29
355 0 55.3329 11.3856 630 108.167 1193.05 467.698
356 0 58.0785 11.9321 693 106.44 1195.76 467.913
357 0 61.0648 13.5266 826 105.676 1195.44 466.097
358 0 62.1449 11.5376 717 108.329 1195.39 463.826
359 0 63.1353 12.9088 815 106.007 1194.05 464.73
360 0 67.1292 11.8875 798 107.927 1193.79 463.888
361 0 67.0748 11.1219 746 108.479 1194.44 465.698
362 0 70.2502 14.0782 989 106.685 1193.03 457.165
363 0 80.2214 12.3533 991 105.969 1193.09 459.732
364 0 75.1302 12.9375 972 108.461 1190.87 455.926
365 0 80.1066 14.3184 1147 106.937 1192.18 454.842
366 0 80.1776 12.622 1012 111.094 1192.38 452.244
367 0 85.1818 15.0736 1284 108.221 1192.72 448.491
368 0 88.3233 16.6321 1469 105.925 1192.7 446.464
369 0 88.1683 12.0678 1064 114.803 1192.31 444.357
370 0 91.1157 13.2359 1206 114.024 1191.27 441.286
371 0 95.1599 14.4809 1378 110.434 1192.45 444.692
372 1 54.0823 13.7383 743 111.402 1192.94 458.307
373 0 54.0318 11.9559 646 116.155 1193.19 454.63
374 0 56.1246 10.94 614 116.265 1193.84 455.134
375 0 59.1902 11.6235 688 116.222 1194.12 452.529
376 0 63.1877 11.9485 755 113.858 1195.46 453.147
377 0 63.325 12.3648 783 116.434 1194.95 450.147
378 0 66.2696 12.8113 849 114.848 1197.09 450.333
379 0 67.2414 13.6523 918 114.576 1197.52 447.388
380 0 69.2709 14.2773 989 113.432 1198.82 447.352
381 0 71.1513 14.2373 1013 114.334 1199.16 444.202
382 0 73.2322 13.3411 977 115.223 1200.78 444.932
383 0 76.1722 13.5876 1035 112.483 1201.33 450.079
384 0 77.4198 12.8262 993 115.856 1199.56 447.484
385 0 78.0684 11.9767 935 119.622 1200.98 444.831
386 0 84.1026 14.9698 1259 114.081 1202.06 441.755
387 0 88.3383 14.2181 1256 112.703 1201.86 447.728
388 0 89.2915 12.9352 1155 116.827 1202.48 443.848
389 0 92.1436 13.8805 1279 115.216 1201.1 443.011
390 0 93.2585 13.5537 1264 117.59 1200.5 444.469
391 0 96.2727 13.0982 1261 118.629 1201.41 440.121
392 0 100.336 14.7504 1480 115.749 1199.94 444.609
393 0 102.276 14.3143 1464 116.221 1199.66 441.292
394 0 106.323 15.1707 1613 115.381 1198.33 443.085
395 0 109.261 14.5157 1586 117.278 1198.24 436.946
396 0 112.289 13.4208 1507 119.214 1198.21 439.132
397 0 120.277 16.2375 1953 114.032 1197.02 438.651
398 0 119.462 12.7906 1528 119.938 1197.2 429.173
399 0 125.475 17.1508 2152 111.943 1195.57 433.279
400 0 129.686 13.656 1771 119.152 1195.04 427.862
401 0 134.154 13.1788 1768 116.959 1195.17 432.789
