time division length width area intensity CMx CMy
0 0 48.017 16.4525 790 126.457 1042.82 464.91
1 0 48.0344 15.3016 735 126.879 1041.64 463.837
2 0 48.0344 15.2807 734 160.093 1040.65 463.828
3 0 48.0344 15.3432 737 159.517 1039.64 463.669
4 0 48.0366 15.3841 739 159.078 1038.66 463.609
5 0 53.3133 13.7114 731 131.306 1038.36 459.283
6 0 53.3133 13.6551 728 165.113 1038.32 459.383
7 0 57.148 16.606 949 127.734 1037.31 459.874
8 0 59.0982 17.0394 1007 124.743 1037.34 458.565
9 0 61.1021 16.8898 1032 128 1037.36 457.285
10 0 63.0852 15.7089 991 127.506 1037.18 455.676
11 0 63.1328 15.4278 974 132.108 1036.39 453.986
12 0 67.1192 16.1802 1086 129.983 1036.67 453.929
13 0 70.1986 16.9661 1191 128.57 1035.22 451.034
14 0 69.2014 17.0083 1177 153.608 1034.22 450.849
15 0 74.3134 15.3943 1144 129.602 1035.78 446.531
16 0 77.2967 16.0421 1240 125.049 1035.42 443.997
17 1 40.0757 15.321 614 126.871 1034.09 460.114
18 0 37.0191 14.2359 527 130.884 1034.17 461.863
19 0 42.1068 12.8008 539 125.017 1034.1 460.44
20 0 43.0251 12.1092 521 133.737 1034.85 457.411
21 0 44.0692 14.4546 637 128.83 1035.2 453.385
22 0 45.035 15.3658 692 130.286 1036.42 453.883
23 0 47.0619 12.5367 590 128.978 1042.05 453.054
24 0 47.0233 13.2062 621 129.316 1041.64 454.129
25 0 49.0646 15.0414 738 126.161 1045.02 448.691
26 0 51.0983 18.7873 960 115.448 1045.29 451.565
27 0 51.1016 16.4183 839 123.231 1044.38 446.325
28 0 54.1703 14.9528 810 125.365 1044.61 444.141
29 0 54.0957 13.7904 746 124.41 1044.71 445.499
30 0 57.0818 18.4472 1053 116.373 1043.95 445.218
31 0 63.1075 14.3723 907 121.622 1044.29 444.165
32 0 63.1075 14.3089 903 151.317 1045.26 444.128
33 0 63.101 14.2787 901 150.899 1046.24 444.182
34 0 67.123 15.7323 1056 121.34 1045.99 438.247
35 0 68.2716 16.3758 1118 119.369 1045.88 444.743
36 0 68.1825 13.9332 950 125.445 1048.11 441.706
37 0 70.0785 16.3674 1147 118.518 1048.42 441.442
38 0 74.1512 13.8096 1024 120.223 1049.46 443.005
39 0 77.0696 14.2469 1098 121.106 1048.42 439.902
40 0 82.7283 19.6426 1625 108.958 1047.61 441.081
41 0 82.2169 16.1767 1330 117.429 1047.78 438.788
42 0 87.4666 17.298 1513 113.161 1047.37 439.726
43 0 88.2571 17.687 1561 112.14 1046.08 441.63
44 0 90.1994 13.4036 1209 120.123 1045.55 439.64
45 0 93.2683 17.1012 1595 112.155 1045.52 441.083
46 0 98.166 15.9322 1564 128.807 1045.4 435.168
47 0 103.217 15.5789 1608 129.058 1045.53 435.455
48 1 54.086 10.6312 575 127.254 1044.83 460.49
49 0 54.061 12.8744 696 128.052 1044.32 458.92
50 0 56.1855 12.9571 728 128.776 1044.03 457.49
51 0 64.1502 16.1652 1037 119.674 1042.49 457.687
52 0 61.064 13.7561 840 126.811 1041.98 452.867
53 0 65.2067 13.7409 896 126.427 1041.19 452.001
54 0 68.1324 14.4718 986 124.74 1039.67 451.68
55 0 72.2532 14.4907 1047 129.963 1039.98 445.94
56 0 74.3301 15.9558 1186 125.293 1038.5 449.903
57 0 75.1876 13.8986 1045 130.904 1038.5 444.101
58 0 78.3883 13.28 1041 130.353 1036.8 443.06
59 0 78.3883 13.2418 1038 148.68 1035.8 443.039
60 0 86.0785 15.7414 1355 123.647 1036.95 441.692
61 0 89.0989 17.9912 1603 117.893 1036.44 442.45
62 0 93.1822 15.2282 1419 124.459 1035.99 435.049
63 0 96.1565 18.7091 1799 118.126 1036.6 432.428
64 0 99.1652 15.9028 1577 124.717 1035.2 430.977
65 0 103.134 14.5733 1503 126.261 1035.48 430.424
66 0 106.233 13.8281 1469 128.649 1036.15 422.844
67 1 57.1091 12.625 721 124.756 1035.36 447.04
68 0 60.2758 12.6585 763 123.444 1034.65 446.442
69 0 62.3314 13.4122 836 121.801 1036.47 443.677
70 0 63.1284 13.5438 855 117.909 1036.23 441.822
71 0 66.2002 14.8036 980 115.007 1038.89 439.794
72 0 71.1208 18.0819 1286 109.367 1039.49 441.902
73 0 70.302 14.011 985 116.795 1040.7 438.902
74 0 71.3259 14.8754 1061 123.011 1042.72 440.266
75 0 73.1793 12.5719 920 119.836 1041.99 435.153
76 0 78.121 12.583 983 118.883 1041.12 437.233
77 0 81.1819 13.0817 1062 118.009 1042.61 435.842
78 0 84.1854 15.2164 1281 115.521 1042.75 435.19
79 0 84.1781 15.3009 1288 133.804 1042.76 435.232
80 0 90.0741 12.301 1108 120.032 1044.6 433.699
81 0 90.2693 11.3882 1028 120.93 1043.5 437.223
82 1 50.3873 9.24837 466 119.554 1044.16 457.27
83 0 52.0646 10.9863 572 117.79 1043.6 455.991
84 0 55.0479 14.6781 808 110.215 1044.79 454.991
85 0 55.2352 13.5964 751 111.908 1042.46 458.984
86 0 58.0448 12.8349 745 113.466 1043.12 455.781
87 0 60.0697 12.2857 738 114.332 1042.32 456.844
88 0 62.1461 13.1625 818 112.653 1042.22 458.524
89 0 64.1372 12.5668 806 114.69 1040.64 456.485
90 0 65.1984 11.8561 773 115.329 1040.27 454.561
91 0 67.0955 10.8949 731 116.389 1040.29 455.542
92 0 70.3214 13.4525 946 112.643 1039.94 455.089
93 0 73.2898 13.3306 977 113.751 1038.94 452.902
94 0 74.224 11.5327 856 117.258 1038.36 454.637
95 0 79.2691 11.5934 919 114.126 1036.41 459.071
96 0 77.0888 9.67716 746 119.251 1036.74 453.308
97 0 85.2568 15.6234 1332 109.816 1036.2 450.667
98 0 88.285 11.4742 1013 117.983 1036.02 445.552
99 1 47.0648 11.3036 532 111.231 1036.09 466.727
100 0 48.0975 12.7242 612 110.647 1036.25 465.918
101 0 50.2121 13.7816 692 108.863 1034.29 461.629
102 0 49.2404 12.7131 626 110.275 1033.5 459.837
103 0 49.1324 13.9826 687 109.413 1033.42 459.967
104 0 52.2139 12.2381 639 111.355 1033.57 459.374
105 0 51.1264 12.0681 617 110.151 1032.67 461.59
106 0 56.0772 13.4992 757 109.45 1032.32 456.301
107 0 52.0586 14.1187 735 110.722 1033.73 451.993
108 0 59.1107 14.4136 852 107.446 1034.19 453.698
109 0 60.1535 11.2379 676 113.747 1033.62 451.947
110 0 60.1528 11.5705 696 114.547 1034.9 447.164
111 0 60.1528 11.5872 697 139.828 1035.93 446.891
112 0 64.2779 18.4667 1187 103.155 1035.78 447.845
113 0 70.3554 14.9953 1055 108.341 1036.52 445.365
114 0 71.1979 12.2756 874 113.286 1035.71 444.09
115 0 75.266 13.1401 989 111.221 1036.78 443.433
116 0 72.1292 12.1171 874 114.116 1037.67 441.333
117 0 78.2261 13.0775 1023 112.462 1038.68 438.989
118 0 81.2106 13.0648 1061 111.491 1038.4 442.12
119 0 83.3326 11.1601 930 123.815 1038.35 434.23
120 1 43.104 9.97588 430 117.523 1037.79 458.195
121 0 46.1781 13.9243 643 113.988 1042.05 454.655
122 0 46.1367 12.8531 593 113.378 1040.81 456.973
123 0 46.1486 11.5713 534 112.457 1042.76 456.85
124 0 46.0705 12.0251 554 112.24 1040.77 454.641
125 0 50.0241 15.2527 763 105.743 1041.66 455.366
126 0 51.1553 12.4718 638 110.962 1041.06 457.585
127 0 49.173 9.3954 462 116.699 1041.1 459.405
128 0 54.2225 11.4528 621 111.826 1042.17 458.214
129 0 54.2225 11.4528 621 136.709 1043.17 458.238
130 0 55.1562 14.0691 776 109.039 1040.87 456.994
131 0 58.0807 12.827 745 110.345 1039.26 458.145
132 0 60.2447 13.3124 802 109.368 1039.49 457.458
133 0 64.0779 19.1954 1230 99.9545 1039.23 457.907
134 0 64.27 14.4391 928 107.912 1038.26 454.241
135 1 133.353 11.7432 1566 118.635 1039.1 420.453
136 1 68.3012 12.5766 859 110.498 1037.79 457.268
137 0 70.2298 16.0046 1124 106.503 1038.87 453.385
138 0 73.3361 14.2631 1046 108.76 1037.02 454.204
139 0 71.298 12.4407 887 113.705 1037 451.409
140 0 75.2502 13.2491 997 111.937 1034.71 450.804
141 0 78.2302 17.9854 1407 105.247 1035.62 449.743
142 0 82.1641 13.4 1101 112.708 1036.4 448.562
143 0 84.1604 16.326 1374 108.263 1035.28 445.324
144 0 87.251 14.9454 1304 110.189 1034.59 443.604
145 0 90.3177 14.4933 1309 110.351 1033.18 441.416
146 1 45.0352 9.05957 408 117.902 1033.29 460.804
147 0 47.1069 13.7347 647 109.045 1033.58 458.968
148 0 51.0642 14.707 751 107.662 1033.01 461.144
149 0 48.1823 12.2036 588 113.432 1029.99 457.738
150 0 46.0622 11.441 527 115.622 1032.6 457.55
151 0 51.1092 11.7591 601 114.225 1031.9 455.478
152 0 52.0557 11.4109 594 115.013 1032.72 454.918
153 0 54.1082 12.937 700 110.589 1032.4 455.299
154 0 55.119 12.4821 688 111.427 1033.2 454.869
155 0 54.1151 11.919 645 150.66 1033.2 454.071
156 0 62.087 14.8018 919 108.952 1034.41 447.419
157 0 66.1821 15.684 1038 106.796 1034.9 448.747
158 0 66.2106 17.5652 1163 105.439 1034.77 447.265
159 0 64.103 14.2115 911 113.116 1036.52 442.398
160 0 69.0598 14.8277 1024 111.355 1036.13 442.348
161 0 70.0504 11.8201 828 115.803 1039.07 443.425
162 0 74.1354 19.3835 1437 105.158 1038.77 436.96
163 0 76.3382 17.2391 1316 107.361 1040.19 438.75
164 0 82.1557 14.2534 1171 111.178 1039.98 436.093
165 0 83.1166 16.6032 1380 107.087 1040.7 440.894
166 0 88.1577 15.6651 1381 108.432 1039.5 436.888
167 0 87.2376 13.7555 1200 114.101 1040.63 434.79
168 0 92.1104 16.1871 1491 110.267 1041.73 435.564
169 0 89.2262 12.4291 1109 119.319 1040.83 434.196
170 1 44.0514 8.69438 383 119.869 1040.71 458.282
171 0 49.0349 12.5421 615 109.065 1041.35 459.541
172 0 51.0944 13.4261 686 106.7 1040.48 463.981
173 0 53.1063 12.7104 675 109.157 1040.03 460.316
174 0 55.0932 11.7619 648 110.602 1039.29 458.591
175 0 56.0519 19.143 1073 100.832 1039.18 460.326
176 0 56.0761 14.4447 810 108.544 1039.68 459.732
177 0 59.0624 12.2921 726 111.021 1038.36 462.479
178 0 61.1951 15.0175 919 107.566 1038.16 460.548
179 0 64.223 16.9877 1091 104.703 1038.31 459.309
180 0 63.2047 12.3092 778 114.012 1036.39 457.112
181 0 66.1882 11.9206 789 112.92 1035.04 454.766
182 0 66.1882 11.9961 794 134.678 1033.08 454.656
183 0 72.2764 13.2132 955 111.341 1034.85 453.015
184 0 73.5443 12.4415 915 112.711 1032.3 452.066
185 0 75.3115 11.7246 883 113.322 1033.26 454.381
186 0 82.1762 16.5985 1364 105.543 1033.15 449.737
187 0 80.1211 11.9319 956 114.615 1031.11 443.788
188 0 84.1819 15.0745 1269 109.225 1031.14 444.957
189 0 86.2571 13.3554 1152 116.49 1031.78 441.527
190 1 47.0622 11.3467 534 112.464 1029.82 459.11
191 0 46.044 11.489 529 112.172 1030.36 460.008
192 0 50.2066 9.89909 497 112.402 1031.34 456.926
193 0 52.1526 10.5268 549 109.506 1031.11 459.219
194 0 54.3293 12.3322 670 107.091 1029.79 455.585
195 0 55.1326 12.479 688 107.243 1030.44 456.183
196 0 58.297 12.5907 734 108.019 1030.68 448.189
197 0 58.297 12.6422 737 131.891 1030.67 448.193
198 0 62.374 15.0223 937 105.172 1031.35 448.085
199 0 62.1297 13.327 828 108.818 1032.14 445.499
200 0 61.2065 12.613 772 111.863 1032.93 442.878
201 0 68.1671 15.6674 1068 106.262 1033.6 442.628
202 0 69.1527 15.1259 1046 106.467 1034.74 445.19
203 0 69.2197 13.8255 957 110.701 1035.38 443.456
204 0 71.2299 12.214 870 113.328 1035.53 442.918
205 0 73.301 11.0094 807 115.668 1036.77 443.002
206 0 78.4467 13.6016 1067 110.188 1037 440.411
207 0 80.1389 12.7279 1020 112.625 1037.8 441.067
208 0 82.0873 16.3119 1339 107.879 1038.22 438.273
209 0 84.2146 12.1357 1022 114.43 1039.49 440.858
210 1 49.0958 11.4877 564 115.282 1038.12 458.009
211 0 49.1161 9.2434 454 121.238 1040.07 458.337
212 0 52.1177 12.088 630 117.414 1039.85 456.638
213 0 54.122 14.5043 785 109.073 1039.09 459.125
214 0 55.1866 15.0761 832 109.425 1039.35 459.129
215 0 54.0338 10.1973 551 121.481 1041.09 459.751
216 0 56.0888 12.6763 711 115.806 1039.18 459.62
217 0 59.0839 14.1155 834 113.159 1039.1 459.555
218 0 61.1657 14.8613 909 111.883 1038.31 457.21
219 0 63.2745 11.5844 733 115.232 1038.64 462.492
220 0 63.0859 11.1594 704 117.416 1037.85 460.727
221 0 66.1622 12.817 848 114.164 1036.66 458.376
222 0 69.2953 11.6891 810 115.105 1036.04 460.704
223 0 72.2031 14.0022 1011 111.638 1035.48 456.684
224 0 73.1515 9.56918 700 117.911 1034.31 459.236
225 0 79.2344 14.9051 1181 108.985 1033.87 454.858
226 0 79.3102 10.8687 862 116.597 1033.72 453.174
227 0 85.2768 16.6399 1419 109.152 1032.81 453.655
228 0 86.228 14.2065 1225 114.856 1032.6 448.163
229 0 87.4378 14.3531 1255 114.669 1031.63 448.026
230 0 91.2574 15.8672 1448 112.732 1030.95 442.439
231 1 49.217 14.5478 716 106.437 1029.3 467.831
232 0 52.1438 17.8161 929 98.1173 1028.97 470.235
233 0 49.3018 12.1699 600 111.137 1031.32 459.758
234 0 52.2997 12.8108 670 109.078 1028.94 461.837
235 0 55.2913 16.5306 914 103.333 1029.8 457.813
236 0 58.3142 16.291 950 102.717 1028.69 460.036
237 0 57.122 15.6507 894 105.839 1028.04 456.783
238 0 60.2012 16.7937 1011 103.07 1028.63 455.043
239 0 59.2371 11.9013 705 111.431 1028.03 454.735
240 0 61.2538 13.6155 834 110.59 1029.99 450.169
241 0 62.1989 11.7365 730 113.904 1029.43 448.815
242 0 67.284 12.7519 858 110.741 1030.59 449.216
243 0 67.2746 11.4159 768 113.116 1030.96 449.16
244 0 68.1614 12.9399 882 111.138 1030.78 446.111
245 0 72.1274 18.8555 1360 102.508 1032.05 445.392
246 0 73.2162 11.6368 852 112.696 1030.98 441.323
247 0 76.1602 10.3729 790 114.89 1032.78 443.038
248 0 80.3848 14.0201 1127 109.85 1033.61 439.124
249 0 83.427 10.7279 895 114.588 1033.66 439.819
250 0 85.3795 13.3404 1139 111.745 1035.39 436.061
251 0 91.5071 14.7857 1353 107.264 1035.28 440.582
252 0 95.1922 13.9612 1329 109.233 1036.72 435.895
253 0 95.1922 13.8982 1323 132.743 1038.71 435.93
254 1 49.238 11.353 559 112.159 1036.78 459.097
255 0 52.121 15.1378 789 106.153 1037.15 458.054
256 0 53.1028 11.2988 600 107.045 1035.88 459.488
257 0 55.2373 10.5001 580 109.352 1038.05 461.072
258 0 55.1482 16.4466 907 101.505 1036.69 461.002
259 0 58.1758 15.1438 881 102.966 1036.39 461.715
260 0 57.1116 13.3773 764 106.887 1035.95 462.505
261 0 60.1957 17.8584 1075 100.713 1037 461.427
262 0 62.1132 13.9262 865 106.986 1036.19 461.797
263 0 63.1484 13.8879 877 108.104 1035.77 461.494
264 0 64.2835 13.4871 867 108.982 1036.77 459.709
265 0 68.3209 14.1245 965 107.091 1035.26 462.24
266 0 69.2921 13.7245 951 108.739 1035.56 459.001
267 0 67.1896 10.5076 706 113.878 1033.88 455.987
268 0 71.1597 15.6268 1112 106.695 1033.77 453.37
269 0 75.2983 15.4851 1166 105.846 1032.8 455.651
270 0 76.2734 14.7233 1123 108.44 1032.6 452.859
271 0 77.2251 15.7203 1214 107.785 1032.67 449.825
272 0 80.4548 15.5118 1248 107.831 1033.09 448.393
273 0 83.3244 16.2857 1357 106.063 1031.25 447.327
274 0 87.2371 15.3834 1342 107.436 1031.18 445.359
275 0 88.1518 13.9646 1231 111.04 1030.32 442.555
276 0 91.0697 14.1211 1286 109.557 1030.33 444.694
277 0 96.4965 13.3269 1286 110.054 1030.06 440.141
278 0 99.2714 12.4205 1233 113.175 1030.58 433.337
279 0 101.321 11.6659 1182 115.019 1030.74 431.58
280 1 50.1682 9.52795 478 148.462 1031.04 457.138
281 0 55.0749 15.724 866 104.603 1030.99 457.584
282 0 56.0484 11.0797 621 111.382 1028.59 452.49
283 0 59.0856 12.8119 757 108.589 1028.18 452.052
284 0 58.1128 13.8007 802 107.5 1028.95 453.404
285 0 60.1578 12.3841 745 110.129 1029.67 447.585
286 0 60.1578 12.2511 737 132.771 1030.66 447.612
287 0 64.1561 11.6123 745 110.823 1031.22 444.25
288 0 65.0866 12.3835 806 110.485 1031.23 442.942
289 0 68.1174 12.2876 837 110.458 1033.38 443.21
290 0 70.1046 12.5384 879 109.932 1033.51 441.923
291 0 72.226 15.0084 1084 106.093 1034.84 440.696
292 0 73.3525 13.7964 1012 108.017 1034.39 438.495
293 0 75.2115 11.7535 884 111.019 1036.39 437.798
294 0 79.3234 13.5773 1077 108.147 1037.79 434.577
295 0 81.1281 11.0566 897 110.981 1039.77 437.343
296 0 85.1714 12.3868 1055 110.028 1040.23 436.842
297 0 86.2105 9.18682 792 114.26 1040.78 437.134
298 0 91.1713 12.8001 1167 109.458 1041.84 434.348
299 0 91.3378 10.0835 921 114.657 1040.56 435.544
300 0 96.3164 14.1513 1363 109.018 1040.22 431.759
301 0 99.1877 12.0781 1198 111.999 1040.93 434.287
302 0 104.359 14.9101 1556 108.749 1040.07 430.372
303 1 55.3575 13.7831 763 105.126 1036.93 454.132
304 0 57.4464 11.9416 686 108.417 1036.61 455.239
305 0 58.1783 12.2726 714 108.696 1039.97 456.667
306 0 61.0917 13.848 846 106.005 1039.15 457.043
307 0 60.1747 12.9124 777 108.085 1039.17 459.327
308 0 63.1453 12.3366 779 109.126 1038.45 455.84
309 0 67.0936 11.9833 804 108.464 1038.14 460.252
310 0 65.1277 10.9631 714 112.296 1036.77 455.713
311 0 71.0849 15.0806 1072 104.968 1037.5 453.272
312 0 73.19 12.0372 881 109.219 1036.85 453.666
313 0 75.2102 12.1127 911 109.705 1036.22 451.204
314 0 76.0909 10.1589 773 113.376 1035.61 451.515
315 0 80.1898 11.61 931 110.987 1034.62 446.981
316 0 83.0942 14.1887 1179 107.254 1034.67 446.291
317 0 85.3417 13.194 1126 109.218 1033.44 443.704
318 0 86.1305 10.4028 896 115.098 1032.97 437.938
319 0 91.1675 13.7988 1258 109.083 1032.83 439.874
320 0 93.3672 11.8243 1104 112.195 1032.95 436.866
321 0 94.1381 12.556 1182 111.357 1033.33 434.225
322 0 99.3395 12.4522 1237 113.115 1033.28 432.071
323 0 104.224 14.2386 1484 109.83 1032.05 432.059
324 1 52.0603 10.5263 548 112.268 1031.88 450.485
325 0 53.1926 11.355 604 111.228 1032.01 448.2
326 0 57.0756 13.0003 742 107.717 1031.72 451.028
327 0 58.1179 11.7692 684 105.999 1031.94 449.368
328 0 59.1795 12.7578 755 104.722 1031.27 445.857
329 0 62.1357 12.3279 766 105.492 1030.47 444.77
330 0 63.2117 15.2978 967 100.062 1032.9 446.746
331 0 64.1048 12.62 809 105.518 1032.85 442.915
332 0 67.2175 12.4372 836 105.971 1034.23 443.191
333 0 69.093 14.0246 969 104.13 1034.66 441.682
334 0 72.1735 16.1971 1169 100.34 1035.31 440.108
335 0 72.4055 12.8581 931 106.883 1036.06 439.827
336 0 76.1375 12.2935 936 108.031 1036.46 437.187
337 0 78.1157 12.3151 962 106.123 1036.57 436.678
338 0 81.2103 15.2936 1242 103.741 1036.9 435.081
339 0 83.2623 12.3465 1028 109.677 1038.37 435.564
340 0 87.384 12.6453 1105 109.597 1039.95 434.872
341 0 86.3695 11.775 1017 112.597 1038.85 434.841
342 1 46.1364 9.06009 418 111.981 1040.47 459.089
343 0 49.1223 11.3798 559 110.186 1040.74 455.862
344 0 50.085 12.4988 626 108.601 1040.57 456.144
345 0 52.355 12.7972 670 106.796 1042.95 454.666
346 0 54.2505 11.3363 615 106.393 1042.85 451.398
347 0 54.1002 10.1294 548 112.786 1042.89 457.146
348 0 55.1581 14.1955 783 103.811 1041.14 458.368
349 0 55.1581 14.2862 788 120.647 1042.15 458.284
350 0 56.0849 9.53911 535 111.632 1040.68 456.041
351 0 60.0218 12.7287 764 107.056 1039.85 457.401
352 0 62.1218 14.8257 921 104.127 1038.38 456.359
353 0 64.0694 9.67701 620 112.231 1037.05 457.794
354 0 63.079 10.3204 651 111.829 1036.5 455.198
355 0 69.163 11.162 772 110.61 1035.48 453.06
356 0 72.1089 16.0313 1156 103.708 1035.44 452.934
357 0 70.1791 10.345 726 111.764 1035.56 452.471
358 0 75.3048 11.4734 864 110.532 1035.22 449.398
359 0 76.3358 9.956 760 113.388 1035.27 446.841
360 0 81.1476 11.4483 929 111.351 1035.29 444.005
361 0 90.3752 11.408 1031 110.12 1033.68 442.902
362 0 86.2826 11.9375 1030 110.856 1033.92 441.207
363 1 44.1804 9.14432 404 115.745 1033.04 457.748
364 0 49.0818 11.002 540 111.802 1032.64 451.585
365 0 51.1947 11.4074 584 111.779 1033.11 450.8
366 0 51.0715 10.7301 548 108.889 1033.64 452.181
367 0 52.0747 10.6386 554 108.668 1033.19 452.139
368 0 53.0661 12.1547 645 107.124 1034.65 448.865
369 0 56.1673 12.2669 689 105.98 1033.39 451.785
370 0 58.1221 12.3533 718 106.614 1035.52 445.809
371 0 60.1662 11.5846 697 106.95 1035.81 444.895
372 0 61.238 13.3741 819 105.182 1036.85 442.597
373 0 61.238 13.4557 824 109.852 1038.83 442.595
374 0 66.4031 10.2405 680 108.676 1036.72 441.053
375 0 66.4031 10.3158 685 116.625 1033.69 441.06
376 0 71.2365 11.5952 826 107.467 1037.16 436.448
377 0 73.2918 11.4201 837 106.931 1038.99 437.22
378 0 73.2499 11.3447 831 121.463 1041 437.211
379 0 79.148 12.6851 1004 106.31 1039.26 433.633
380 0 82.1885 12.8242 1054 105.18 1040.51 435.008
381 0 82.2334 11.1877 920 108.676 1039.77 428.134
382 1 45.1925 10.1565 459 105.739 1041.74 453.614
383 0 50.3108 12.3234 620 101.227 1042.61 453.781
384 0 49.0503 11.2945 554 103.69 1043.45 452.895
385 0 51.1465 9.13064 467 106.555 1045.04 453.137
386 0 55.2877 12.1365 671 102.054 1043.85 450.012
387 0 54.2567 17.6384 957 95.1306 1044.82 448.578
388 0 58.0984 17.9695 1044 95.1849 1044.43 452.38
389 0 58.2117 13.4509 783 101.727 1044.83 453
390 0 59.172 12.2355 724 103.877 1043.98 453.45
391 0 63.0937 12.2675 774 104.354 1042.61 455.187
392 0 62.1561 12.4686 775 105.072 1043.57 455.641
393 0 60.1138 8.55045 514 112.65 1041.41 453.446
394 0 70.0891 16.4647 1154 99.3458 1041.42 451.159
395 0 69.1338 12.3818 856 106.028 1040.57 454.946
396 0 72.1748 10.5716 763 107.92 1041.33 453.99
397 0 74.0697 12.1372 899 108.281 1040.43 451.542
398 0 75.0782 8.40457 631 113.054 1040.14 452.686
399 0 81.101 15.2896 1240 101.44 1040.37 454.391
400 0 81.2311 11.5473 938 108.195 1038.95 452.263
401 0 87.1975 16.1472 1408 103.332 1037.02 446.633
402 0 91.1535 13.6912 1248 106.526 1036.13 443.617
