time division length width area intensity CMx CMy
0 0 26.0228 12.9118 336 135.848 1194.03 477.458
1 0 29.0184 13.5431 393 131.672 1194.53 476.763
2 0 32.0357 11.4248 366 136.44 1193.91 477.404
3 0 33.0448 13.3153 440 128.23 1193.45 477.157
4 0 31.0404 13.0153 404 136.646 1193.42 476.569
5 0 34.0413 15.0699 513 125.986 1191.8 475.969
6 0 35.0244 13.1051 459 128.566 1191.17 477.41
7 0 33.2968 14.5359 484 129.14 1191.06 477.021
8 0 33.2968 14.626 487 135.207 1190.07 477.01
9 0 34.1542 14.9616 511 128.44 1188.76 475.861
10 0 34.1542 15.0494 514 141.062 1187.74 475.827
11 0 35.1536 14.9914 527 139.082 1186.72 476.021
12 0 39.0606 15.5399 607 126.761 1187.53 473.847
13 0 37.0956 13.8561 514 131.625 1187.75 471.362
14 0 38.2983 14.4132 552 131.678 1186.96 470.516
15 0 39.1648 12.0772 473 135.08 1186.54 469.032
16 0 41.3093 14.452 597 126.958 1186.75 466.518
17 0 50.2702 17.3662 873 119.204 1187.6 459.905
18 0 50.0346 18.7271 937 117.102 1188.26 460.328
19 0 50.1562 23.028 1155 114.881 1188.64 457.688
20 0 50.0713 16.8959 846 123.533 1187.88 455.918
21 0 51.2789 14.7624 757 125.069 1188.45 456.334
22 0 53.1621 19.7697 1051 122.881 1188.53 452.535
23 0 53.1621 19.7697 1051 128.467 1189.53 452.535
24 0 56.0924 14.3335 804 133.017 1202.3 456.383
25 0 59.2149 15.2833 905 130.913 1201.88 453.771
26 0 58.2018 16.7177 973 130.363 1201.09 449.053
27 0 61.2998 17.6183 1080 129.623 1201.07 450.146
28 0 63.0913 17.546 1107 130.192 1199.94 448.573
29 0 66.0388 17.7017 1169 128.046 1199.77 448.092
30 0 69.1488 15.3437 1061 132.121 1201.1 447.332
31 0 69.1894 22.4023 1550 120.82 1199.93 446.168
32 0 69.1894 22.1855 1535 131.583 1198.87 446.122
33 0 76.2492 16.7871 1280 132.9 1201.97 442.404
34 0 76.1636 15.6505 1192 134.214 1202.05 444.977
35 0 81.2811 20.8782 1697 126.236 1202.23 439.706
36 0 85.2268 17.6705 1506 129.365 1201.58 441.638
37 0 86.3065 15.3986 1329 133.831 1203.36 442.234
38 1 47.1639 14.121 666 132.512 1201.9 460.125
39 0 48.2112 12.6319 609 134.034 1201.54 461.744
40 0 51.1512 13.0593 668 124.091 1200.3 453.265
41 0 54.0865 13.6448 738 129.108 1200.72 455.984
42 0 56.2085 15.8339 890 122.411 1200.14 461.391
43 0 56.104 13.2967 746 126.086 1198.99 462.981
44 0 58.072 13.6727 794 126.437 1198.2 464.599
45 0 62.0555 13.778 855 121.312 1198.77 465.205
46 0 63.125 14.6059 922 141.209 1197.09 462.178
47 0 63.125 14.5426 918 162.014 1196.08 462.227
48 0 69.1673 15.9035 1100 136.929 1195.64 459.1
49 0 69.1673 15.8601 1097 152.865 1194.65 459.088
50 0 73.0978 14.8295 1084 145.646 1194.89 457.814
51 0 75.2085 15.5435 1169 144.236 1193.14 455.334
52 0 78.0653 15.154 1183 145.142 1192.51 456.26
53 0 83.158 16.7633 1394 141.021 1191.32 453.607
54 0 85.1298 16.234 1382 143.71 1191.36 450.97
55 0 88.0673 14.1369 1245 147.429 1190.3 450.572
56 0 92.1866 16.0761 1482 143.144 1189.97 447.416
57 1 44.0335 10.7872 475 145.415 1189.58 470.322
58 0 47.1296 14.3647 677 138.62 1190.41 466.038
59 0 52.3264 14.9256 781 134.337 1190.17 457.068
60 0 51.1342 15.4691 791 135.298 1190.31 456.684
61 0 56.6184 16.3198 924 128.157 1190.44 461.251
62 0 60.8212 19.9108 1211 118.197 1189.52 462.768
63 0 56.3833 15.306 863 150.656 1187.84 458.184
64 0 60.3419 13.8709 837 132.931 1189.24 455.36
65 0 62.2834 14.0005 872 133.095 1188.88 455.544
66 0 65.125 14.7562 961 132.648 1188.73 453.499
67 0 65.0965 16.5139 1075 131.102 1189.21 449.677
68 0 67.1443 14.4614 971 134.585 1189.59 449.801
69 0 68.1364 15.2488 1039 133.573 1190.17 450.047
70 0 71.2787 13.6366 972 137.785 1191.3 445.542
71 0 75.1584 16.3521 1229 132.092 1190.33 445.573
72 0 77.1686 16.7296 1291 129.76 1191.59 448.304
73 0 79.1513 14.7566 1168 136.224 1191.9 443.271
74 0 82.1444 16.8849 1387 131.841 1192.84 443.804
75 0 86.1861 16.6036 1431 132.304 1192.77 441.693
76 0 89.2337 15.5995 1392 135.695 1193.39 439.754
77 1 49.1678 12.9353 636 132.802 1192.53 448.969
78 0 48.0531 14.5464 699 129.73 1193 452.71
79 0 50.1307 14.6018 732 128.462 1193.61 454.66
80 0 53.272 14.5855 777 130.892 1196.81 458.712
81 0 51.0741 13.2748 678 128.794 1197.27 465.493
82 0 55.097 15.8085 871 125.113 1196.91 460.366
83 0 55.0391 14.844 817 127.22 1196.22 461.439
84 0 57.0718 13.4743 769 130.402 1195.14 462.083
85 0 60.0604 12.3709 743 131.864 1195.04 463.132
86 0 62.0476 13.2157 820 134.117 1194.23 460.477
87 0 64.1083 14.1011 904 132.736 1193.77 461.448
88 0 68.144 17.1842 1171 126.832 1193.04 461.126
89 0 69.2176 14.6928 1017 133.036 1193.85 460.039
90 0 69.0775 12.6669 875 136.477 1193.03 458.082
91 0 74.1888 14.234 1056 131.16 1192.18 460.357
92 0 75.1738 13.9809 1051 132.245 1192.51 458.147
93 0 76.127 13.819 1052 132.086 1191.78 459.558
94 0 81.1712 11.9254 968 135.178 1190.02 456.55
95 1 43.0648 12.6786 546 128.773 1191.44 473.853
96 0 45.0758 13.5993 613 125.646 1189.45 473.706
97 0 47.0409 12.9887 611 124.316 1190.44 474.357
98 0 45.1771 14.8969 673 119.303 1188.43 471.893
99 0 48.0934 13.2035 635 121.471 1188.03 469.132
100 0 47.1082 11.8026 556 125.721 1188.24 469.777
101 0 51.0657 14.0603 718 119.599 1187.36 467.089
102 0 51.0589 11.6336 594 124.278 1186.57 467.806
103 0 53.0454 15.9109 844 117.219 1186.52 464.621
104 0 54.0906 15.2892 827 118.097 1186.49 463.565
105 0 56.101 15.4186 865 118.201 1186.64 461.347
106 0 58.2009 16.2197 944 115.574 1186.87 463.196
107 0 60.0461 14.3057 859 121.938 1186.23 455.445
108 0 62.1122 15.4881 962 119.443 1186.37 456.3
109 0 66.1527 14.2549 943 124.178 1187.71 452.852
110 0 67.188 13.4846 906 125.659 1187.35 450.859
111 0 69.1442 12.5969 871 128.444 1187.7 447.285
112 0 70.3943 14.0068 986 126.276 1187.86 449.297
113 0 77.0923 14.2946 1102 124.828 1187.63 447.811
114 0 82.1188 13.3465 1096 126.38 1188.75 444.557
115 0 82.0761 14.584 1197 123.599 1188.35 446.383
116 0 81.2491 14.2525 1158 126.439 1188.66 443.267
117 0 86.266 15.3015 1320 125.248 1189.22 439.552
118 0 88.1696 15.6516 1380 125.006 1190.67 440.038
119 0 90.1595 14.9846 1351 127.546 1190.76 435.876
120 1 47.0451 15.5595 732 122.839 1192.76 449.28
121 0 49.1324 11.5199 566 129.595 1192.77 452.475
122 0 53.0642 14.5107 770 121.884 1193.43 454.658
123 0 54.2824 15.1983 825 120.834 1193.32 457.552
124 0 58.3679 14.8198 865 121.286 1194.97 460.481
125 0 56.2154 15.8497 891 123.154 1194.06 458.008
126 0 59.1485 17.6167 1042 118.867 1194.37 462.426
127 0 60.1425 14.8647 894 125.935 1194.73 460.002
128 0 62.1895 16.5462 1029 123.862 1193.05 457.748
129 0 67.2077 17.5426 1179 119.699 1195.18 461.309
130 0 64.3659 15.2876 984 127.392 1193.74 457.445
131 0 70.1585 17.0044 1193 123.109 1194.04 460.556
132 0 70.1061 16.7888 1177 125.589 1192.77 459.067
133 0 76.1498 16.5069 1257 124.223 1192.44 461.78
134 0 78.077 17.6749 1380 122.389 1192.62 460.13
135 0 82.1949 18.1033 1488 120.91 1191.93 461.864
136 0 83.1354 14.8312 1233 128.132 1191.27 457.309
137 0 83.1862 14.0168 1166 130.832 1188.42 454.905
138 0 89.0996 14.22 1267 128.381 1189.65 456.279
139 1 45.0736 13.3559 602 124.85 1187.94 475.754
140 0 46.0887 13.257 611 126.064 1188.2 473.761
141 0 52.4404 10.9458 574 125.023 1186.27 465.958
142 0 51.0785 14.0959 720 116.701 1187.28 464.386
143 0 50.0967 12.7953 641 128.69 1187 462.242
144 0 53.1533 14.43 767 123.237 1186.86 464.983
145 0 58.3249 15.0879 880 120.662 1185.35 463.256
146 0 58.1245 13.213 768 123.107 1185.38 464.253
147 0 58.1128 13.2157 768 123.117 1184.16 461.682
148 0 62.1943 16.6896 1038 118.792 1184.44 459.092
149 0 63.3781 13.7429 871 125.127 1185.44 457.31
150 0 66.2315 16.9557 1123 117.444 1184.03 458.677
151 0 70.4324 18.784 1323 115.34 1185.03 454.219
152 0 69.1623 14.2997 989 125.516 1184.24 450.733
153 0 74.2937 18.1442 1348 116.54 1185.55 451.23
154 0 77.2041 16.411 1267 120.991 1185.42 446.407
155 0 79.1337 16.529 1308 121.074 1184.58 446.487
156 0 84.8028 15.3651 1303 120.719 1185.33 445.319
157 0 84.1859 15.8578 1335 121.79 1185.93 442.073
158 0 86.2377 12.4308 1072 127.632 1186.59 440.044
159 1 43.1062 10.1377 437 125.526 1186.03 458.748
160 0 48.1055 15.6323 752 114.577 1188.58 458.117
161 0 49.0956 14.1357 694 118.349 1187.49 452.115
162 0 49.1103 15.4346 758 117.125 1188.62 452.296
163 0 50.1636 12.5589 630 122.098 1187.51 452.606
164 0 52.0482 15.1975 791 118.736 1189.65 454.675
165 0 54.0895 14.3281 775 116.102 1191.94 459.345
166 0 54.0817 12.777 691 118.732 1193.87 457.221
167 0 58.1381 14.8612 864 116.613 1194.06 461.278
168 0 59.0625 14.8318 876 119.129 1192.86 458.039
169 0 61.2249 14.7816 905 119.591 1192.94 458.955
170 0 62.219 15.2044 946 120.774 1192.94 457.508
171 0 65.3661 13.7686 900 122.621 1192.11 461.636
172 0 67.0979 15.9021 1067 119.708 1192.29 461.371
173 0 67.0832 13.8336 928 126.064 1190.48 458.607
174 0 71.0456 14.7089 1045 125.107 1190.03 458.308
175 0 72.1661 13.6075 982 127.868 1190.39 457.698
176 0 76.3356 15.9952 1221 121.5 1189.44 457.633
177 0 78.1217 15.5783 1217 123.121 1189.4 457.445
178 0 80.2439 17.1477 1376 121.381 1188.66 457.212
179 0 82.2218 15.3852 1265 125.644 1187.18 453.941
180 0 82.1274 15.5125 1274 126.458 1187.15 454.02
181 0 89.2883 15.8027 1411 123.577 1186.02 454.82
182 0 92.3021 17.9086 1653 120.597 1185.26 450.979
183 0 92.1217 16.1634 1489 124.893 1184.24 449.477
184 0 94.1081 14.2602 1342 128.885 1184.79 443.521
185 0 97.2313 14.4192 1402 128.427 1183.29 443.947
186 0 101.342 17.6531 1789 122.377 1182.49 440.557
187 0 105.456 16.6894 1760 123.071 1183.3 437.467
188 0 106.205 14.2273 1511 127.604 1182.62 437.681
189 0 110.379 13.7979 1523 128.476 1183.13 433.303
190 0 114.387 12.685 1451 131.105 1182.93 429.749
191 0 118.571 12.2627 1454 131.816 1183.46 424.728
192 1 59.3264 8.49537 504 125.972 1184.14 460.446
193 0 63.2956 12.1335 768 123.615 1183.99 455.174
194 0 65.3466 12.5791 822 124.072 1183.82 451.769
195 0 67.0546 13.3324 894 123.582 1181.43 450.142
196 0 67.2459 13.0417 877 126.168 1181.82 446.553
197 0 71.0422 14.2169 1010 123.768 1181.9 446.088
198 0 73.1065 14.8277 1084 121.6 1183.12 449.219
199 0 77.2763 14.9852 1158 121.481 1183.61 445.336
200 0 79.2179 12.3583 979 127.036 1184.11 445.525
201 0 83.1021 16.1368 1341 121.079 1185.56 442.046
202 0 84.1283 14.7156 1238 124.907 1185.34 440.513
203 0 86.2378 13.8454 1194 127.175 1185.79 437.948
204 0 91.2468 15.8252 1444 122.399 1187.37 439.74
205 0 92.1731 15.5577 1434 124.004 1187.74 437.637
206 0 95.1526 15.1336 1440 125.192 1188.95 433.692
207 0 99.1847 16.4441 1631 122.99 1189.07 434.094
208 0 104.3 16.9032 1763 120.836 1188.93 435.134
209 0 107.162 18.0102 1930 120.512 1189.8 433.677
210 0 109.168 14.9311 1630 127.263 1191.36 430.312
211 0 115.112 16.1669 1861 123.652 1190.3 433.398
212 0 116.425 17.4447 2031 122.574 1190.43 429.27
213 0 122.237 12.7048 1553 129.91 1190.66 433.601
214 0 126.146 15.4583 1950 126.395 1190.45 429.403
215 0 128.207 14.9212 1913 128.315 1190.18 430.009
216 0 134.165 15.9803 2144 125.51 1190.72 433.092
217 0 139.141 14.4027 2004 131.011 1190.18 425.599
218 0 147.472 19.5698 2886 119.247 1190.2 430.73
219 0 148.391 14.6707 2177 130.139 1190.73 421.671
220 0 155.465 16.6468 2588 127.457 1189.86 416.063
221 1 83.3018 12.6528 1054 128.465 1189.36 457.794
222 0 85.3957 15.071 1287 124.366 1189.4 453.52
223 0 87.5176 12.9231 1131 130.762 1187.41 451.722
224 0 87.1403 17.03 1484 122.871 1185.57 454.158
225 0 91.3185 13.1408 1200 130.17 1183.83 452.759
226 0 90.1851 13.0288 1175 131.772 1183.18 449.967
227 0 96.1294 16.5714 1593 124.278 1183.47 445.369
228 0 103.197 19.8067 2044 116.36 1181.87 445.945
229 0 104.528 14.5894 1525 125.123 1180.63 441.045
230 0 110.556 14.7255 1628 122.186 1180.64 447.9
231 0 113.277 14.4954 1642 125.047 1180.72 440.228
232 0 117.283 15.2878 1793 123.12 1180.22 437.724
233 0 122.224 16.9444 2071 119.213 1180.17 437.363
234 0 124.188 14.3412 1781 126.053 1180.44 429.04
235 0 128.422 16.3912 2105 121.97 1179.34 429.487
236 0 134.34 13.1383 1765 126.672 1179.25 423.996
237 0 139.41 13.9301 1942 125.334 1179.77 421.96
238 0 146.308 18.5021 2707 117.898 1179.99 416.509
239 0 150.483 16.9256 2547 121.342 1181.23 409.055
240 0 155.491 14.779 2298 124.915 1179.49 409.389
241 0 162.556 18.4183 2994 118.444 1181.44 405.553
242 1 92.2935 13.5329 1249 122.054 1181.48 440.873
243 0 95.6137 13.565 1297 123.759 1181.7 435.348
244 0 97.3417 14.5981 1421 120.329 1182.4 434.118
245 0 100.15 13.4199 1344 121.362 1181.77 434.611
246 0 104.208 15.7281 1639 119.666 1184.45 427.253
247 0 107.419 12.4559 1338 128.172 1183.35 426.7
248 0 110.436 12.4778 1378 126.263 1184.5 425.096
249 0 118.854 15.4055 1831 119.491 1186.19 424.875
250 0 121.423 19.6092 2381 110.737 1186.19 430.29
251 0 126.669 14.4945 1836 119.161 1187.49 422.771
252 1 53.1391 9.97382 530 117.974 1186.01 460.149
253 0 57.2364 13.7151 785 111.553 1186.86 458.768
254 0 55.2768 12.1389 671 111.878 1187.42 458.444
255 0 58.4959 11.5222 674 114.031 1186.47 464.418
256 0 59.2421 12.8962 764 114.369 1187.94 461.216
257 0 63.1267 11.5165 727 113.777 1188.2 463.414
258 0 63.2491 12.5535 794 114.599 1188.44 459.732
259 0 67.0964 13.0707 877 113.059 1188.45 458.587
260 0 70.1027 12.4817 875 116.898 1188.04 460.472
261 0 72.1164 13.5337 976 114.725 1186.81 460.073
262 0 74.2015 12.8569 954 115.957 1186.86 460.702
263 0 76.1208 12.848 978 116.885 1186.89 459.957
264 0 76.0903 11.8806 904 119.637 1185.32 458.84
265 0 80.0866 13.5978 1089 115.376 1186.23 458.836
266 0 83.1883 13.2831 1105 118.406 1185.1 454.65
267 0 85.4135 14.3303 1224 114.921 1185.54 454.107
268 0 88.2988 14.1791 1252 114.407 1184.4 454.766
269 1 47.1005 10.2971 485 116.623 1184.67 472.233
270 0 48.0698 13.8341 665 110.693 1183.56 470.313
271 0 51.2878 12.0497 618 111.464 1182.93 474.358
272 0 53.0274 12.1447 644 116.901 1181.36 471.416
273 0 51.282 12.2655 629 117.928 1182.18 468.955
274 0 53.1533 12.7179 676 114.108 1181.28 468.655
275 0 50.35 11.4796 578 117.685 1180.48 468.789
276 0 54.2285 10.548 572 119.495 1179.62 464.685
277 0 57.3157 12.0037 688 117.183 1180.45 462.725
278 0 60.2918 13.3683 806 114.311 1180.32 460.607
279 0 61.3794 11.4534 703 119.349 1179.97 457.68
280 0 64.1638 13.6681 877 116.09 1179.92 457.038
281 0 62.2434 10.9088 679 122.149 1179.46 453.178
282 0 67.1232 13.3635 897 117.429 1180.47 449.731
283 0 69.2641 15.1305 1048 112.874 1180.68 451.821
284 0 72.3384 14.3907 1041 112.584 1181.94 450.357
285 0 72.3067 14.6874 1062 112.942 1182.28 448.017
286 0 75.4882 14.0154 1058 115.088 1183 443.223
287 0 78.2848 21.5367 1686 104.535 1183.92 442.811
288 0 79.2113 17.1314 1357 110.959 1183.95 439.629
289 0 81.1695 15.7325 1277 113.471 1184.52 444.011
290 0 84.4711 13.3063 1124 117.732 1186.19 438.891
291 0 86.2773 13.4914 1164 117.938 1185.83 437.982
292 0 92.3768 17.5693 1623 110.435 1187.83 437.806
293 0 91.4604 14.509 1327 117.325 1188.48 426.797
294 1 51.2888 17.4307 894 107.209 1190.93 451.831
295 0 51.6593 12.4469 643 115.045 1189.94 449.163
296 0 51.5641 11.9269 615 115.114 1191.49 451.631
297 0 53.3814 13.7876 736 105.613 1192.73 454.183
298 0 55.29 13.4382 743 106.794 1191.29 453.063
299 0 56.3852 12.2018 688 109.049 1192.21 453.369
300 0 60.3392 14.8328 895 105.46 1192.79 454.946
301 0 59.1852 14.5982 864 106.53 1191.88 458.904
302 0 61.2383 14.566 892 108.049 1191.58 454.768
303 0 65.1257 14.3261 933 108.081 1191.89 457.119
304 0 67.1277 15.612 1048 108.023 1191.43 459.112
305 0 73.6477 16.9863 1251 104.387 1191.18 460.916
306 0 71.2051 11.9373 850 114.638 1190.74 457.854
307 0 74.245 13.9807 1038 110.671 1188.97 461.292
308 0 78.2704 17.414 1363 108.34 1189.62 454.457
309 0 82.2666 15.4376 1270 110.319 1188.23 455.007
310 0 81.373 14.2799 1162 113.75 1188.66 455.681
311 0 86.6182 15.3201 1327 113.171 1187.44 450.268
312 0 88.5991 22.6187 2004 103.483 1186.35 449.117
313 0 86.1722 13.0901 1128 115.515 1185.7 436.618
314 1 47.1255 8.21212 387 114.801 1185.9 460.455
315 0 51.1831 14.6337 749 106.554 1185.58 459.024
316 0 52.0811 12.0389 627 110.533 1185.36 458.37
317 0 55.2283 15.4088 851 103.805 1183.73 453.543
318 0 55.3211 14.2803 790 106.4 1183.84 455.338
319 0 60.3094 14.9894 904 109.673 1181.81 461.966
320 0 61.0829 14.9142 911 110.555 1182.27 459.366
321 0 64.2435 14.6163 939 110.507 1182.24 460.026
322 0 63.2303 16.6534 1053 109.282 1181.7 455.369
323 0 66.1544 13.529 895 114.042 1182.2 455.178
324 0 71.1194 17.1683 1221 108.977 1181.66 451.821
325 0 69.2138 17.092 1183 109.964 1181.21 451.666
326 0 73.0627 13.988 1022 115.783 1181.89 446.766
327 0 75.2059 14.9057 1121 114.916 1183.22 444.146
328 0 77.133 15.7131 1212 114.353 1183.27 442.2
329 0 79.1827 15.0159 1189 115.866 1184.46 441.698
330 0 82.1306 15.6945 1289 115.482 1184.25 437.508
331 0 84.2044 13.776 1160 118.224 1186.18 437.403
332 0 88.2353 16.5467 1460 112.914 1186.36 435.91
333 0 91.1523 16.7522 1527 112.712 1186.52 434.11
334 0 91.3672 15.1039 1380 114.28 1187.65 430.699
335 0 96.2747 13.4095 1291 115.589 1188.17 431.761
336 1 51.1185 11.3657 581 113.052 1189.02 454.012
337 0 53.1406 10.5381 560 110.589 1189.03 454.264
338 0 57.2496 13.3625 765 109.123 1192.03 454.222
339 0 57.1109 13.2724 758 107.454 1191.27 455.813
340 0 56.0953 11.0348 619 110.627 1190.92 456.097
341 0 62.2206 16.3451 1017 105.878 1191.14 452.108
342 0 63.0576 13.5432 854 109.427 1190.82 452.852
343 0 66.2852 14.7846 980 109.795 1190.83 451.779
344 0 65.0664 12.372 805 113.555 1192.93 452.851
345 0 66.1287 14.4264 954 109.83 1193.23 453.867
346 0 71.1742 16.5509 1178 108.665 1191.86 450.921
347 0 72.1541 15.4946 1118 110.233 1192.43 455.733
348 0 78.3771 21.4348 1680 103.177 1191.12 448.646
349 0 78.0746 17.3424 1354 110.024 1191.64 454.119
350 0 77.1451 11.7571 907 119.861 1190.05 450.65
351 0 84.1611 14.1633 1192 114.319 1189.67 455.575
352 0 87.2171 14.2747 1245 116.855 1189.31 450.388
353 0 89.1594 14.39 1283 117.819 1189.11 442.896
354 1 50.1347 10.9306 548 116.359 1188.49 466.599
355 0 54.0538 12.9501 700 113.161 1186.83 468.829
356 0 55.1752 15.0249 829 111.469 1187.28 464.098
357 0 57.1943 13.5853 777 114.565 1186.43 464.714
358 0 58.1728 14.0787 819 114.584 1186.57 465.884
359 0 60.154 13.881 835 115.939 1185.55 462.072
360 0 60.1829 14.4393 869 116.014 1184.59 459.397
361 0 62.0685 14.0651 873 117.082 1185.3 457.05
362 0 64.3399 13.7706 886 117.119 1185.57 457.818
363 0 68.239 14.0682 960 114.91 1184.81 458.034
364 0 69.093 14.4588 999 115.691 1184.08 451.556
365 0 74.2434 16.0957 1195 111.357 1184.34 452.539
366 0 75.1577 13.6114 1023 116.068 1184.52 449.709
367 0 76.456 13.1056 1002 118.961 1185.61 447.166
368 0 80.4556 15.6235 1257 113.595 1185.4 447.529
369 0 83.4088 14.9744 1249 115.381 1184.82 444.236
370 0 86.4927 15.0302 1300 115.508 1185.21 439.868
371 1 48.5686 12.2301 594 111.517 1186.57 459.705
372 0 48.5486 14.9335 725 105.866 1185.3 459.363
373 0 47.0927 16.0535 756 101.02 1185.77 458.553
374 0 49.2725 13.6993 675 110.212 1189.44 456.523
375 0 51.1569 15.5209 794 104.31 1189.63 454.365
376 0 49.0944 11.9566 587 108.249 1189.48 459.598
377 0 49.1168 10.1391 498 112.797 1189.57 456.92
378 0 55.0815 12.8355 707 107.017 1190.72 456.921
379 0 55.3735 13.6527 756 108.845 1192.42 450.574
380 0 55.1464 14.4524 797 105.763 1192.03 456.279
381 0 57.2325 11.8814 680 112.546 1193.18 452.118
382 0 57.1363 10.9913 628 113.207 1194.56 451.336
383 0 61.2925 10.8007 662 113.163 1194.9 450.127
384 0 65.3947 14.9706 979 107.173 1195.22 454.358
385 0 66.2155 14.1206 935 108.464 1194.54 454.132
386 0 69.2986 13.2903 921 111.695 1195.57 448.991
387 0 71.2474 14.99 1068 109.122 1195.46 452.42
388 0 74.4663 14.3018 1065 110.477 1195.5 451.107
389 0 75.6434 14.2114 1075 110.66 1194.6 451.785
390 0 76.5937 12.3248 944 113.846 1193.89 448.554
391 0 81.4745 13.1084 1068 111.514 1193.96 449.255
392 0 83.2286 12.0752 1005 113.673 1192.49 447.699
393 1 47.0529 11.1577 525 107.691 1191.51 469.644
394 0 48.0458 13.7577 661 103.69 1191.58 470.086
395 0 49.5562 12.3698 613 108.228 1193.05 459.055
396 0 51.4707 12.7257 655 107.111 1192.29 463.679
397 0 50.3058 11.8873 598 108.207 1192.29 467.901
398 0 52.0417 10.3186 537 110.397 1189.27 464.661
399 0 55.1548 12.8366 708 106.477 1187.34 465.689
400 0 57.2034 15.139 866 103.493 1187.24 464.8
