time division length width area intensity CMx CMy
0 0 49.1148 15.5147 762 125.896 1118.64 472.31
1 0 50.1293 17.8339 894 119.539 1118.29 473.189
2 0 51.2067 13.631 698 127.592 1117.65 472.924
3 0 50.0381 14.2691 714 127.305 1117.03 470.959
4 0 55.078 15.469 852 121.568 1116.06 469.259
5 0 58.2769 15.2548 889 120.787 1114.98 468.309
6 0 56.2817 14.2853 804 155.025 1113.02 469.577
7 0 58.2861 15.2524 889 149.627 1110.98 468.358
8 0 61.392 15.9793 981 124.686 1112.43 468.539
9 0 64.2218 15.353 986 125.378 1111.15 466.198
10 0 65.1538 15.2869 996 125.041 1111.32 466.387
11 0 68.1121 14.8872 1014 124.392 1110.59 464.301
12 0 70.1707 15.5193 1089 125.274 1110.86 462.618
13 0 71.3669 14.5866 1041 123.074 1110.73 458.581
14 0 75.1534 15.1424 1138 124.488 1110.39 457.533
15 0 75.337 14.7869 1114 124.937 1109.84 455.522
16 0 76.2542 15.1992 1159 123.721 1110.07 453.684
17 0 79.3853 17.2702 1371 119.767 1109.79 452.773
18 0 85.3792 17.0533 1456 121.714 1109.81 453.218
19 0 89.2599 18.5526 1656 118.94 1108.32 448.428
20 0 89.3611 17.3006 1546 118.587 1109.31 446.801
21 0 92.2013 17.7438 1636 117.969 1109.63 444.248
22 0 94.3669 16.0014 1510 121.418 1110.54 437.632
23 0 94.3669 16.0861 1518 153.534 1111.53 437.727
24 0 102.497 16.7029 1712 123.273 1113.87 438.189
25 0 102.497 16.5761 1699 154.619 1115.86 438.161
26 0 109.477 15.0352 1646 124.351 1115.91 434.854
27 1 54.0855 13.4232 726 123.31 1116.24 462.332
28 0 59.3376 14.8135 879 123.017 1116.63 456.848
29 0 59.1566 14.4025 852 122.998 1117.59 456.243
30 0 61.1491 15.4213 943 122.306 1117.31 452.094
31 0 67.1256 14.2866 959 123.086 1119.47 453.667
32 0 65.3324 12.9339 845 127.254 1119.71 453.293
33 0 69.2695 16.3997 1136 118.579 1119.47 454.357
34 0 70.4872 13.6763 964 125.1 1119.72 450.233
35 0 73.2779 14.2198 1042 126.224 1119.3 449.249
36 0 76.4255 13.8043 1055 124.595 1120.85 449.897
37 0 77.3694 13.3128 1030 123.685 1119.98 451.55
38 0 80.4299 14.5095 1167 125.383 1120.79 449.64
39 0 85.3663 14.7599 1260 118.911 1121.08 447.409
40 0 86.2504 15.5825 1344 117.601 1121.07 447.102
41 0 90.4578 15.2778 1382 118.631 1120.73 446.305
42 0 94.3066 15.2057 1434 116.711 1120.3 446.789
43 0 97.4841 15.1512 1477 116.119 1119.65 448.311
44 0 99.1984 14.4559 1434 117.279 1118.97 443.947
45 0 103.372 14.9266 1543 122.421 1118.12 448.356
46 1 54.1353 12.3395 668 133.316 1117.1 467.376
47 0 59.2177 11.3142 670 132.788 1118.3 469.246
48 0 62.2827 14.7393 918 122.268 1118.04 469.167
49 0 63.0687 13.4932 851 127.309 1117.89 467.639
50 0 64.0771 13.1092 840 133.12 1116.1 467.043
51 0 66.1155 13.8848 918 131.389 1115.88 463.527
52 0 70.0704 14.1001 988 129.142 1114.98 464.154
53 0 73.2872 14.1362 1036 128.699 1114.9 462.271
54 0 76.0725 13.8946 1057 130.044 1114.37 461.326
55 0 76.0769 13.907 1058 147.213 1114.38 461.414
56 0 81.2022 15.0735 1224 127.882 1113.32 454.596
57 0 83.1357 14.771 1228 127.941 1112.56 454.266
58 0 85.2356 14.9351 1273 127.183 1111.48 454.551
59 0 89.2228 13.1469 1173 130.677 1112.71 453.237
60 0 91.1631 13.1413 1198 131.452 1111.95 445.244
61 0 96.3227 15.9152 1533 125.339 1111.32 446.115
62 0 99.2007 13.6289 1352 130.118 1111.56 442.487
63 1 51.0802 10.5129 537 129.702 1112.92 464.102
64 0 54.1068 10.7935 584 126.507 1112.13 466.69
65 0 56.127 12.2579 688 124.853 1112.47 461.664
66 0 58.0843 14.479 841 121.151 1111.51 460.686
67 0 61.077 15.0793 921 118.856 1112.21 460.927
68 0 61.1499 12.0033 734 126.879 1111.38 457.744
69 0 64.1297 14.3459 920 122.375 1111.84 455.257
70 0 67.1603 16.5723 1113 117.708 1111.65 454.161
71 0 70.1734 15.2479 1070 120.311 1113.2 453.068
72 0 71.1345 14.3812 1023 121.626 1113.67 453.527
73 0 74.0504 17.11 1267 116.721 1114.73 453.244
74 0 76.103 14.6381 1114 121.117 1115.93 449.001
75 0 79.1665 13.7432 1088 122.473 1116.24 449.02
76 0 80.1457 12.889 1033 123.824 1117.18 448.314
77 0 82.1458 14.9247 1226 137.398 1118.08 451.015
78 0 89.3184 14.3979 1286 120.719 1117.67 448.715
79 1 49.2689 10.6761 526 121.236 1119.09 469.008
80 0 47.2938 13.469 637 117.487 1118.16 469.641
81 0 50.0797 14.437 723 113.667 1118.84 470.586
82 0 51.1422 13.0421 667 115.402 1118.52 472.577
83 0 51.0644 12.3374 630 118.651 1118.17 469.778
84 0 51.0644 11.887 607 132.591 1118.17 469.222
85 0 56.2202 12.0419 677 120.685 1117.85 470.597
86 0 61.2172 16.4496 1007 110.583 1118.13 471.709
87 0 59.2389 13.4709 798 119.307 1117.62 469.279
88 0 62.1575 11.1491 693 121.827 1117.73 466.257
89 0 66.2182 14.2861 946 115.169 1117.51 469.868
90 0 66.2182 14.3918 953 125.147 1117.46 469.931
91 0 67.2131 14.2829 960 116.631 1116.6 468.181
92 0 70.3562 14.3413 1009 115.761 1115.8 468.953
93 0 69.2048 12.0078 831 120.776 1115.06 468.321
94 0 73.2068 13.1682 964 118.1 1114.79 466.771
95 0 75.0933 13.4633 1011 118.799 1112.52 464.013
96 0 80.1234 15.3763 1232 115.165 1113.68 460.139
97 0 79.2167 12.0303 953 120.105 1113.01 461.761
98 0 85.2803 14.9976 1279 116.014 1112.78 458.681
99 0 87.095 15.8218 1378 115.063 1112.17 455.864
100 0 89.2014 12.9707 1157 120.422 1111.5 455.443
101 0 91.2791 13.1575 1201 120.499 1109.45 452.833
102 0 96.2438 15.2425 1467 116.677 1109.85 450.74
103 0 99.3859 12.0842 1201 120.854 1110.39 447.148
104 0 101.254 12.7205 1288 119.778 1110.33 444.785
105 0 106.421 13.503 1437 117.042 1109.87 444.16
106 0 110.229 14.1977 1565 117.3 1109.25 440.737
107 0 112.152 13.9364 1563 117.097 1109.98 438.194
108 0 117.262 15.6913 1840 114.696 1109.92 437.084
109 0 120.335 15.5233 1868 116.154 1109.7 434.231
110 0 122.514 13.6229 1669 120.95 1109.8 426.202
111 0 128.659 20.1074 2587 111.226 1109.91 421.231
112 0 130.595 14.2578 1862 118.744 1112.06 421.001
113 0 136.595 13.4119 1832 119.823 1112.52 414.981
114 1 69.1677 10.1926 705 117.163 1113.97 448.031
115 0 72.0995 11.5535 833 119.39 1113.83 448.944
116 0 71.2594 10.5811 754 121.861 1114.98 449.275
117 0 78.218 15.8915 1243 112.38 1115.3 451.148
118 0 80.2938 16.4521 1321 113.472 1114.41 448.879
119 0 84.2832 15.9462 1344 116.001 1114.86 447.968
120 0 85.3518 14.4812 1236 119.023 1114.76 449.442
121 0 88.2964 16.0482 1417 116.205 1115.89 448.525
122 0 90.418 16.7666 1516 115.482 1116.63 450.433
123 0 94.3352 14.3319 1352 121.272 1117.53 446.639
124 0 94.3195 15.755 1486 118.938 1116.99 443.764
125 0 98.4168 13.8086 1359 122.163 1117.72 447.456
126 0 99.2621 18.154 1802 115.311 1117.3 448.678
127 0 101.715 17.4409 1774 118.965 1117.88 443.467
128 0 105.756 16.0274 1695 121.362 1118.44 447.175
129 0 107.379 13.308 1429 128.12 1117.12 444.968
130 0 110.42 14.9429 1650 125.221 1117.44 443.847
131 0 115.638 16.8802 1952 121.808 1117.56 442.036
132 0 116.564 15.4079 1796 126.875 1117.14 435.718
133 0 120.64 13.619 1643 129.961 1115.73 438.604
134 0 120.64 13.6273 1644 160.409 1114.74 438.653
135 0 130.695 22.1432 2894 115.251 1114.86 433.487
136 0 133.629 16.7553 2239 124.865 1113.77 433.62
137 0 137.514 16.2238 2231 126.643 1114.14 430.73
138 0 139.489 18.4101 2568 124.11 1112.16 427.117
139 0 144.606 15.4212 2230 128.957 1112.34 431.566
140 0 148.615 16.3913 2436 128.277 1110.43 424.336
141 0 151.429 14.8321 2246 132.206 1109.83 421.898
142 0 156.362 16.4298 2569 128.046 1109.71 412.947
143 0 163.542 18.7963 3074 121.425 1109.32 418.652
144 0 168.558 17.3827 2930 125.61 1108.48 411.644
145 0 167.741 13.3897 2246 134.919 1107.97 405.644
146 0 180.585 17.4378 3149 126.087 1107.74 403.688
147 0 184.673 15.4652 2856 130.649 1107.29 396.388
148 0 188.448 14.6937 2769 132.313 1108.25 396.062
149 0 192.359 15.5075 2983 131.09 1107.39 391.436
150 0 198.6 13.3283 2647 135.539 1108.19 380.731
151 0 205.499 15.7081 3228 129.462 1108.27 388.409
152 0 211.752 15.8298 3352 128.391 1108.32 386.836
153 0 221.511 17.5792 3894 125.302 1108.74 381.019
154 1 294.636 17.8967 5273 125.355 1109.46 342.601
155 0 295.94 14.2495 4217 130.9 1109.29 351.835
156 0 295.82 14.5359 4300 129.043 1110.17 360.439
157 1 252.534 16.6235 4198 127.59 1110.52 362.005
158 0 261.57 18.2208 4766 125.389 1111.1 357.387
159 0 267.913 14.7212 3944 132.847 1112.38 355.178
160 1 279.946 18.7679 5254 125.472 1112.35 352.081
161 0 285.826 18.4518 5274 127.968 1113.39 345.36
162 0 294.915 18.4969 5455 129.034 1113.78 332.869
163 0 305.743 18.8557 5765 127.331 1114.84 349.224
164 0 321.912 19.4742 6269 126.368 1114.81 327.659
165 0 328.964 21.3884 7036 123.141 1115.43 314.328
166 0 332.006 17.5509 5827 130.796 1115.6 311.312
167 0 341.898 17.0285 5822 132.991 1115.3 318.138
168 0 355.02 22.4776 7980 123.31 1115.61 311.661
169 0 363.012 17.8562 6482 132.279 1116.38 301.388
170 0 369.3 28.2318 10426 116.392 1114.85 295.599
171 0 369.309 27.4134 10124 124.247 1115.03 295.436
172 0 370.709 29.1172 10794 115.855 1114.78 295.318
173 0 372.129 18.3592 6832 132.339 1115.5 292.217
174 0 374.972 23.9298 8973 122.998 1115.19 292.432
175 0 372.995 23.4534 8748 124.046 1114.7 290.925
176 0 375.994 20.0509 7539 129.076 1114.74 294.534
177 0 358.773 17.231 6182 133.091 1114.39 284.829
179 0 379.289 26.17 9926 119.132 1113.3 291.388
180 0 378.958 24.3404 9224 122.736 1112.19 291.58
181 0 376.621 16.6613 6275 136.273 1110.87 292.027
182 0 370.756 18.3328 6797 132.795 1110.4 288.908
