time division length width area intensity CMx CMy
0 0 82.1911 18.1163 1489 116.527 1270.48 453.398
1 1 44.1587 17.2559 762 115.211 1270.14 474.806
2 0 44.2529 14.9143 660 122.408 1269.3 473.097
3 0 45.1772 15.9151 719 116.406 1268.78 475.295
4 0 48.2418 16.0235 773 112.969 1267.98 474.912
5 0 49.1856 15.3093 753 116.906 1266.83 473.903
6 0 49.1856 15.3093 753 158.193 1264.83 473.899
7 0 48.167 14.5328 700 122.929 1263.76 471.091
8 0 52.0677 15.96 831 120.955 1263.87 468.929
9 0 51.0491 15.5732 795 122.162 1262.59 468.566
10 0 55.0869 17.3544 956 115.514 1263.27 469.656
11 0 55.1134 15.3865 848 119.683 1262 465.605
12 0 60.1204 19.278 1159 112.387 1262.93 466.918
13 0 59.1772 13.637 807 120.116 1262.47 461.449
14 0 60.1034 16.6214 999 115.972 1262.33 464.365
15 0 62.1642 19.175 1192 111.301 1261.98 460.323
16 0 63.1655 16.3697 1034 115.382 1262.2 460.091
17 0 67.1433 20.1956 1356 108.867 1261.84 455.878
18 0 68.08 19.2715 1312 114.049 1262 454.803
19 0 69.11 16.3073 1127 118.554 1260.33 454.985
20 0 75.4236 20.7893 1568 105.376 1261.2 457.476
21 0 73.2029 19.8626 1454 109.559 1261.88 451.802
22 0 75.2223 15.514 1167 116.125 1262.48 449.895
23 0 75.2223 15.3811 1157 147.691 1264.48 449.893
24 0 83.1525 17.8106 1481 114.668 1265.99 447.784
25 0 81.1477 16.8335 1366 154.086 1265.92 446.534
26 0 88.1884 15.9431 1406 115.636 1267.98 445.851
27 1 45.1576 14.394 650 116.655 1267.92 463.402
28 0 45.0372 13.5221 609 118.969 1268.08 462.979
29 0 51.1377 13.9819 715 114.487 1269.53 461.358
30 0 51.142 15.7991 808 109.91 1269.23 464.285
31 0 50.1719 15.7658 791 115.158 1270.94 457.355
32 0 51.0835 14.8189 757 116.524 1271.26 456.761
33 0 56.098 21.8546 1226 103.4 1271.53 457.413
34 0 59.1809 15.3766 910 112.121 1271.87 456.546
35 0 59.3201 15.3068 908 114.91 1271.55 457.233
36 0 62.2442 15.5195 966 111.781 1273.07 455.669
37 0 65.0719 13.9231 906 112.962 1272.01 455.036
38 0 67.2684 16.7686 1128 110.449 1272.77 456.672
39 0 70.0684 14.3859 1008 109.352 1272.9 453.895
40 0 71.1751 14.8788 1059 106.692 1273.12 456.59
41 0 77.2285 13.0522 1008 109.636 1272.77 456.094
42 0 78.3098 14.4554 1132 107.163 1272.57 452.09
43 0 82.3076 16.6084 1367 103.556 1272.19 454.452
44 0 86.1522 18.5602 1599 99.4872 1271.33 453.209
45 1 47.111 12.1203 571 108.72 1270.56 475.758
46 0 47.1234 11.4805 541 114.571 1270.01 476.059
47 0 48.1024 14.6354 704 114.256 1270.06 472.482
48 0 50.1146 13.4292 673 112.868 1269.44 470.862
49 0 51.2077 10.5648 541 116.874 1268.91 474.004
50 0 53.1605 16.2715 865 112.175 1266.92 471.599
51 0 52.0665 10.6786 556 120.867 1266.77 468.617
52 0 59.1945 16.2008 959 110.762 1266.26 468.526
53 0 60.1125 14.2732 858 113 1266.13 468.888
54 0 61.3058 12.4132 761 117.196 1265.72 466.714
55 0 61.3058 12.3153 755 132.114 1264.71 466.709
56 0 69.1908 17.5312 1213 108.965 1265.09 460.667
57 0 68.0996 14.4054 981 114.095 1264.2 461.206
58 0 72.1176 11.4535 826 117.45 1263.28 458.944
59 0 75.0918 15.2347 1144 112.966 1264.77 454.439
60 0 78.1418 14.077 1100 115.167 1263.05 450.869
61 0 83.2836 13.2199 1101 115.52 1262.54 452.409
62 0 85.1398 12.0038 1022 117.804 1262.64 451.675
63 0 87.2961 14.6742 1281 115.201 1263.23 446.856
64 0 93.225 14.8243 1382 114.848 1262.42 445.076
65 0 96.1208 18.2479 1754 110.092 1263.11 442.537
66 0 98.5056 16.1311 1589 113.817 1263.24 438.785
67 0 103.213 17.4105 1797 111.942 1263.8 435.564
68 0 105.222 18.7604 1974 110.377 1264.02 436.552
69 0 108.441 15.1695 1645 115.717 1264.22 435.009
70 1 50.1011 7.72439 387 117.38 1264.2 460.767
71 0 54.1016 10.7391 581 113.404 1265.64 459.952
72 0 56.099 12.0501 676 111.121 1266.14 460.096
73 0 60.2121 11.8581 714 112.29 1266.96 457.042
74 0 60.1653 18.15 1092 104.089 1266.94 457.564
75 0 62.0594 11.6662 724 113.115 1267.45 456.655
76 0 69.2967 18.6012 1289 102.589 1268.47 457.026
77 0 69.2967 18.428 1277 115.699 1269.45 457.143
78 0 72.2294 15.2016 1098 108.851 1269.26 457.638
79 0 73.0765 12.6443 924 115.311 1271.14 454.482
80 0 75.2106 14.3863 1082 111.777 1271.21 456.52
81 0 79.1589 21.0084 1663 101.948 1271.36 458.005
82 0 81.259 15.1983 1235 111.528 1270.9 451.49
83 0 82.2257 15.044 1237 109.939 1270.39 456.507
84 0 83.2246 15.0436 1252 130.103 1270.41 456.653
85 0 87.1973 13.8307 1206 113.166 1269.96 452.263
86 0 89.2613 12.9731 1158 113.937 1270.01 450.438
87 0 93.2044 12.317 1148 114.556 1270.05 450.807
88 0 97.1708 11.0836 1077 114.934 1269.99 454.72
89 0 99.1899 13.0558 1295 113.765 1269.37 448.946
90 0 99.1899 13.0457 1294 126.55 1268.36 449.092
91 0 105.284 14.4847 1525 112.08 1268.47 445.614
92 0 110.609 13.8416 1531 112.577 1267.41 446.026
93 1 59.1204 8.98167 531 115.222 1267.1 473.098
94 0 61.1207 11.6818 714 112.094 1266.84 472.238
95 0 65.05 13.2206 860 110.517 1265.03 468.795
96 0 66.3012 12.594 835 110.824 1265.46 470.412
97 0 67.1662 11.7768 791 112.616 1264.55 468.394
98 0 72.0892 14.5653 1050 110.331 1263.14 463.411
99 0 72.3566 11.623 841 115.629 1262.46 461.97
100 0 75.1587 13.7576 1034 113.059 1261.64 458.068
101 0 77.3549 11.6088 898 110.737 1261.72 462.217
102 0 82.1375 13.9279 1144 106.858 1261.89 461.512
103 0 83.2288 14.0216 1167 107.935 1261.7 453.179
104 0 87.3837 12.3478 1079 109.888 1262.05 454.49
105 0 90.1085 14.194 1279 108.451 1262.24 446.918
106 0 93.102 16.6914 1554 105.498 1261.32 445.21
107 0 96.2219 15.7241 1513 105.88 1262.24 446.881
108 0 99.4628 13.5126 1344 109.326 1262.44 447.6
109 1 52.1229 13.5833 708 106.725 1262.76 464.226
110 0 51.0782 10.8853 556 109.554 1262.64 464.18
111 0 53.1669 15.1034 803 101.8 1262.72 466.509
112 0 50.1067 7.82331 392 115.247 1264.64 464.015
113 0 54.0949 12.8108 693 108.003 1264.69 461.061
114 0 56.2244 13.873 780 105.996 1265.67 460.914
115 0 56.0869 12.3558 693 108.175 1265.34 461.133
116 0 60.2144 13.2194 796 108.295 1266.55 456.903
117 0 65.2021 13.6652 891 105.988 1266.44 461.388
118 0 64.3641 14.3403 923 107.028 1266.48 456.54
119 0 66.3181 13.5106 896 107.733 1266.91 451.769
120 0 71.4244 14.9249 1066 106.117 1267.07 453.796
121 0 70.5404 14.077 993 109.002 1267.97 452.05
122 0 71.3288 12.2251 872 111.632 1268.81 451.904
123 0 75.1664 16.3105 1226 102.983 1269.6 453.584
124 0 78.4939 11.6824 917 111.394 1269.11 449.926
125 0 81.2811 13.0658 1062 111.234 1269.63 445.378
126 0 80.3294 12.7226 1022 112.177 1269.15 448.317
127 0 82.2815 12.676 1043 112.573 1269.65 446.883
128 1 40.2434 8.72193 351 112.866 1269.81 468.453
129 0 39.0527 10.6011 414 112.597 1268.53 466.889
130 0 48.4723 12.9146 626 106.081 1268.65 470.831
131 0 47.0336 10.7795 507 112.698 1267.11 470.306
132 0 49.0718 10.9024 535 109.307 1268.34 477.176
133 0 51.046 10.7158 547 110.324 1267.03 476.009
134 0 52.0465 10.1064 526 116.979 1264.97 476.646
135 0 54.0468 13.8769 750 106.665 1265.97 474.177
136 0 56.1424 14.1248 793 107.98 1264.82 473.475
137 0 57.0615 12.0922 690 109.822 1265 475.872
138 0 60.085 12.2992 739 110.931 1263.03 472.924
139 0 61.1531 14.3084 875 108.503 1263.56 471.878
140 0 59.0734 11.308 668 114.37 1261.5 468.04
141 0 65.1148 14.0675 916 110.003 1261.07 466.33
142 0 68.0929 11.7193 798 113.046 1261.32 467.818
143 0 69.1274 13.2075 913 112.639 1260.91 464.865
144 0 70.1669 12.2422 859 116.506 1259.72 461.601
145 0 72.082 12.0557 869 116.751 1259.44 462.893
146 0 74.0869 11.743 870 118.301 1258.95 460.521
147 0 79.1076 16.5597 1310 111.348 1257.99 461.334
148 0 81.1015 12.8111 1039 119.413 1259.06 453.365
149 0 83.2122 12.1136 1008 120.706 1258.19 451.8
150 0 83.2122 12.0896 1006 131.85 1257.18 451.82
151 1 49.1155 9.54893 469 117.821 1258.25 470.328
152 0 48.1143 11.4103 549 119.266 1258.4 466.231
153 0 53.0656 16.244 862 108.497 1259.16 465.574
154 0 51.099 13.2683 678 112.196 1260.57 464.19
155 0 55.178 13.103 723 111.38 1259.91 463.762
156 0 56.3279 13.1551 741 111.839 1260.69 462.872
157 0 58.0584 12.6252 733 112.105 1261.03 461.935
158 0 58.1125 13.3878 778 112.452 1261.68 459.458
159 0 59.1009 13.7561 813 112.492 1262.96 460.973
160 0 63.2267 14.7722 934 111.781 1262.92 457.489
161 0 63.0767 13.6818 863 114.168 1263.98 458.043
162 0 67.1521 20.4461 1373 103.715 1264.29 459.476
163 0 69.3007 15.844 1098 110.849 1265.37 455.352
164 0 69.3007 15.8584 1099 137.629 1266.36 455.413
165 0 72.167 14.6466 1057 115.796 1266.47 454.321
166 0 74.187 15.7575 1169 114.406 1266.77 453.913
167 0 76.1118 13.086 996 118.354 1266.34 455.319
168 0 81.2111 12.3013 999 119.373 1266.82 454.77
169 0 84.147 14.3558 1208 115.954 1267.49 456.263
170 1 46.1823 12.1692 562 115.637 1266.17 474.173
171 0 46.1823 12.1259 560 142.609 1265.17 474.13
172 0 46.3938 11.9844 556 115.156 1266.41 478.714
173 0 48.1081 12.2017 587 115.526 1266.01 477.044
174 0 49.0473 15.1079 741 110.962 1266.19 479.426
175 0 49.1158 9.89498 486 119.895 1265.31 478.34
176 0 51.0579 13.7099 700 114.9 1265.45 477.513
177 0 53.1199 12.3682 657 117.172 1265.11 475.464
178 0 54.1507 14.0903 763 115.771 1264.74 476.558
179 0 54.2871 12.3418 670 118.315 1264.42 475.984
180 0 56.3748 13.8892 783 117.078 1263.06 474.776
181 0 60.2568 20.8773 1258 104.517 1261.76 475.975
182 0 59.1713 12.9962 769 118.657 1261.49 473.371
183 0 61.2098 15.2917 936 116.531 1261.67 471.694
184 0 62.2519 15.5015 965 116.702 1260.01 468.942
185 0 64.0983 14.1189 905 119.641 1259.77 469.417
186 0 67.2591 14.065 946 120.356 1259.66 466
187 0 68.2677 14.824 1012 119.146 1258.33 463.258
188 0 70.1394 14.514 1018 119.204 1258.93 462.862
189 0 73.2558 15.7257 1152 116.458 1257.77 463.545
190 0 77.2063 14.4677 1117 117.968 1257.75 460.783
191 0 76.1853 11.2226 855 123.235 1256.88 462.264
192 0 78.2953 13.3469 1045 121.922 1257.65 455.003
193 0 78.2953 13.3724 1047 147.181 1257.64 455.037
194 0 85.3268 15.6926 1339 118.075 1257.7 450.997
195 0 86.2377 18.4838 1594 113.899 1258.94 449.521
196 0 91.3675 15.8043 1444 117.54 1258.73 447.638
197 0 94.4347 15.0686 1423 119.489 1259.68 446.547
198 0 95.4063 14.0871 1344 122.521 1259.91 440.555
199 0 95.4671 14.0572 1342 132.183 1260.9 440.682
200 1 52.1995 11.9541 624 121.28 1261.08 466.811
201 0 54.1317 14.5201 786 117.768 1259.92 465.355
202 0 54.0676 13.5386 732 123.225 1261.2 462.35
203 0 56.042 15.0601 844 118.454 1262.4 462.744
204 0 56.042 15.0066 841 139.358 1263.38 462.678
205 0 58.1134 14.2308 827 121.838 1263.45 460.572
206 0 59.1652 13.7412 813 122.886 1264.1 460.229
207 0 63.1639 14.8344 937 119.732 1264.79 460.759
208 0 66.0814 14.467 956 119.073 1266.03 463.012
209 0 64.2622 14.6898 944 122.488 1266.48 457.59
210 0 67.141 13.0323 875 126.201 1265.9 458.51
211 0 69.2093 15.0124 1039 122.236 1267.08 458.163
212 0 71.0902 14.9388 1062 121.619 1267.19 462.124
213 0 74.0518 15.4622 1145 122.329 1266.47 459.37
214 0 76.1832 15.5284 1183 120.663 1266.36 462.783
215 0 79.1196 15.1164 1196 122.712 1266.95 461.571
216 0 81.0895 17.4745 1417 121.408 1267.12 459.605
217 0 83.3016 16.5903 1382 120.025 1265.99 464.415
218 0 86.1071 13.46 1159 128.56 1265.63 455.537
219 0 87.0957 12.9283 1126 129.029 1265.36 459.069
220 0 92.2569 15.5327 1433 124.473 1264.27 454.933
221 0 93.1913 11.074 1032 131.614 1264.36 459.464
222 0 99.2558 14.649 1454 124.22 1263.8 458.038
223 0 102.284 15.7992 1616 123.334 1262.35 453.988
224 0 107.221 15.398 1651 123.622 1261.01 449.844
225 0 107.221 15.4353 1655 149.83 1260.02 449.95
226 0 108.4 16.9464 1837 142.807 1258.96 452.24
227 0 116.175 14.7277 1711 128.023 1259.06 444.644
228 0 120.171 14.1298 1698 129.793 1258.39 439.693
229 0 123.419 14.9085 1840 128.592 1257.43 437.338
230 0 132.563 18.9345 2510 119.811 1256.76 430.294
231 0 132.367 14.4976 1919 130.389 1255.5 430.794
232 0 135.358 13.3646 1809 133.344 1256.07 428.606
233 1 73.1695 13.9129 1018 123.972 1256.73 462.582
234 0 72.2887 12.6299 913 127.526 1255.7 459.354
235 0 79.2629 16.6282 1318 116.835 1256.46 461.264
236 0 79.1348 16.1749 1280 120.295 1255.7 456.081
237 0 82.1621 13.5707 1115 122.97 1255.45 456.947
238 0 83.1776 13.2247 1100 124.195 1255.6 452.805
239 0 88.2356 15.2206 1343 119.323 1255.22 448.494
240 0 88.0916 13.6108 1199 124.599 1257.37 445.111
241 0 92.204 14.1859 1308 117.962 1256.7 447.226
242 0 95.2143 14.2416 1356 117.584 1257.67 447.205
243 0 99.1499 17.287 1714 112.613 1258.3 445.604
244 0 100.447 13.5494 1361 118.88 1257.66 441.459
245 0 106.342 14.5098 1543 115.947 1259.31 442.169
246 0 109.298 16.1119 1761 115.781 1259.29 435.112
247 0 114.238 13.6032 1554 120.449 1260.14 437.358
248 1 74.2028 11.1721 829 122.212 1260.43 455.902
249 0 74.2731 12.4271 923 119.788 1260.83 454.176
250 0 73.1332 11.4175 835 122.892 1261.43 450.255
251 0 81.123 13.1159 1064 116.628 1261.24 456.275
252 0 82.1724 13.3621 1098 117.93 1262.84 452.487
253 0 84.293 13.809 1164 119.6 1263.46 448.21
254 0 87.1969 13.3262 1162 120.734 1263.36 449.682
255 0 88.1355 13.1048 1155 122.465 1263.76 448.144
256 0 92.1871 12.4746 1150 123.407 1263.03 449.722
257 0 97.1157 13.4994 1311 121.301 1264.69 449.238
258 0 100.303 15.1441 1519 119.269 1264.33 446.061
259 0 103.125 14.0218 1446 122.942 1265.18 442.391
260 0 106.299 10.8185 1150 127.224 1263.95 447.747
261 1 56.0937 13.9588 783 118.275 1263.44 470.441
262 0 60.1336 13.47 810 119.117 1263.56 470.515
263 0 63.1602 14.9936 947 114.324 1262.39 472.116
264 0 59.0464 9.7381 575 125.807 1263.38 467.647
265 0 66.03 11.6614 770 119.232 1262.24 470.696
266 0 64.0577 10.9589 702 122.222 1262.14 467.118
267 0 70.2412 12.6564 889 118.251 1260.88 466.816
268 0 73.1908 12.9661 949 123.141 1261.53 465.703
269 0 73.1908 12.9524 948 148.377 1261.52 465.744
270 0 78.0999 12.8041 1000 121.559 1259.07 463.655
271 0 80.1161 12.432 996 122.475 1258.98 462.805
272 0 85.1353 13.1085 1116 121.4 1259.44 458.754
273 0 85.1353 13.1085 1116 137.185 1260.44 458.812
274 0 91.2243 14.4589 1319 118.702 1257.72 454.608
275 0 93.3514 12.7904 1194 123.244 1257.07 448.326
276 1 50.0503 9.73021 487 118.52 1257.9 474.407
277 0 52.0714 11.3882 593 117.126 1257.13 471.648
278 0 54.0348 11.326 612 119.271 1257.69 465.317
279 0 55.0727 11.7481 647 114.077 1257.19 465.836
280 0 52.0231 9.47655 493 118.071 1256.4 468.572
281 0 57.0537 9.3596 534 115.775 1256.18 467.313
282 0 65.1059 8.95464 583 117.034 1255.98 463.467
283 0 63.0577 8.97591 566 114.772 1257.65 465.288
284 0 63.2412 12.5709 795 113.098 1257.65 456.875
285 0 63.1277 10.6768 674 116.417 1258.23 455.803
286 0 68.178 14.7702 1007 108.975 1258.24 456.299
287 0 69.0953 16.2384 1122 106.806 1259.59 454.986
288 0 72.0896 14.2323 1026 109.963 1259.6 453.269
289 0 74.0743 12.0555 893 114.222 1260.32 451.888
290 0 76.1438 12.5289 954 113.841 1260.69 449.794
291 0 78.1536 11.8229 924 116.193 1262.7 451.452
292 0 79.2506 11.7602 932 117.874 1262.96 451.512
293 0 82.1308 11.4817 943 119.011 1265.14 446.598
294 0 85.3142 13.421 1145 114.895 1264.24 447.356
295 1 43.1448 10.1055 436 119.528 1265.5 467.966
296 0 47.1209 10.993 518 120.127 1266.65 463.83
297 0 47.2654 13.5829 642 113.936 1266.75 464.882
298 0 51.164 13.6619 699 113.196 1267.45 463.724
299 0 50.2633 13.5089 679 109.24 1266.48 470.274
300 0 50.1225 11.1926 561 115.096 1267.06 470.31
301 0 53.1108 16.4562 874 106.778 1266.46 468.268
302 0 54.0892 11.0743 599 115.723 1266.47 469.958
303 0 54.0906 11.0001 595 128.491 1266.46 469.985
304 0 58.158 13.2742 772 112.868 1265.39 468.566
305 0 60.0857 14.3961 865 109.717 1265.69 469.521
306 0 63.0789 13.0313 822 112.59 1263.94 471.501
307 0 60.0816 10.2694 617 119.31 1264.82 469.301
308 0 63.0997 12.7734 806 114.945 1263.61 468.656
309 0 66.0675 14.5155 959 111.591 1263.66 467.729
310 0 70.1011 13.9941 981 112.308 1263.18 467.535
311 0 71.0672 13.9868 994 112.579 1262.36 465.181
312 0 74.0771 13.6884 1014 112.704 1261.53 464.993
313 0 74.1103 16.435 1218 109.071 1260.98 459.955
314 0 78.2704 15.6637 1226 109.233 1260.88 457.98
315 0 79.1711 11.0773 877 114.273 1259.52 463.294
316 0 84.314 10.793 910 115.099 1260.5 459.474
317 0 85.1906 11.9262 1016 114.27 1258.35 455.72
318 0 85.1906 11.8675 1011 134.471 1255.34 455.784
319 0 88.1376 11.6182 1024 115.739 1258.38 449.789
320 0 93.1343 11.4888 1070 114.525 1258.6 453.739
321 0 97.0482 13.8694 1346 111.373 1258.99 449.256
322 0 98.1023 10.4687 1027 115.427 1258.59 446.92
323 0 103.358 13.8354 1430 111.81 1258.28 439.366
324 0 104.301 11.4381 1193 114.869 1257.38 436.228
325 0 108.707 9.58537 1042 113.927 1257.36 434.349
326 1 63.064 13.0502 823 104.204 1257.47 460.22
327 0 63.064 12.9868 819 123.527 1258.45 460.192
328 0 63.2251 12.3843 783 103.831 1258.28 450.948
329 0 67.0766 10.3911 697 110.353 1257.5 454.755
330 0 70.2521 11.1883 786 109.547 1259.25 448.095
331 0 73.2982 13.561 994 104.887 1259.79 450.413
332 0 74.2951 14.8731 1105 104.039 1260.95 450.457
333 0 77.0683 16.5567 1276 102.971 1260.83 443.487
334 0 77.1344 12.6014 972 108.754 1261.08 442.334
335 0 82.1276 14.8428 1219 104.706 1262.4 446.516
336 0 87.1412 15.3659 1339 104.118 1263.11 445.073
337 0 86.1576 12.7325 1097 108.229 1263.03 440.696
338 0 88.233 14.5524 1284 105.355 1264.03 446.271
339 0 91.2727 14.0787 1285 106.03 1265.55 440.609
340 0 91.2727 14.0787 1285 128.072 1266.56 440.726
341 0 98.3626 12.5454 1234 108.213 1265.31 438.36
342 0 100.249 11.242 1127 110.84 1266.04 442.413
343 0 106.517 14.2701 1520 107.57 1267.32 436.979
344 0 108.293 12.4569 1349 111.223 1266.59 435.91
345 0 115.484 15.6819 1811 105.605 1267.44 440.624
346 0 119.357 19.0605 2275 102.529 1268.55 430.728
347 1 59.0953 10.39 614 111.217 1268.15 464.244
348 0 62.2144 11.9908 746 110.19 1268.07 464.991
349 0 63.1547 10.1655 642 114.109 1268.68 461.636
350 0 67.2494 12.1339 816 110.828 1267.81 463.738
351 0 70.2618 15.855 1114 103.551 1267.09 468.557
352 0 72.564 13.7396 997 108.972 1265.94 461.681
353 0 79.472 14.7096 1169 106.882 1266.29 463.163
354 0 78.3 15.0575 1179 109.139 1265.61 460.272
355 0 79.1024 13.944 1103 112.862 1264.25 456.335
356 0 79.1024 13.906 1100 150.102 1262.23 456.315
357 0 86.3521 14.024 1211 111.587 1263.19 460.144
358 0 89.3723 13.9752 1249 112.883 1262.9 454.387
359 0 91.2326 14.9727 1366 111.895 1262.84 453.322
360 0 94.3409 14.7656 1393 111.602 1262.56 453.391
361 0 96.3259 16.3507 1575 110.66 1260.97 449.043
362 0 101.264 14.6251 1481 112.562 1261.21 448.616
363 0 104.262 19.2112 2003 106.106 1260.74 445.92
364 0 105.299 15.4987 1632 111.865 1260.2 438.526
365 0 107.328 16.0256 1720 111.476 1260.52 439.358
366 0 111.271 22.4137 2494 103.663 1261.34 434.528
367 0 111.271 22.3688 2489 127.463 1262.36 434.384
368 0 117.238 18.5862 2179 106.727 1260.7 433.682
369 0 121.398 14.3248 1739 110.405 1259.84 431.258
370 0 123.241 16.131 1988 108.829 1260.49 429.698
371 0 132.552 17.4875 2318 106.805 1260.85 419.412
372 0 132.266 18.0394 2386 107.237 1261.41 418.679
373 0 138.425 15.3224 2121 111.733 1260.97 413.773
374 0 144.306 19.3201 2788 105.296 1261.66 411.997
375 0 147.409 15.535 2290 112.232 1262.08 404.448
376 0 152.219 14.8076 2254 114.114 1263.08 400.354
377 1 84.3791 14.0675 1187 107.419 1264.05 440.903
378 0 84.3791 14.0319 1184 132.003 1265.09 440.812
379 0 91.2751 12.6431 1154 109.805 1265.45 439.855
380 0 91.126 11.6103 1058 111.6 1266.25 436.797
381 0 94.1935 11.2322 1058 111.518 1265.66 440.531
382 0 96.1277 11.027 1060 112.991 1267.43 438.37
383 0 103.218 15.5011 1600 107.716 1268.16 435.051
384 0 105.173 15.6694 1648 106.762 1267.45 435.817
385 0 109.226 12.671 1384 113.469 1268.22 431.749
386 0 114.222 14.3405 1638 112.806 1268.51 436.383
387 0 116.24 13.1796 1532 113.827 1268.96 434.646
388 0 116.24 13.2484 1540 139.425 1268.95 434.707
389 1 65.2065 11.3486 740 113.869 1269.31 460.876
390 0 67.2422 12.2393 823 116.32 1269.49 460.808
391 0 73.1451 13.9859 1023 113.676 1269.66 457.318
392 0 74.0953 14.2114 1053 113.731 1269.61 460.115
393 0 75.116 14.7239 1106 113.193 1268.03 459.411
394 0 77.2347 12.8958 996 116.702 1268.9 457.022
395 0 80.1107 14.2553 1142 114.985 1266.87 457.149
396 0 83.0812 14.3715 1194 114.504 1267.36 458.04
397 0 84.2213 17.5846 1481 109.63 1267.25 457.445
398 0 86.3226 15.2336 1315 114.376 1264.99 450.966
399 0 91.2436 13.7434 1254 116.281 1264.13 453.166
400 0 95.2795 14.4207 1374 115.774 1263.57 451.402
