time division length width area intensity CMx CMy
0 0 53.0825 13.9029 738 133.114 1341.26 473.6
1 0 53.2039 14.8673 791 131.219 1340.4 472.081
2 0 53.0238 14.2389 755 132.021 1339.82 472.098
3 0 53.0238 14.1635 751 130.329 1338.82 472.068
4 0 57.0979 13.328 761 132.92 1337.9 471.624
5 0 55.0989 12.1418 669 136.202 1337.87 471.88
6 0 60.1442 14.0994 848 130.127 1335.52 469.607
7 0 61.0949 12.587 769 134.475 1334.8 469.831
8 0 64.1358 13.7521 882 130.6 1333.47 468.522
9 0 64.1358 13.7833 884 138.117 1332.45 468.538
10 0 66.1011 14.0391 928 129.895 1332.43 464.678
11 0 68.0618 14.0754 958 128.848 1332.35 465.001
12 0 70.0656 12.9307 906 132.841 1332.34 462.922
13 0 75.2235 15.8993 1196 125.633 1333.32 460.975
14 0 78.1758 14.4162 1127 123.851 1331.87 460.312
15 1 38.3055 12.2176 468 127.28 1332.36 476.536
16 0 41.0494 11.4009 468 126.872 1331.99 475.323
17 0 41.1394 11.2301 462 127.933 1331.97 473.203
18 0 44.08 12.4773 550 122.244 1332.24 470.967
19 0 44.0251 13.0607 575 123.322 1332.48 468.614
20 0 44.061 12.3919 546 124.002 1331.5 470.965
21 0 47.1217 13.5606 639 117.155 1332.01 468.856
22 0 47.0747 13.2555 624 115.287 1331.38 468.125
23 0 47.1301 14.0038 660 121.902 1333.19 462.92
24 0 51.0619 15.2756 780 117.172 1333.81 462.565
25 0 52.0385 16.9106 880 112.872 1334.15 463.274
26 0 54.0869 13.9036 752 117.992 1334.36 461.816
27 0 55.1996 14.366 793 117.228 1336.16 463.146
28 0 55.0783 14.2343 784 119.135 1336.19 457.929
29 0 58.0685 12.9158 750 120.576 1336.03 457.881
30 0 59.0981 14.5013 857 118.04 1339.1 456.212
31 0 59.0981 14.4336 853 133.351 1341.09 456.122
32 0 65.3195 14.4061 941 115.747 1338.93 457.05
33 0 68.1278 13.5334 922 117.148 1341.55 457.221
34 0 70.2692 12.1533 854 118.896 1341.33 454.478
35 0 72.1929 13.3393 963 119.218 1342.69 454.91
36 0 74.3767 15.4753 1151 112.762 1341.98 455.843
37 0 79.0693 16.0239 1267 111.991 1344 456.094
38 0 80.1673 15.2556 1223 112.301 1341.95 453.693
39 0 80.1673 15.1309 1213 137.976 1340.95 453.716
40 1 46.0647 14.5665 671 106.511 1343.06 473.459
41 0 49.1041 12.3411 606 110.856 1343.58 472.266
42 0 49.1037 13.3798 657 110.75 1342.41 472.985
43 0 50.1267 12.8873 646 109.613 1342.56 473.144
44 0 51.0894 11.9986 613 118.529 1341.91 474.953
45 0 54.0902 14.1985 768 120.706 1342.17 475.195
46 0 56.036 13.42 752 123.447 1340.06 473.564
47 0 59.036 14.7707 872 122.349 1338.98 472.899
48 0 60.0964 14.8262 891 124.285 1339.18 473.088
49 0 61.0694 10.9875 671 125.867 1336.66 471.343
50 0 65.13 12.667 825 126.96 1336.94 469.635
51 0 67.1685 12.4165 834 127.954 1335.88 469.222
52 0 69.2461 13.0982 907 128.001 1335.37 466.571
53 0 72.051 15.0033 1081 124.495 1334.91 463.961
54 0 77.0784 14.6215 1127 124.678 1335.04 463.254
55 0 79.1054 14.8915 1178 123.731 1335.21 462.065
56 0 80.0973 15.3688 1231 123.636 1334 461
57 0 80.0957 15.4315 1236 136.438 1333.01 460.817
58 0 80.0957 15.4191 1235 136.07 1331.98 460.615
59 1 44.1448 10.9413 483 124.42 1332.68 478.861
60 0 46.0683 13.8924 640 120.969 1332.91 473.8
61 0 48.069 11.7955 567 123.404 1333.61 475.243
62 0 48.102 13.0764 629 121.797 1332.98 472.051
63 0 49.1234 15.6137 767 117.185 1332.43 471.529
64 0 51.1085 14.1855 725 119.879 1333.41 470.108
65 0 55.1042 13.4472 741 121.154 1333.55 468.437
66 0 57.0589 14.8443 847 118.63 1333.19 467.387
67 0 55.1222 11.919 657 126.336 1333.54 465.021
68 0 56.0999 11.8182 663 126.09 1334.56 464.057
69 0 59.0901 14.4525 854 122.246 1334.98 463.221
70 0 62.2021 15.1924 945 121.174 1335.63 460.815
71 0 64.0529 13.8323 886 122.931 1334.92 461.854
72 0 66.0924 13.0121 860 123.771 1336.05 462.351
73 0 68.1317 12.3291 840 127.192 1336.69 456.514
74 0 72.0909 16.3544 1179 118.792 1337.49 458.351
75 0 72.1784 14.2286 1027 124.367 1337.94 455.594
76 0 76.37 14.5738 1113 123.845 1338.82 454.146
77 0 79.1358 16.3516 1294 120.842 1339.64 452.257
78 0 82.3877 16.6772 1374 119.925 1340.16 454.912
79 0 83.3582 14.7196 1227 123.286 1340.59 453.083
80 1 43.2838 9.84202 426 124.136 1342.03 475.131
81 0 43.2418 9.11156 394 127.269 1340.84 471.272
82 0 47.097 10.4678 493 123.081 1340.74 475.249
83 0 48.0498 15.2758 734 117.969 1340.76 471.887
84 0 50.0936 17.2277 863 114.986 1339.28 474.206
85 0 51.0846 13.37 683 123.266 1340.19 474.249
86 0 57.161 14.9403 854 116.618 1340.84 477.196
87 0 56.126 16.9084 949 116.351 1340.41 474.946
88 0 54.1879 13.9884 758 123.74 1339.1 472.067
89 0 54.1879 14.0622 762 140.272 1337.08 472.088
90 0 61.2012 17.3689 1063 115.548 1339.21 474.777
91 0 61.2525 12.9954 796 125.187 1337.5 473.457
92 0 59.1252 10.8414 641 130.027 1337.86 472.919
93 0 64.1078 13.2589 850 124.358 1338.09 475.194
94 0 67.0189 13.7424 921 123.936 1336.08 473.081
95 0 72.168 16.3369 1179 119.075 1335.91 470.465
96 0 71.0493 12.991 923 126.144 1333.52 470.203
97 0 73.2308 16.0998 1179 120.825 1334.34 467.853
98 0 75.0917 14.3824 1080 123.689 1333.14 468.843
99 0 79.1916 16.5295 1309 118.71 1332.33 464.379
100 0 85.2488 15.0031 1279 119.567 1332.73 461.794
101 0 83.2372 12.1821 1014 125.608 1332.08 457.592
102 0 88.2772 14.1486 1249 121.021 1331.75 456.521
103 0 92.2021 14.8912 1373 119.085 1331.57 455.828
104 1 43.0427 12.081 520 117.91 1330.94 480.398
105 0 47.0983 12.0386 567 117.716 1331.32 474.892
106 0 47.057 12.0705 568 117.759 1332.29 475.882
107 0 50.1188 15.3435 769 111.814 1330.87 471.893
108 0 48.066 11.401 548 119.515 1331.35 472.164
109 0 52.0706 14.0002 729 115.34 1332.31 469.964
110 0 54.1631 11.7792 638 119.064 1333.09 469.031
111 0 56.093 16.3122 915 112.348 1332.85 465.263
112 0 59.1642 14.1471 837 115.277 1332.71 464.927
113 0 60.1086 15.1559 911 113.989 1332.98 461.133
114 0 65.0845 16.8397 1096 109.937 1334.65 460.597
115 0 66.2429 13.8581 918 113.667 1335.39 462.928
116 0 66.0623 14.335 947 115.941 1335.93 460.312
117 0 70.1226 17.5122 1228 110.501 1336 456.602
118 0 71.1941 16.6727 1187 112.404 1337.17 457.322
119 0 71.1941 16.6727 1187 135.763 1339.16 457.414
120 0 71.1933 16.6308 1184 135.309 1341.19 457.556
121 0 76.1605 13.4453 1024 117.192 1337.21 460.919
122 0 82.1717 14.9322 1227 116.346 1338.93 455.397
123 0 82.3364 15.0845 1242 117.138 1338.76 455.489
124 0 82.3364 15.1087 1244 147.109 1338.78 455.626
125 0 88.1805 12.8146 1130 121.607 1339.8 452.515
126 0 91.2612 14.2887 1304 118.285 1340.28 455.475
127 1 46.0591 11.9412 550 119.253 1340.49 473.182
128 0 50.0926 13.2555 664 115.416 1338.55 475.703
129 0 51.0319 12.9723 662 115.171 1340.25 477.672
130 0 54.0448 12.9337 699 114.967 1338.87 477.265
131 0 53.1162 13.6117 723 116.289 1338.53 476.77
132 0 57.0779 14.2087 811 115.196 1337.83 475.887
133 0 55.1186 12.8632 709 118.69 1337.35 479.247
134 0 57.3617 12.8309 736 119.565 1337.33 476.939
135 0 61.2154 14.6695 898 116.115 1336.21 476.539
136 0 64.1418 16.8377 1080 111.237 1336.56 477.029
137 0 65.0452 13.9288 906 117.413 1334.02 475.514
138 0 65.0452 13.9903 910 138.46 1331.02 475.542
139 0 68.1317 15.6902 1069 115.836 1332.43 471.606
140 0 68.1317 15.6462 1066 131.617 1334.44 471.636
141 0 73.2974 15.0892 1106 116.377 1331.71 468.481
142 0 74.2291 15.2366 1131 116.856 1331.1 465.818
143 0 79.2434 15.5849 1235 115.295 1330.25 464.901
144 0 78.2866 14.0382 1099 119.723 1329.9 459.606
145 0 82.1936 15.5365 1277 116.796 1329.1 460.659
146 0 82.1936 15.5608 1279 133.707 1329.08 460.717
147 0 88.1536 14.6109 1288 120.602 1328.04 454.715
148 0 91.3641 14.8089 1353 120.232 1328.41 452.668
149 0 97.1565 15.8816 1543 117.443 1329.38 451.958
150 1 51.0379 11.6188 593 119.444 1328.66 473.956
151 0 54.0685 12.0958 654 116.557 1330.35 476.069
152 0 53.1197 13.7614 731 117.999 1330.59 470.658
153 0 57.1072 13.5885 776 116.425 1331 470.96
154 0 57.051 13.4266 766 118.547 1331.29 465.787
155 0 59.0288 13.0784 772 119.083 1330.43 464.582
156 0 61.042 16.0545 980 113.307 1331.31 465.997
157 0 65.1546 14.4119 939 115.265 1332.68 463.823
158 0 67.0462 13.5131 906 117.956 1332.29 463.507
159 0 68.1432 11.784 803 121.538 1332.2 462.826
160 0 72.1031 14.6457 1056 117.269 1334.23 457.221
161 0 74.2101 16.5207 1226 113.684 1334.13 457.954
162 0 77.2906 14.8013 1144 118.751 1335.43 454.208
163 0 79.3213 13.792 1094 119.482 1335.27 457.613
164 0 82.1974 14.0637 1156 119.478 1336.17 452.514
165 0 82.1974 14.0515 1155 143.411 1337.18 452.505
166 1 43.1682 10.4012 449 118.374 1337.57 471.419
167 0 45.1952 12.5677 568 113.102 1338.06 471.903
168 0 42.2155 10.3043 435 157.8 1339.42 468.966
169 0 47.2094 13.2601 626 117.776 1339.18 476.673
170 0 47.2094 13.2601 626 147.938 1339.17 476.716
171 0 51.1129 14.2625 729 115.731 1338.7 479.266
172 0 52.055 13.5049 703 117.279 1339 478.661
173 0 52.1357 12.5634 655 119.78 1338.57 477.795
174 0 55.142 14.1997 783 117.46 1337.32 478.438
175 0 56.1415 13.2166 742 119.511 1336.96 480.768
176 0 59.0986 12.6399 747 121.315 1335.69 478.628
177 0 62.0819 12.7251 790 120.559 1335.44 478.175
178 0 60.0554 14.803 889 118.992 1335.76 477.454
179 0 64.1594 15.6018 1001 116.428 1334.43 475.559
180 0 65.1383 16.0888 1048 115.199 1333.91 477.152
181 0 68.1417 15.2036 1036 117.481 1332.99 474.832
182 0 69.0681 13.8993 960 119.447 1331.8 473.719
183 0 73.1819 14.8671 1088 116.994 1330.83 473.525
184 0 72.0834 12.8462 926 121.568 1331.88 471.584
185 0 74.1258 14.1651 1050 118.529 1329.88 470.532
186 0 75.1299 10.5151 790 125.928 1328.48 467.01
187 0 81.1771 14.0803 1143 119.479 1329.51 462.948
188 0 84.2404 14.7791 1245 117.753 1328.16 461.321
189 0 86.1233 13.0278 1122 120.117 1328.39 458.336
190 0 90.1003 15.7491 1419 114.402 1328.07 461.119
191 0 93.2093 15.3955 1435 115.683 1328.46 456.865
192 0 96.4051 13.464 1298 118.668 1329.21 454.532
193 0 99.1923 16.4025 1627 115.227 1328.6 447.668
194 1 53.3735 11.5413 616 119.688 1329.48 470.687
195 0 56.201 15.2132 855 112.916 1329.89 469.23
196 0 56.1949 14.3607 807 114.731 1330.06 466.934
197 0 62.1605 14.5913 907 113.913 1330.72 464.342
198 0 62.0943 15.0255 933 112.174 1330.92 465.684
199 0 64.2094 13.2535 851 117.039 1331.21 462.021
200 0 65.1328 11.1157 724 119.351 1330.85 462.733
201 0 68.1778 17.1463 1169 110.782 1332.13 460.459
202 0 73.3212 17.2801 1267 109.137 1333.26 459.486
203 0 74.1573 19.7014 1461 105.506 1332.12 461.28
204 0 76.2083 13.1613 1003 117.098 1333.83 452.945
205 0 79.4384 17.1705 1364 109.139 1334.56 461.698
206 0 82.3 15.0304 1237 113.928 1334.46 454.575
207 0 84.2538 12.676 1068 116.965 1335.8 456.573
208 1 46.4612 10.5895 492 114.758 1334.12 473.614
209 0 48.1739 13.9495 672 111.243 1336.32 474.146
210 0 50.2721 14.4016 724 111.12 1336.93 472.58
211 0 51.1752 12.4084 635 114.748 1336.5 475.718
212 0 52.2539 12.3818 647 114.875 1336.08 477.043
213 0 56.2485 15.236 857 110.149 1336.75 473.596
214 0 55.184 12.3586 682 115.865 1337.02 474.765
215 0 60.5224 14.2427 862 112.437 1337.04 475.211
216 0 61.447 15.786 970 120.54 1336.89 476.753
217 0 62.4786 13.8928 868 113.454 1336.81 474.396
218 0 61.1767 12.6028 771 116.719 1337.01 475.114
219 0 67.575 14.8576 1004 112.631 1337.19 473.432
220 0 68.3701 13.1929 902 116.295 1335.96 474.358
221 0 71.5425 12.7756 914 118.188 1335 474.019
222 0 72.2 12.7424 920 119.049 1335.04 472.66
223 0 75.8576 12.8794 977 118.489 1333.68 468.157
224 0 78.8484 9.68948 764 124.09 1331.45 464.602
225 0 84.4752 12.8677 1087 117.78 1331.1 465.841
226 0 85.5337 11.7498 1005 120.567 1328.71 464.116
227 0 89.4806 12.2708 1098 120.26 1329.23 457.687
228 1 45.4275 11.1386 506 117.079 1326.82 482.296
229 0 51.2092 12.8297 657 113.189 1326.25 483.134
230 0 49.0657 11.882 583 111.87 1325.93 485.389
231 0 50.1064 11.7151 587 115.801 1326.24 480.881
232 0 49.2468 10.2342 504 120.599 1326.86 479.026
233 0 55.1328 15.8526 874 110.9 1325.73 475.88
234 0 54.0708 11.8918 643 116.9 1327 475.179
235 0 60.2381 11.0893 668 116.455 1326.14 474.725
236 0 62.3536 16.9677 1058 106.36 1325.95 474.894
237 0 64.1804 15.9083 1021 108.742 1326.01 472.852
238 0 64.1804 15.7992 1014 132.844 1326.03 472.821
239 0 67.194 14.3912 967 112.334 1326.65 469.612
240 0 67.194 14.4061 968 136.533 1327.67 469.712
241 0 70.4124 13.0517 919 116.734 1327.46 464.108
242 0 72.335 13.1748 953 117.847 1327.36 464.231
243 0 74.2492 15.219 1130 113.6 1327.85 459.8
244 0 78.2315 16.873 1320 110.568 1329.12 455.196
245 0 79.2408 14.6389 1160 112.563 1328.39 453.214
246 0 82.2163 14.6808 1207 111.347 1329.14 454.998
247 1 38.0852 7.22065 275 115.367 1329.28 470.531
248 0 38.252 10.5093 402 111.321 1329.62 466.754
249 0 38.0507 7.80538 297 116.956 1331.14 464.963
250 0 38.0507 7.7791 296 135.429 1333.13 464.926
251 0 46.0747 12.7836 589 110.589 1332.9 473.985
252 0 48.1267 14.2332 685 108.117 1333.88 473.074
253 0 47.1554 14.0599 663 109.189 1334.37 472.285
254 0 51.2938 15.4015 790 105.43 1335.25 473.714
255 0 51.1178 13.0483 667 108.919 1334.21 476.498
256 0 56.1744 13.4403 755 108.119 1334.92 474.495
257 0 55.1558 13.5072 745 108.672 1335.23 475.13
258 0 56.1541 12.2698 689 112.232 1335.83 472.93
259 0 58.1052 12.5634 730 109.264 1336.05 474.63
260 0 60.1517 13.7818 829 109.926 1336.34 472.634
261 0 64.165 14.4939 930 108.162 1334.43 474.791
262 0 65.0727 14.0458 914 110.507 1334.68 472.216
263 0 67.0794 13.5064 906 110.296 1335.15 476.534
264 0 70.1258 15.7431 1104 108.11 1332.99 474.878
265 0 71.0842 13.8427 984 111.266 1333.58 471.595
266 0 74.1106 16.327 1210 107.283 1332.76 473.002
267 1 125.245 12.8867 1614 112.851 1332.13 456.411
268 1 76.35 12.9273 987 112.923 1331.09 471.763
269 0 80.1674 14.0207 1124 112.278 1330.02 466.794
270 1 45.1115 10.1083 456 112.164 1328.5 489.252
271 0 46.118 13.6173 628 109.306 1328.16 485.963
272 0 46.0471 10.0549 463 112.015 1327.78 486.553
273 0 48.1892 16.456 793 104.861 1328.34 482.071
274 0 48.1882 13.0115 627 110.175 1328.43 483.011
275 0 52.1822 15.3309 800 106.754 1327.61 480.009
276 0 55.6449 13.5322 753 107.349 1327.47 480.762
277 0 53.1054 12.88 684 111.424 1326.92 473.708
278 0 56.157 14.9759 841 107.618 1327.26 473.629
279 0 57.0924 14.17 809 109.407 1325.71 471.628
280 0 59.2007 17.618 1043 104.533 1327.05 469.268
281 0 61.0745 14.2776 872 108.648 1326.44 468.675
282 0 64.2804 14.0012 900 108.312 1327.12 470.776
283 0 65.1548 18.6018 1212 102.483 1326.97 467.799
284 0 69.1474 15.344 1061 106.143 1328.32 466.876
285 0 68.3472 15.8017 1080 108.518 1328.55 460.214
286 0 74.2888 16.7051 1241 105.99 1329.87 462.526
287 0 74.247 17.0243 1264 107.771 1329.54 459.92
288 0 76.3269 14.2545 1088 112.479 1329.95 460.161
289 0 79.1203 14.5727 1153 112.544 1330.67 455.887
290 0 79.1203 14.5095 1148 153.463 1331.67 455.886
291 0 82.1976 14.0393 1154 114.166 1331.1 454.01
292 0 85.612 12.4165 1063 118.612 1333.44 451.082
293 0 91.5951 15.9397 1460 109.361 1334.22 456.262
294 0 91.2682 16.4022 1497 110.99 1335.51 451.22
295 0 94.326 14.6831 1385 111.677 1335.03 454.761
296 0 103.449 14.5193 1502 112.02 1337.32 450.16
297 1 54.1171 12.3066 666 109.745 1337.38 474.65
298 0 54.1543 10.0269 543 112.562 1336.58 474.552
299 0 58.0517 12.3338 716 110.705 1337.62 473.716
300 0 59.1381 14.0518 831 111.33 1338.7 470.232
301 0 61.1032 12.5689 768 111.676 1337.7 473.342
302 0 61.1032 12.5853 769 151.767 1336.7 473.291
303 0 66.0732 15.5282 1026 107.096 1337.24 473.099
304 0 69.141 14.7525 1020 108.698 1337.27 470.925
305 0 73.2569 15.7255 1152 107.027 1336.23 472.329
306 0 77.1729 16.5084 1274 106.856 1336.39 471.159
307 0 76.1896 13.8995 1059 111.851 1334.83 468.167
308 0 80.2571 15.1264 1214 110.136 1334.12 469.832
309 0 86.5295 14.8504 1285 109.984 1334.37 467.075
310 0 84.3599 13.798 1164 114.567 1333.37 463.645
311 0 89.4377 14.8036 1324 112.578 1332.86 462.459
312 0 92.4824 14.7379 1363 113.164 1331.51 457.621
313 0 94.3953 13.221 1248 115.296 1331.56 460.858
314 0 102.66 18.1862 1867 106.491 1331.26 461.194
315 1 50.0221 12.4345 622 111.987 1330.1 482.516
316 0 51.1161 11.6206 594 110.761 1330.3 481.618
317 0 52.0458 14.5065 755 110.176 1328.67 480.302
318 0 53.0723 12.8881 684 113.583 1328.58 474.993
319 0 56.1028 14.42 809 110.508 1329.11 479.726
320 0 60.1064 12.9104 776 115.253 1328.44 471.432
321 0 59.0951 14.3159 846 112.638 1328.84 475.869
322 0 62.1073 13.4123 833 115.403 1328 471.395
323 0 66.1194 22.5955 1494 100.811 1327.59 469.392
324 0 64.0708 14.1406 906 114.798 1327.93 468.113
325 0 68.2816 12.6095 861 115.948 1327.67 466.093
326 0 70.1248 14.5597 1021 114.294 1327.96 461.322
327 0 73.0792 15.8321 1157 111.828 1329.91 459.989
328 0 73.2036 13.7971 1010 116.039 1329.68 458.502
329 0 73.2036 13.8108 1011 153.329 1328.67 458.541
330 0 79.2157 13.6337 1080 116.063 1330.31 456.841
331 0 79.2157 13.7347 1088 149.869 1331.31 456.739
332 0 83.2169 14.5043 1207 116.23 1332.41 449.611
333 0 89.1675 16.441 1466 111.521 1331.89 452.551
334 0 90.2074 14.4556 1304 115.93 1332.92 451.257
335 0 93.2983 13.3336 1244 120.423 1334.68 444.519
336 0 96.2896 16.5023 1589 115.051 1334.15 444.844
337 0 98.4157 13.2702 1306 121.452 1335.33 444.577
338 1 53.1026 11.5625 614 118.627 1337 467.373
339 0 58.3704 12.8832 752 113.249 1337.52 467.848
340 0 55.1508 14.3969 794 114.176 1335.96 465.343
341 0 60.0736 12.5513 754 116.647 1339.77 468.89
342 0 58.2331 10.8529 632 120.215 1338.04 469.03
343 0 62.2065 13.6963 852 115.155 1338.22 467.609
344 0 61.2551 12.7663 782 118.395 1340 468.184
345 0 67.1367 13.4949 906 114.736 1340.19 467.361
346 0 68.2048 13.782 940 114.585 1339.63 467.381
347 0 74.3921 14.9747 1114 110.461 1340.04 470.174
348 0 74.2887 16.3551 1215 110.649 1339.33 468.962
349 0 75.111 15.2841 1148 113.014 1338.57 466.857
350 0 75.111 15.3772 1155 136.766 1337.58 466.765
351 0 83.3029 18.4507 1537 108.206 1336.34 466.744
352 0 83.3029 18.3307 1527 130.788 1334.36 466.823
353 0 86.285 14.6723 1266 114.739 1337.34 466.922
354 1 49.1461 11.3336 557 116.903 1336.47 483.373
355 0 49.2333 12.5525 618 115.848 1335.55 482.294
356 0 50.3669 12.0317 606 114.309 1334.11 477.083
357 0 54.1074 12.9372 700 115.29 1334.25 481.986
358 0 56.0816 12.1787 683 116.709 1334.16 478.717
359 0 56.2129 12.3815 696 116.586 1333.62 478.938
360 0 60.2044 14.5172 874 111.326 1331.38 477.284
361 0 60.2044 14.6003 879 129.264 1329.4 477.305
362 0 62.063 15.0976 937 111.365 1330.91 473.926
363 0 64.1231 13.864 889 113.927 1330.59 471.341
364 0 68.2672 12.3778 845 116.86 1330.05 468.097
365 0 68.1012 14.4344 983 113.969 1330.54 467.215
366 0 69.2511 13.4294 930 116.372 1330.21 464.82
367 0 75.2503 14.8571 1118 113.683 1330.85 463.739
368 1 40.0189 13.5936 544 112.11 1330.81 478.108
369 0 40.0606 14.2784 572 110.493 1330.92 477.168
370 0 41.1852 12.6259 520 115.679 1329.91 477.025
371 0 43.3483 11.0731 480 115.858 1331.22 472.867
372 0 44.0231 12.4026 546 116.709 1331.11 471.696
373 0 48.049 13.2989 639 116.052 1332.36 472.131
374 0 50.1598 15.2911 767 111.927 1333.68 467.065
375 0 48.1043 12.7431 613 115.824 1333.78 470.896
376 0 50.0758 14.2384 713 115.626 1334.83 464.289
377 0 52.119 15.7716 822 113.203 1334.68 464.667
378 0 51.2946 13.3347 684 118.83 1336.93 465.016
379 0 57.3285 16.0304 919 111.49 1338.54 465.256
380 0 57.2652 14.5638 834 115.999 1337.85 464.062
381 0 58.1182 13.9199 809 117.125 1338.02 464.283
382 0 61.1381 14.868 909 114.208 1339.86 466.994
383 0 64.217 14.8559 954 113.325 1338.66 464.526
384 0 66.1813 15.0345 995 113.163 1340.5 465.725
385 0 67.0991 15.1716 1018 112.806 1339.66 465.218
386 0 70.1629 17.1031 1200 110.522 1340.74 462.615
387 0 70.1927 14.332 1006 116.853 1340.4 462.52
388 0 74.1833 15.2056 1128 115.934 1340.89 464.043
389 0 75.1689 14.1415 1063 117.975 1340.68 465.568
390 0 78.1211 16.2056 1266 115.587 1340.88 461.887
391 0 78.2599 12.3051 963 123.236 1340.22 465.323
392 0 83.2025 14.2063 1182 120.136 1338.74 460.837
393 0 87.3508 16.5539 1446 115.171 1338.69 464.393
394 1 46.1167 12.6852 585 121.104 1337.69 480.715
395 0 48.0856 13.2056 635 120.038 1336.77 483.531
396 0 50.1243 13.4266 673 118.823 1337.64 478.187
397 0 52.1573 12.2706 640 121.228 1336.77 478.731
398 0 56.0601 15.8758 890 117.351 1335.44 481.074
399 0 55.1507 13.5084 745 123.128 1334.59 484.161
400 0 57.0907 16.9204 966 117.728 1333.75 481.759
401 0 59.0857 13.8781 820 122.993 1333.51 478.291
