time division length width area intensity CMx CMy
0 0 53.0353 16.4985 875 135.326 1043.22 462.976
1 0 52.02 15.0903 785 140.397 1042.33 462.518
2 0 55.0719 16.3241 899 127.667 1042.53 464.824
3 0 52.0233 13.2248 688 134.949 1040.93 462.827
4 0 57.0239 16.3616 933 132.265 1040.29 464.359
5 0 58.0978 16.5583 962 131.061 1039.05 463.604
6 0 58.0957 14.7515 857 136.123 1037.54 463.977
7 0 63.073 15.9339 1005 128.963 1037.09 464.902
8 0 65.069 15.4451 1005 129.988 1037.78 465.737
9 0 66.0777 15.0429 994 132.088 1036.48 461.849
10 0 68.084 17.4637 1189 125.045 1035.49 459.587
11 0 70.2197 15.4515 1085 128.364 1034.85 458.854
12 0 73.1023 17.1267 1252 123.826 1035.13 458.788
13 0 74.1727 16.529 1226 123.212 1034.3 456.025
14 0 78.1803 14.0189 1096 129.066 1034.63 454.431
15 0 82.2029 16.6782 1371 123.331 1034.59 451.644
16 1 41.1084 14.2063 584 126.068 1034.78 469.007
17 0 44.0457 16.0742 708 120.236 1033.95 467.209
18 0 44.1499 14.632 646 130.851 1034.02 464.293
19 0 45.0266 12.3038 554 133.063 1032.92 461.076
20 0 47.0217 13.7809 648 128.699 1034.63 460.62
21 0 48.0726 13.7292 660 127.085 1034.89 462.833
22 0 50.0555 15.8824 795 125.04 1034.67 458.145
23 0 51.1373 15.7615 806 127.94 1035.6 456.998
24 0 53.0928 14.6159 776 129.134 1035.93 454.22
25 0 54.0365 15.8226 855 123.733 1036.75 457.077
26 0 58.0408 14.6793 852 124.663 1037.38 453.48
27 0 59.3586 14.185 842 126.736 1037.42 452.233
28 0 62.0981 14.4288 896 123.395 1038.56 454.172
29 0 64.1242 15.3608 985 121.976 1039.42 449.571
30 0 68.1633 15.0668 1027 121.839 1039.4 449.982
31 0 67.182 14.7956 994 124.188 1041.02 445.071
32 0 73.1508 20.0681 1468 113.437 1041.91 448.871
33 0 72.2586 15.4584 1117 118.452 1042.58 450.218
34 0 73.095 15.8561 1159 120.835 1043.35 444.732
35 0 76.0842 15.0491 1145 123.433 1043.47 444.888
36 0 77.2074 14.4028 1112 123.4 1045.09 443.317
37 0 82.1126 14.4192 1184 120.957 1044.78 444.454
38 0 83.2067 15.6958 1306 118.908 1045.28 441.419
39 0 90.1794 15.8906 1433 116.499 1044.53 445.199
40 1 45.0816 11.8674 535 119.391 1044.56 464.613
41 0 46.2063 13.2666 613 119.506 1044.47 465.623
42 0 48.3243 12.8714 622 116.436 1044.37 466.389
43 0 50.0518 16.5828 830 111.755 1044.69 465.154
44 0 51.0993 13.9141 711 120.153 1042.57 467.042
45 0 53.2819 14.4327 769 129.064 1042.52 466.043
46 0 54.0486 14.9865 810 126.595 1043.11 466.116
47 0 58.1199 15.296 889 127.319 1041.49 463.998
48 0 61.11 14.8094 905 129.773 1039.82 463.294
49 0 61.2924 13.9006 852 127.165 1040.52 464.191
50 0 65.2556 14.8493 969 129.068 1038.95 461.788
51 0 68.1261 13.475 918 131.239 1037.96 458.879
52 0 68.1243 15.7066 1070 128.621 1037.49 457.015
53 0 71.2175 14.6312 1042 130.477 1037.15 456.604
54 0 76.1997 15.7612 1201 127.695 1035.83 454.015
55 0 77.1948 14.5606 1124 129.528 1036.35 456.624
56 0 81.2408 14.0447 1141 130.492 1036.67 452.61
57 0 85.4976 14.3279 1225 129.798 1035.13 450.953
58 0 86.0641 12.9555 1115 133.03 1035.16 446.434
59 0 89.1722 13.5132 1205 131.842 1036.59 445.036
60 0 94.1885 13.3031 1253 130.144 1035.36 444.861
61 1 50.0727 10.9241 547 129.216 1034.05 462.824
62 0 52.0563 14.4651 753 122.608 1034.64 461.096
63 0 56.0703 14.0895 790 122.416 1035.68 461.082
64 0 57.1078 13.921 795 124.538 1034.77 457.084
65 0 60.1037 14.8077 890 123.312 1036.26 454.335
66 0 61.2255 12.5111 766 125.849 1035.95 455.282
67 0 64.4577 13.9781 901 120.523 1036.71 455.174
68 0 66.0728 13.5003 892 123.336 1037.24 452.589
69 0 71.1281 16.2664 1157 115.871 1036.86 453.236
70 0 72.1622 12.7491 920 124.748 1037.19 446.823
71 0 75.1158 13.3926 1006 124.978 1038.39 443.502
72 0 77.0983 14.2416 1098 123.077 1038.75 442.904
73 0 81.1951 14.5575 1182 120.041 1039.3 447.391
74 1 40.0365 7.41822 297 127.253 1039.5 461.906
75 0 43.0555 10.9626 472 125.85 1041.37 464.686
76 0 44.0327 11.3779 501 124.645 1040.87 463.866
77 0 47.0551 15.6837 738 115.198 1041.94 463.724
78 0 47.1144 11.8647 559 123.957 1042.38 463.939
79 0 49.0816 13.2025 648 119.335 1043.44 465.617
80 0 50.0822 13.2782 665 120.633 1044 464.699
81 0 48.0411 11.053 531 125.706 1044.56 465.124
82 0 51.0954 14.6001 746 117.59 1043.36 468.562
83 0 51.0623 11.1432 569 125.299 1043.67 464.675
84 0 52.0651 13.4831 702 121.838 1043.72 465.919
85 0 54.1395 11.6736 632 124.959 1043.88 466.233
86 0 59.1016 13.0961 774 121.778 1043.24 466.393
87 0 58.0995 14.2342 827 120.169 1043.23 467.712
88 0 60.1568 10.2399 616 126.472 1043.48 467.17
89 0 63.2177 11.579 732 124.799 1043.15 465.045
90 0 64.2024 10.4513 671 126.526 1042.35 465.878
91 0 69.5835 12.5461 873 123.069 1041.98 462.963
92 0 72.4753 13.8668 1005 120.533 1041.14 464.111
93 0 72.1082 12.4535 898 124.374 1040.53 464.537
94 1 37.244 11.1964 417 123.343 1038.88 479.465
95 0 39.5258 8.09599 320 127.75 1037.01 478.762
96 0 39.2402 10.0662 395 124.597 1037.49 479.329
97 0 42.212 10.6131 448 123.708 1036.93 477.223
98 0 42.1793 11.783 497 122.191 1035.51 477.382
99 0 42.0808 10.2897 433 125.811 1035.2 476.591
100 0 45.1376 10.6785 482 124.332 1034.26 475.095
101 0 46.1426 10.9227 504 126.607 1033.5 474.012
102 0 47.0608 11.772 554 122.552 1032.43 472.379
103 0 50.0857 12.5784 630 120.889 1033.36 471.867
104 0 48.0217 11.7863 566 125.175 1033.27 469.797
105 0 50.0804 11.9807 600 124.238 1033.48 467.442
106 0 53.0241 11.1082 589 124.669 1034.05 463.98
107 0 53.2045 12.95 689 121.778 1033.98 463.739
108 0 54.11 13.1953 714 121.022 1034.41 462.625
109 0 56.0757 13.9098 780 119.21 1034.1 458.741
110 0 57.1034 14.1498 808 119.504 1035.05 456.283
111 0 60.1085 15.0395 904 118.237 1035.24 454.546
112 0 63.295 12.5286 793 120.562 1036.52 455.212
113 0 65.3785 13.9036 909 118.12 1036.97 453.496
114 0 65.1246 13.6815 891 119.899 1037.83 451.315
115 0 67.234 15.2601 1026 116.773 1037.96 451.537
116 0 70.1212 13.3911 939 119.95 1037.94 447.937
117 0 72.121 13.5467 977 119.578 1039.2 449.048
118 0 73.1401 11.4438 837 122.452 1039.33 446.527
119 1 39.1225 10.94 428 107.077 1039.32 468.928
120 0 38.1407 10.3564 395 114.187 1040.63 463.362
121 0 42.2807 11.4 482 116.214 1042.49 467.994
122 0 46.0545 13.4623 620 112.06 1042.74 468.115
123 0 45.0543 13.7612 620 113.373 1042.3 466.671
124 0 48.0754 16.3909 788 109.278 1042.23 466.97
125 0 49.0457 14.2316 698 116.967 1042.12 466.072
126 0 49.1524 11.4542 563 121.817 1041.95 467.877
127 0 52.0671 13.2713 691 119.499 1041.45 466.004
128 0 54.0641 13.41 725 119.232 1042.56 468.043
129 0 53.0496 10.7635 571 125.902 1041.11 467.947
130 0 54.0176 11.1815 604 125.803 1041.13 468.56
131 0 58.3471 13.4197 783 120.713 1041.6 468.614
132 0 59.2202 12.6815 751 122.119 1042.3 468.395
133 0 64.1923 14.6435 940 117.438 1040.75 470.203
134 0 62.1394 13.9042 864 121.881 1039.48 465.685
135 0 67.2341 11.988 806 123.902 1040.11 467.304
136 0 68.1282 11.4637 781 125.311 1038.64 467.448
137 0 70.0828 15.1535 1062 120.001 1039.62 464.347
138 0 75.1644 14.0226 1054 120.994 1037.96 464.509
139 0 77.0743 11.9365 920 125.271 1037.6 462.762
140 0 79.2395 17.4282 1381 115.13 1036.39 458.182
141 1 44.063 12.9587 571 116.9 1035.73 476.972
142 0 45.0212 14.7486 664 111.151 1035.49 478.334
143 0 43.044 13.3817 576 114.755 1033.84 476.255
144 0 48.0707 14.5411 699 116.534 1032.64 473.348
145 0 47.1202 10.2716 484 124.89 1030.64 474.248
146 0 50.0528 14.6845 735 117.716 1030.76 469.895
147 0 50.117 12.5905 631 121.575 1031.71 471.88
148 0 52.0586 13.3119 693 122.075 1032.06 467.973
149 0 52.056 11.8142 615 125.976 1031.4 468.374
150 0 56.0497 13.0777 733 122.482 1032.02 466.94
151 0 55.0328 14.6822 808 121.541 1032.32 462.47
152 0 56.144 15.104 848 119.726 1032.62 459.96
153 0 58.0621 13.6406 792 120.948 1032.65 461.38
154 0 61.1075 15.8082 966 117.237 1032.77 459.179
155 0 63.1103 14.134 892 121.351 1033.73 456.816
156 0 63.1669 12.1108 765 125.486 1035.13 457.983
157 0 68.1282 15.1332 1031 119.453 1034.95 453.156
158 0 69.1096 15.9312 1101 117.544 1036.49 452.774
159 0 71.1502 15.0527 1071 118.533 1036.84 454.581
160 0 73.1174 14.5246 1062 120.396 1037.55 451.503
161 0 75.1052 14.3665 1079 120.988 1038.82 450.297
162 0 77.1957 17.3455 1339 115.289 1038.78 451.249
163 0 78.1452 13.5645 1060 122.29 1039.81 450.563
164 0 83.1398 14.0005 1164 120.489 1040.49 449.677
165 0 86.1232 13.5968 1171 120.779 1040.8 448.751
166 0 87.1912 14.7033 1282 120.274 1041.18 444.925
167 0 89.2365 12.2484 1093 123.737 1041.65 449.888
168 0 92.1752 11.1852 1031 126.276 1041.47 448.964
169 0 100.175 12.8176 1284 122.445 1042.18 448.514
170 0 98.3972 13.8317 1361 122.708 1041.48 445.799
171 0 105.476 18.9617 2000 112.296 1041.5 450.962
172 0 108.518 13.4725 1462 124.194 1041.76 445.019
173 0 108.196 11.3682 1230 128.238 1040.37 448.107
174 0 111.349 13.7765 1534 126.66 1041.37 446.664
175 0 114.427 13.6506 1562 127.733 1041.08 442.556
176 1 63.0599 13.1938 832 125.319 1040.55 469.837
177 0 68.1475 16.3029 1111 118.766 1040.78 467.663
178 0 69.1862 13.5142 935 122.463 1039.06 470.508
179 0 70.098 11.9262 836 126.475 1038.52 466.786
180 0 73.3113 16.0548 1177 118.925 1036.62 465.992
181 0 75.2536 15.1222 1138 120.924 1036.38 464.613
182 0 76.2443 14.4273 1100 124.17 1035.4 461.389
183 0 81.3149 14.0196 1140 121.684 1034.71 460.923
184 0 83.1828 14.2217 1183 121.339 1033.95 455.943
185 0 86.3193 13.9019 1200 121.16 1033.49 455.215
186 0 91.5218 14.4009 1318 119.939 1033.45 452.924
187 0 91.4024 12.7896 1169 122.92 1032 448.993
188 0 96.4887 15.4319 1489 117.747 1032.44 445.682
189 1 51.4899 10.9342 563 119.018 1032.01 466.599
190 0 55.7063 12.1351 676 116.669 1031.93 465.161
191 0 59.7669 15.1756 907 113.865 1031.87 463.292
192 0 58.5144 12.9028 755 120.8 1032.18 461.718
193 0 61.2031 13.8718 849 118.543 1031.34 465.916
194 0 63.151 15.9301 1006 114.917 1031.72 461.734
195 0 65.209 13.6331 889 120.956 1031.62 457.148
196 0 67.2227 14.266 959 116.949 1031.8 461.339
197 0 66.1843 14.4445 956 118.759 1031.87 455.072
198 0 68.3516 10.6508 728 123.902 1032.33 456.852
199 0 72.3259 13.37 967 120.659 1033.98 450.965
200 0 76.3541 13.4112 1024 118.385 1035.05 453.298
201 0 77.1778 15.5096 1197 116.042 1034.46 450.239
202 0 81.2239 15.2172 1236 115.981 1034.32 449.163
203 0 82.1324 12.9182 1061 120.76 1036.75 449.469
204 0 85.2076 12.3698 1054 122.32 1036.32 446.134
205 0 87.1665 13.0784 1140 121.474 1036.96 442.647
206 0 91.1855 14.2786 1302 118.975 1038.36 444.945
207 0 94.2538 14.514 1368 119.789 1038.73 441.27
208 1 48.3936 9.62938 466 119.783 1039.45 465.631
209 0 49.4626 11.1397 551 118.309 1040.26 461.984
210 0 51.4173 12.5444 645 115.115 1039.46 464.953
211 0 53.3711 13.0033 694 114.089 1041.33 463.539
212 0 56.1205 12.883 723 115.39 1040.74 466.979
213 0 58.1992 12.7837 744 116.769 1040.12 467.95
214 0 55.12 11.0305 608 120.472 1041.36 467.373
215 0 58.1329 13.2455 770 115.362 1041.27 471.768
216 0 61.1567 12.9503 792 117.255 1040.77 468.731
217 0 63.2914 13.5247 856 115.389 1040.39 471.264
218 0 64.2217 12.5191 804 118.016 1040.09 467.887
219 0 66.0732 13.0007 859 117.307 1039.24 468.246
220 0 66.2834 11.4961 762 119.82 1037.62 466.749
221 0 68.5737 11.535 791 119.668 1037.82 464.42
222 0 74.3944 14.2618 1061 115.07 1037.45 465.389
223 0 74.658 11.4522 855 119.71 1035.72 463.075
224 0 80.9352 14.5301 1176 113.469 1035.22 460.685
225 0 80.593 12.6314 1018 117.352 1033.63 457.776
226 0 80.5807 10.7222 864 121.312 1033.18 451.758
227 0 87.627 14.4704 1268 114.345 1032.06 453.841
228 0 91.6209 15.3568 1407 112.429 1031.93 450.648
229 0 95.2538 16.0624 1530 110.512 1031.53 455.149
230 0 95.3836 13.43 1281 113.461 1031.26 458.119
231 1 54.5455 11.5683 631 111.138 1030.33 470.735
232 0 54.4719 12.0796 658 110.033 1030.62 474.029
233 0 58.5148 12.3388 722 110.439 1030.46 472.158
234 0 59.2382 15.6993 930 109.258 1028.92 469.315
235 0 61.1376 14.4919 886 109.064 1030.31 472.736
236 0 59.1269 11.9404 706 117.586 1029.18 462.949
237 0 63.2471 15.0046 949 110.092 1029.73 465.114
238 0 65.0779 13.4915 878 114.342 1028.84 458.521
239 0 68.07 13.5889 925 114.048 1029.21 458.939
240 0 73.1457 13.2612 970 112.939 1030.51 459.18
241 0 72.3475 14.3474 1038 112.611 1030.14 455.828
242 0 74.4216 13.437 1000 116.277 1031.99 450.314
243 0 76.492 11.6221 889 119.904 1032.05 447.073
244 1 152.424 14.3219 2183 119.078 1032.54 413.946
245 1 84.4295 16.1318 1362 109.93 1033.63 445.822
246 0 83.4226 11.8913 992 118.725 1033.7 438.837
247 0 87.4769 13.3064 1164 115.79 1033.89 436.314
248 1 47.5061 13.5351 643 110.544 1033.51 459.045
249 0 49.4156 12.405 613 112.088 1034.31 459.135
250 0 51.3756 14.4037 740 108.268 1035.26 465.15
251 0 53.0497 15.1179 802 107.414 1037.5 464.049
252 0 50.0816 11.2816 565 116.975 1036.61 463.786
253 0 54.1136 12.9727 702 111.64 1038.55 466.067
254 0 54.2225 13.7397 745 115.568 1038.22 464.099
255 0 58.18 13.3551 777 110.331 1037.88 465.26
256 0 58.2017 12.2505 713 113.273 1038.35 465.994
257 0 61.1792 13.1744 806 111.388 1039.06 464.578
258 0 62.3028 14.4456 900 110.569 1038.74 465.546
259 0 62.1122 13.1214 815 112.726 1038.82 466.157
260 0 65.1109 12.2253 796 114.716 1037.54 466.813
261 0 67.4005 12.3145 830 114.186 1037.81 467.605
262 0 70.1646 16.105 1130 111.254 1037.1 462.486
263 0 71.3283 13.2907 948 115.912 1036.61 464.184
264 0 74.3384 13.6538 1015 115.818 1037.52 466.121
265 0 77.317 14.9385 1155 115.241 1037.32 465.925
266 0 77.1022 10.7909 832 123.571 1036.39 465.097
267 0 84.2543 11.3822 959 122.794 1035.28 461.697
268 0 83.2966 17.9719 1497 113.438 1034.53 458.863
269 0 85.129 15.3414 1306 118.442 1033.7 457.744
270 0 90.2395 13.5417 1222 121.417 1032.51 460.823
271 0 98.7529 21.812 2154 105.094 1032.69 462.636
272 0 96.1197 13.5976 1307 123.083 1031.61 452.037
273 0 98.2799 13.37 1314 122.12 1030.75 453.33
274 0 102.306 12.7266 1302 124.704 1030.79 448.744
275 1 53.2682 12.8031 682 116.174 1029.43 471.482
276 0 54.208 12.6181 684 119.806 1028.28 470.965
277 0 56.1609 12.9093 725 119.886 1027.81 469.059
278 0 55.2425 10.8431 599 120.965 1028.28 465.656
279 0 58.28 12.0625 703 118.492 1029.12 465.58
280 0 59.3011 13.5411 803 115.862 1029.32 463.209
281 0 64.3041 14.4003 926 116.681 1029.45 461.227
282 0 61.114 12.5012 764 121.179 1029.69 459.131
283 0 66.1478 13.4547 890 118.519 1029.76 456.57
284 0 68.4453 19.7968 1355 107.275 1030.63 457.866
285 0 71.1224 15.4663 1100 114.636 1030.38 451.38
286 0 72.3828 12.9036 934 118.153 1031.13 453.191
287 0 74.2397 13.6719 1015 117.739 1032.7 448.817
288 0 74.2397 13.5507 1006 144.501 1033.72 448.818
289 0 79.2213 14.6425 1160 114.627 1034.38 450.536
290 0 79.3493 12.1236 962 120.193 1035.01 446.53
291 0 82.1706 14.2265 1169 114.566 1035.38 448.78
292 0 86.116 15.4791 1333 114.136 1036.23 445.991
293 0 88.1964 14.9099 1315 115.745 1037.62 442.903
294 1 44.1436 11.5532 510 116.99 1039.27 460.169
295 0 48.4476 12.6735 614 113.844 1040.81 461.02
296 0 51.2324 12.1212 621 114.966 1039.98 462.644
297 0 52.2672 12.704 664 114.474 1041.6 461.691
298 0 51.1711 10.9046 558 120.305 1040.59 464.814
299 0 55.2982 13.2373 732 116.892 1040.36 465.306
300 0 56.3016 12.9126 727 117.839 1040.43 465.714
301 0 58.2462 12.6017 734 119.597 1040.38 465.309
302 0 61.2697 12.5184 767 118.004 1039.77 466.296
303 0 63.0919 13.6943 864 116.999 1039.57 462.786
304 0 66.2671 17.1126 1134 110.691 1040.01 465.705
305 0 66.1934 12.3275 816 119.339 1039.72 466.688
306 0 69.173 13.6759 946 115.671 1039.12 468.477
307 0 70.3606 12.2085 859 118.24 1038.42 467.979
308 0 72.2529 13.0514 943 117.729 1038.32 463.955
309 0 75.3907 11.6327 877 119.594 1036.9 466.23
310 0 79.1577 13.5805 1075 117.521 1036.62 464.351
311 1 41.0386 9.55198 392 117.372 1034.03 480.487
312 0 43.0305 12.2471 527 113.894 1034.11 478.689
313 0 47.1495 13.2133 623 110.385 1033.81 476.342
314 0 48.0595 12.8799 619 111.578 1033.58 477.922
315 0 50.0378 11.4114 571 118.651 1033.06 473.172
316 0 51.1766 13.7954 706 113.996 1032.39 472.428
317 0 53.0583 11.8549 629 117.569 1031.34 470.176
318 0 54.0754 11.0586 598 119.508 1030.44 470.204
319 0 56.1555 12.8393 721 117.727 1030.11 468.358
320 0 58.0659 14.0185 814 115.244 1029.24 466.412
321 0 60.0524 14.2043 853 114.824 1029.76 465.236
322 0 60.1359 11.1082 668 120.967 1030.46 464.428
323 0 63.0978 14.1685 894 117.578 1030.35 459.383
324 0 61.0894 12.9974 794 121.267 1030.29 457.72
325 0 62.1238 12.3624 768 122.876 1030.98 457.645
326 0 67.2989 15.0523 1013 117.041 1031.06 454.724
327 0 69.1621 16.1216 1115 115.2 1032.11 455.028
328 0 73.2739 15.0395 1102 116.98 1031.98 452.783
329 0 76.23 14.5087 1106 118.532 1031.73 450.378
330 0 78.3423 17.3087 1356 114.417 1032.98 448.813
331 0 80.184 13.3194 1068 120.731 1033.63 447.213
332 0 81.3852 13.3317 1085 122.376 1034.79 442.007
333 0 84.3451 14.251 1202 120.456 1035.6 444.461
334 1 45.1774 10.5805 478 118.49 1035.49 465.236
335 0 48.0284 13.7627 661 114.045 1036.49 464.8
336 0 48.0483 17.2326 828 108.973 1037.17 463.315
337 0 47.0879 12.7421 600 119.847 1037.52 460.173
338 0 50.0489 14.9454 748 114.876 1038.95 462.758
339 0 51.0702 11.0436 564 127.335 1039.59 461.252
340 0 54.3072 13.4236 729 122.959 1040.61 460.903
341 0 57.098 14.624 835 120.707 1040.41 460.883
342 0 57.0653 14.3169 817 121.125 1041.37 461.376
343 0 60.1815 13.2765 799 122.61 1041.66 460.556
344 0 62.0905 13.5931 844 120.957 1041.66 463.256
345 0 62.0742 13.2583 823 122.951 1042.87 463.484
346 0 63.1134 11.6774 737 126.753 1042.26 460.228
347 0 66.027 14.8575 981 121.561 1041.4 461.073
348 0 69.1308 14.4798 1001 122.058 1041.46 458.817
349 0 70.0827 12.8277 899 125.097 1041.48 459.133
350 0 74.1146 13.2767 984 124.433 1040.86 459.08
351 0 75.1838 14.418 1084 123.088 1041.11 459.457
352 0 80.4673 17.038 1371 116.646 1039.92 461.58
353 0 81.3343 13.4384 1093 124.276 1039.14 460.696
354 0 85.1258 15.5769 1326 119.391 1038.85 460.027
355 0 82.0985 11.0843 910 131.808 1037.05 455.462
356 0 90.1748 17.2332 1554 118.514 1037.27 456.394
357 0 90.1255 14.4576 1303 126.507 1036.85 449.721
358 0 91.2345 13.0323 1189 126.753 1036.73 456.279
359 0 95.2202 12.9909 1237 130.359 1035.1 448.783
360 0 101.241 13.9272 1410 128.218 1035.52 449.306
361 0 103.153 11.2357 1159 132.62 1033.73 450.086
362 1 56.0656 12.6816 711 125.326 1034.16 469.945
363 0 56.0773 11.9835 672 126.966 1033.61 466.924
364 0 58.0459 11.4392 664 128.218 1033.46 464.408
365 0 63.0399 15.165 956 120.93 1033.39 463.414
366 0 65.1723 14.2545 929 122.381 1033.62 461.424
367 0 65.1077 10.5671 688 129.783 1033.65 457.776
368 0 68.082 15.0113 1022 121.255 1032.8 454.873
369 0 69.1619 11.2634 779 129.453 1033.15 452.235
370 0 72.2364 13.6912 989 123.287 1034.36 452.088
371 0 74.2025 12.9645 962 125.848 1035.07 447.978
372 0 77.1621 13.1412 1014 125.606 1035.25 446.941
373 0 81.2482 15.2619 1240 122.439 1034.67 445.333
374 0 83.2221 13.8785 1155 126.785 1035.55 438.946
375 0 86.1564 13.6728 1178 126.911 1036.32 439.225
376 0 90.2233 14.5528 1313 123.976 1036.25 438.014
377 0 90.1629 13.52 1219 125.994 1037.93 436.536
378 0 92.2757 11.108 1025 130.277 1037.5 432.855
379 0 97.2253 12.4762 1213 127.009 1039.03 432.829
380 0 100.119 13.8834 1390 123.489 1039.05 430.45
381 1 51.0579 6.87455 351 126.746 1040.01 456.444
382 0 51.0658 8.92966 456 126.32 1041.09 452.268
383 0 55.1289 12.4436 686 118.898 1043.38 451.197
384 0 60.0853 11.7167 704 118.312 1042.11 455.871
385 0 61.1156 13.8426 846 117.02 1042.09 457.8
386 0 64.1024 14.9292 957 114.922 1043.26 457.301
387 0 64.1213 12.6011 808 119.717 1043.18 457.839
388 0 69.2246 12.6978 879 117.841 1043.11 456.948
389 0 70.1348 13.0606 916 116.447 1042.7 459.003
390 0 69.0466 10.1236 699 121.535 1042.23 460.209
391 0 75.1514 16.4468 1236 111.287 1041.46 457.071
392 0 77.2873 12.8223 991 116.408 1041.01 456.959
393 0 78.1301 14.7574 1153 113.59 1040.63 457.496
394 0 81.243 14.7582 1199 114.177 1040.46 454.997
395 0 83.1648 12.4331 1034 120.766 1039.65 454.59
396 0 88.1759 13.6545 1204 116.453 1040.46 456.953
397 0 89.1489 14.5487 1297 116.675 1039.62 453.241
398 0 93.2073 13.3359 1243 116.722 1037.5 456.993
399 0 96.145 13.6669 1314 118.208 1036.92 451.384
400 0 97.09 10.1761 988 123.207 1037.17 448.115
401 0 104.123 11.0255 1148 120.789 1036.4 452.131
