time division length width area intensity CMx CMy
0 0 44.018 13.6081 599 154.469 1191.62 476.476
1 0 46.0714 15.4977 714 149.276 1190.62 477.409
2 0 48.1818 17.3717 837 137.282 1190.75 479.082
3 0 48.0956 15.5732 749 144.949 1188.62 476.152
4 0 51.0568 14.5524 743 149.353 1188.29 477.07
5 0 51.036 14.8327 757 148.556 1187.77 473.864
6 0 54.1148 14.0442 760 150.392 1186.19 474.716
7 0 55.0498 15.0772 830 146.399 1186.08 474.436
8 0 57.0506 16.7045 953 142.846 1184.2 473.631
9 0 59.0702 16.5058 975 141.007 1183.3 472.205
10 0 58.0943 13.1682 765 150.761 1182.45 467.647
11 0 61.3531 15.533 953 142.22 1182.79 468.893
12 0 65.0825 17.2396 1122 138.391 1182.38 465.279
13 0 65.0794 17.2405 1122 148.307 1182.37 465.299
14 0 65.0898 17.2224 1121 147.932 1182.36 465.289
15 0 73.1266 17.709 1295 133.185 1182.22 459.456
16 1 36.0543 10.9834 396 142.884 1181.24 475.778
17 0 40.0635 15.8499 635 130.58 1182.24 473.37
18 0 41.064 12.9797 533 136.038 1182.53 474.544
19 0 41.0368 12.3791 508 137.772 1182.52 470.587
20 0 42.0556 13.0066 547 136.914 1182.52 471.949
21 0 42.0371 11.6326 489 141 1182.35 469.346
22 0 46.0771 15.5392 716 128.08 1183.01 467.493
23 0 45.0777 13.266 598 138.318 1183.72 467.51
24 0 46.0633 12.8519 592 137.409 1184.34 467.584
25 0 50.1237 14.5241 728 131.698 1185.77 465.571
26 0 51.0824 16.1112 823 128.337 1185.6 462.83
27 0 54.0883 13.9772 756 132.61 1186.43 462.865
28 0 54.0584 12.912 698 133.013 1187.48 462.043
29 0 56.0313 16.6871 935 126.84 1188.18 460.091
30 0 57.1099 15.4614 883 126.052 1190.22 461.019
31 0 61.08 15.7007 959 127.16 1189.06 457.541
32 0 64.0602 15.6415 1002 125.11 1189.08 457.768
33 0 64.1988 15.4676 993 120.943 1191.62 456.874
34 0 67.1503 15.1154 1015 125.093 1192.24 456.254
35 0 69.158 15.7176 1087 124.599 1193.22 459.883
36 0 72.062 18.7477 1351 117.03 1191.91 459.254
37 0 75.2338 13.9166 1047 125.118 1194.1 458.801
38 0 77.4699 13.8118 1070 121.715 1192.11 455.714
39 0 82.2669 13.991 1151 121.149 1192.73 454.56
40 0 85.2032 14.6121 1245 118.675 1192.26 456.964
41 1 47.0744 14.2115 669 116.825 1192.07 473.366
42 0 47.0744 14.1478 666 126.03 1192.05 473.315
43 0 50.0369 14.6092 731 111.933 1192.71 474.644
44 0 51.1167 13.5181 691 113.048 1191.71 477.245
45 0 55.0191 12.5229 689 129.714 1191.89 475.486
46 0 53.0534 10.9889 583 133.492 1190.71 474.727
47 0 58.0929 12.9964 755 131.616 1189.25 473.253
48 0 63.0966 14.9929 946 127.256 1189.01 474.031
49 0 65.1304 15.5995 1016 122.925 1187.73 471.675
50 0 68.1603 15.0528 1026 127.638 1187.58 469.989
51 0 70.1201 12.9492 908 133.718 1186.81 467.488
52 0 72.056 13.781 993 131.425 1186.11 468.138
53 0 74.0752 14.4313 1069 129.939 1184.98 469.286
54 0 78.068 14.4489 1128 131.169 1185.99 464.617
55 0 82.125 15.172 1246 130.645 1185.26 459.717
56 0 84.1284 16.0112 1347 127.356 1184.42 461.077
57 0 84.1284 16.0826 1353 141.21 1183.43 461.018
58 1 50.1426 14.2194 713 124.065 1184.66 477.48
59 0 50.0576 12.8652 644 128.974 1183.12 476.135
60 0 52.1309 14.8472 774 128.857 1184.37 473.86
61 0 53.2036 12.7999 681 131.988 1183.66 471.9
62 0 54.0944 14.2529 771 129.955 1183.61 470.851
63 0 58.0946 12.2215 710 132.837 1182.52 469.299
64 0 59.0606 13.1898 779 131.928 1183.39 467.761
65 0 62.1888 14.054 874 130.727 1182.76 463.244
66 0 63.0421 14.7362 929 128.479 1183.39 462.713
67 0 68.1685 13.9507 951 128.662 1183.58 460.864
68 0 70.0757 12.8575 901 130.867 1184.13 458.922
69 0 71.1899 14.3981 1025 128.069 1185.25 457.355
70 0 73.2013 13.1692 964 129.328 1186.43 458.191
71 0 76.1285 14.2785 1087 128.19 1186.54 454.451
72 0 78.0746 13.8329 1080 128.379 1186.97 454.386
73 0 82.2159 11.9442 982 130.135 1187.15 452.813
74 0 82.2159 11.9806 985 140.251 1187.15 452.724
75 1 44.0165 10.3825 457 123.731 1188.03 470.162
76 0 46.0158 14.169 652 117.209 1188.99 469.643
77 0 48.0713 11.5246 554 122.366 1188.46 469.845
78 0 46.0346 10.4921 483 128.826 1188.95 470.236
79 0 50.029 12.4928 625 125.44 1190.13 469.565
80 0 53.0543 12.6474 671 125.869 1191.65 470.13
81 0 55.1955 17.6282 973 119.051 1191.26 468.311
82 0 56.0937 13.6736 767 126.343 1190.37 471.759
83 0 57.0654 15.6137 891 123.075 1191.33 471.217
84 0 57.0954 13.0133 743 127.616 1189.82 472.904
85 0 57.0515 10.7447 613 133.878 1189.89 471.698
86 0 60.0345 11.1269 668 133.591 1189.29 469.748
87 0 64.0961 14.3847 922 125.617 1189.86 471.829
88 0 63.0796 15.853 1000 123.013 1189.27 469.843
89 0 65.0832 13.0141 847 128.098 1188.62 470.991
90 0 68.1776 12.9221 881 127.165 1187.68 471.466
91 0 71.056 12.9757 922 127.17 1186.66 468.527
92 0 75.2361 12.6535 952 126.231 1186.4 470.934
93 0 78.159 13.8692 1084 128.072 1186.42 467.979
94 0 79.2239 13.2283 1048 128.076 1184.56 466.59
95 0 84.2253 11.6711 983 129.988 1184.76 466.907
96 0 85.1548 14.8553 1265 123.817 1183.94 460.273
97 1 46.0625 11.5712 533 122.049 1184.41 485.606
98 0 43.0183 10.1817 438 127.667 1183.34 481.203
99 0 47.0356 11.2681 530 122.594 1182.43 482.117
100 0 48.07 12.1489 584 122.685 1182.46 478.18
101 0 51.0826 11.5499 590 122.264 1181.93 479.815
102 0 53.1341 11.9509 635 122.554 1181.25 475.364
103 0 56.1007 13.0301 731 119.808 1181.14 476.075
104 0 58.0616 9.90328 575 123.677 1180.02 474.487
105 0 56.1204 11.6713 655 121.121 1181.1 471.627
106 0 59.0808 14.2009 839 115.602 1181.39 472.284
107 0 58.1024 13.6827 795 117.392 1180.46 466.445
108 0 62.1281 13.4078 833 114.858 1181.01 470.421
109 0 66.1264 13.6859 905 113.861 1182.24 464.934
110 0 64.0818 11.9535 766 116.859 1182.63 464.64
111 0 69.196 15.8969 1100 110.511 1182.64 460.845
112 0 69.196 15.8969 1100 124.262 1181.6 460.784
113 0 74.1516 14.4299 1070 112.314 1183.86 458.638
114 0 75.2135 12.8434 966 115.915 1185.26 456.888
115 0 79.1959 11.4274 905 116.952 1184.22 456.671
116 0 83.2547 14.9901 1248 110.857 1185.26 455.268
117 1 44.0793 9.73247 429 117.697 1186 472.368
118 0 47.0527 9.585 451 116.84 1187.49 472.645
119 0 48.191 15.5423 749 110.211 1188.2 467.842
120 0 47.0751 11.1736 526 117.736 1188.89 469.367
121 0 48.0772 12.0223 578 114.268 1188.54 472.17
122 0 53.2012 15.5072 825 106.536 1188.65 473.548
123 0 53.0657 13.7188 728 112.478 1189.66 471.534
124 0 54.074 13.0007 703 114.444 1189.97 470.302
125 0 55.1275 11.809 651 116.899 1189.59 471.488
126 0 56.0926 12.515 702 116.152 1190.49 470.372
127 0 58.1808 12.7705 743 116.231 1190.45 470.727
128 0 62.0794 12.3874 769 116.973 1188.63 469.964
129 0 63.2151 14.0473 888 114.712 1190.71 472.991
130 0 65.3155 15.0653 984 113.283 1188.71 470.968
131 0 66.3191 16.5262 1096 110.281 1189.09 475.855
132 0 70.2206 16.6048 1166 111.276 1188.31 471.026
133 0 70.0595 15.0301 1053 114.863 1187.02 470.227
134 0 74.0967 14.724 1091 114.962 1187.63 469.898
135 0 76.2606 16.5747 1264 111.779 1186.57 472.947
136 0 79.1927 15.7212 1245 114.227 1186.42 467.79
137 0 82.2505 13.5197 1112 116.804 1184.48 469.968
138 0 81.0846 12.7645 1035 118.985 1184.98 466.04
139 0 86.3033 14.9589 1291 114.129 1183.39 461.34
140 1 44.0904 10.8414 478 114.964 1183.42 484.211
141 0 44.0799 15.4946 683 106.578 1181.16 484.553
142 0 47.0506 16.0466 755 106.004 1180.74 480.187
143 0 48.0432 12.1557 584 111.055 1180.74 483.084
144 0 48.0951 11.6644 561 113.48 1180.14 481.873
145 0 48.1038 11.7662 566 124.067 1179.15 481.868
146 0 50.1214 13.3875 671 114.179 1179.4 476.495
147 0 51.1978 12.4224 636 116.542 1178.91 476.354
148 0 53.063 11.7784 625 117.835 1179.49 474.797
149 0 55.1971 13.7688 760 115.663 1179.67 473.339
150 0 62.2686 14.2126 885 113.24 1179.62 472.027
151 0 60.2271 16.6536 1003 111.767 1180.19 465.799
152 0 62.0911 13.7862 856 116.645 1180.25 465.3
153 0 66.1299 13.4886 892 115.982 1181.89 466.27
154 0 67.1644 15.4993 1041 114.103 1181.5 462.197
155 0 69.2983 13.2038 915 117.156 1180.85 461.526
156 0 70.3872 12.7012 894 118.525 1181.9 460.941
157 0 70.3652 12.222 860 143.635 1182.93 460.308
158 0 75.1418 15.6238 1174 115.416 1183.25 457.065
159 0 78.1777 14.6845 1148 115.636 1183.7 458.889
160 0 81.2939 15.4993 1260 115.263 1185.23 455.393
161 0 84.1786 14.2435 1199 116.526 1183.72 456.829
162 1 43.1359 11.4058 492 117.38 1185.04 473.061
163 0 44.0739 13.1597 580 116.521 1185.07 469.909
164 0 46.2414 10.9858 508 116.195 1185.55 473.254
165 0 50.1185 11.393 571 116.492 1186.62 473.257
166 0 50.0729 14.7185 737 112.214 1187.8 470.064
167 0 53.2836 12.5367 668 116.561 1187.38 471.844
168 0 53.3546 14.6004 779 114.895 1187.31 469.368
169 0 55.0544 14.3131 788 114.305 1188.28 472.874
170 0 57.1078 13.028 744 115.845 1188.6 474.477
171 0 59.1469 14.3034 846 113.329 1188.72 475.895
172 0 59.0586 14.1046 833 115.157 1187.56 475.19
173 0 63.1039 10.966 692 119.361 1187.17 474.134
174 0 64.0477 13.4275 860 116.57 1187.15 472.26
175 0 67.1721 12.0884 812 118.894 1186.61 472.998
176 0 70.0701 13.0441 914 117.497 1185.16 473.249
177 0 72.1064 15.907 1147 113.225 1185.05 476.269
178 0 71.0973 11.9273 848 135.735 1185.11 472.395
179 0 75.1532 14.8097 1113 115.931 1184.19 473.732
180 0 78.1443 12.8992 1008 119.929 1183.84 470.493
181 0 83.1856 16.6255 1383 113.388 1183.18 470.777
182 0 84.2857 14.1068 1189 119.103 1182.84 467.785
183 0 84.1454 17.3747 1462 115.137 1181.64 466.439
184 0 90.178 14.2939 1289 115.846 1181.57 472.295
185 0 91.1256 16.4059 1495 115.55 1180.07 461.08
186 1 136.255 13.1445 1791 121.759 1179.46 440.787
187 1 99.1547 20.1402 1997 106.866 1179.99 463.474
188 0 101.08 12.7622 1290 121.064 1178.58 455.64
189 0 107.228 12.7392 1366 119.939 1178.9 457.346
190 0 109.392 13.5385 1481 119.682 1177.79 450.63
191 0 112.17 14.6652 1645 120.377 1178.21 443.492
192 1 56.1123 12.3146 691 121.349 1178.75 474.89
193 0 58.1352 12.5913 732 120.682 1177.9 474.339
194 0 58.1553 13.378 778 121.33 1177.98 469.523
195 0 60.112 12.7429 766 123.154 1178.27 468.433
196 0 65.0838 12.4762 812 121.097 1179.18 469.054
197 0 64.0748 12.6103 808 121.479 1179.73 467.761
198 0 67.1485 15.3093 1028 117.425 1180.81 465.693
199 0 70.1446 15.1544 1063 117.333 1180.78 461.507
200 0 71.1412 13.3818 952 119.437 1181.18 463.633
201 0 77.284 13.0946 1012 119.785 1180.53 461.516
202 0 76.3208 13.155 1004 121.123 1181.54 460.662
203 0 79.1826 14.9654 1185 118.203 1182.14 456.629
204 0 83.2036 13.7134 1141 120.675 1183.45 457.599
205 0 79.2318 11.3591 900 126.964 1183.9 455.522
206 0 86.1047 14.8076 1275 118.81 1184.8 458.577
207 0 89.3506 12.2663 1096 123.421 1185.56 455.499
208 1 50.1916 12.6914 637 115.774 1185.5 476.991
209 0 49.0863 15.9515 783 112.393 1187.41 477.424
210 0 50.3069 13.0996 659 118.86 1187.52 475.036
211 0 54.1141 16.188 876 116.406 1186.77 476.134
212 0 52.1082 15.18 791 121.665 1186.38 475.681
213 0 55.0485 15.0231 827 120.871 1187.52 477.069
214 0 57.1625 13.7328 785 124.024 1188.24 478.107
215 0 57.0536 12.3393 704 127.615 1187.48 477.68
216 0 60.0629 15.4838 930 121.815 1186.95 474.254
217 0 61.0489 13.7922 842 124.564 1187.14 476.637
218 0 63.15 17.1497 1083 118.096 1187.1 473.592
219 0 65.1808 11.1383 726 129.923 1186.89 476.504
220 0 69.0288 16.37 1130 118.919 1186.15 475.407
221 0 68.1657 13.3645 911 124.919 1184.91 477.991
222 0 71.089 13.251 942 126.623 1185.34 474.975
223 0 73.2191 12.0734 884 129.286 1184.2 475.156
224 0 77.1882 14.3545 1108 125.106 1182.02 466.943
225 0 80.0794 18.4192 1475 117.686 1181.91 465.941
226 0 82.1763 12.4367 1022 128.407 1179.45 467.307
227 0 83.1754 13.2251 1100 132.726 1177.53 468.234
228 1 46.1165 13.0756 603 116.541 1178.59 486.731
229 0 45.0149 11.685 526 123.158 1177.79 485.749
230 0 45.0149 11.685 526 135.19 1176.79 485.644
231 0 47.1277 10.6943 504 123.288 1176.54 484.387
232 0 51.0356 13.3436 681 118.871 1177.34 481.821
233 0 52.0638 13.4258 699 119.695 1175.99 480.627
234 0 55.1823 12.9027 712 120.24 1176.81 480.183
235 0 56.0721 15.0699 845 120.417 1176.33 475.276
236 0 56.0555 13.9148 780 121.013 1176.33 472.433
237 0 58.0864 13.8759 806 120.263 1176.58 474.542
238 0 58.0864 13.7898 801 130.19 1178.58 474.625
239 0 63.0548 13.4803 850 123.471 1177.54 469.873
240 0 68.2058 13.1514 897 123.342 1176.68 467.3
241 0 69.1997 14.3064 990 122.166 1178.1 466.056
242 0 70.2142 16.236 1140 119.813 1178.5 461.646
243 0 72.3147 15.9857 1156 118.547 1178.2 459.291
244 0 74.2113 12.8282 952 124.025 1179.33 459.252
245 0 76.2159 13.8685 1057 141.272 1181.34 460.775
246 0 81.172 16.656 1352 115.103 1179.71 457.018
247 0 79.2514 14.1322 1120 121.551 1179.37 452.941
248 0 86.2371 16.0604 1385 116.368 1180.4 454.659
249 0 89.2385 11.9231 1064 123.74 1181.39 452.005
250 1 51.0534 16.1008 822 114.557 1181.92 472.623
251 0 51.0928 14.0333 717 120.25 1183.82 474.364
252 0 52.0442 13.4885 702 124.161 1185.05 474.17
253 0 53.0736 16.2604 863 120 1184.89 474.512
254 0 54.1062 15.6359 846 122.209 1185.85 473.466
255 0 57.0729 15.7343 898 121.579 1184.81 475.082
256 0 57.0321 14.8337 846 123.999 1185.19 475.074
257 0 60.1292 14.7349 886 124.167 1185.41 474.63
258 0 60.0947 13.3123 800 129.89 1185.56 472.018
259 0 60.0947 13.2957 799 152.041 1185.58 471.971
260 0 60.0947 13.2458 796 151.75 1185.59 471.95
261 0 68.0589 15.6776 1067 125.102 1184.19 473.729
262 0 72.0494 15.5171 1118 122.761 1184.82 476.589
263 0 74.0682 14.0951 1044 129.964 1184.61 472.295
264 0 75.0618 15.0276 1128 127.737 1183.17 474.098
265 0 78.1653 13.3563 1044 130.834 1183.66 472.24
266 0 81.1246 17.1218 1389 122.74 1183.29 471.978
267 1 41.0279 13.698 562 125.391 1183.2 487.251
268 0 44.0818 12.5449 553 125.523 1181.95 490.689
269 0 45.0251 12.3265 555 127.333 1181.37 488.726
270 0 45.042 12.8547 579 125.862 1180.35 485.99
271 0 44.0872 12.6567 558 122.509 1178.87 487.21
272 0 46.082 12.5863 580 121.947 1178.74 488.026
273 0 49.0326 14.1538 694 119.842 1178.5 487.614
274 0 49.0523 12.7415 625 124.947 1177.69 483.021
275 0 52.0957 11.9972 625 125.539 1177.5 484.922
276 0 52.0716 11.4842 598 128.174 1176.71 479.523
277 0 56.0345 13.5631 760 124.474 1176.76 477.911
278 0 55.0457 12.4624 686 125.583 1176.75 477.509
279 0 58.0309 14.9403 867 121.792 1176.17 473.881
280 0 61.05 14.2342 869 121.787 1176.17 473.254
281 0 61.0744 13.2134 807 123.606 1176.4 469.348
282 0 66.0467 14.5957 964 119.714 1178.03 468.303
283 0 66.3279 11.1567 740 124.443 1177.58 471.043
284 0 68.1834 12.481 851 123.255 1179.04 465.684
285 0 69.0688 11.7998 815 124.955 1178.95 462.893
286 0 73.0429 12.5543 917 121.942 1179.83 463.299
287 0 76.1303 11.4672 873 124.869 1179.11 456.8
288 0 81.2786 13.0539 1061 120.462 1180.28 459.579
289 0 81.1306 11.0069 893 125.018 1181.84 458.371
290 1 46.1364 12.9399 597 119.685 1182.89 473.231
291 0 44.0874 11.7948 520 123.138 1183.21 473.331
292 0 46.0504 11.8566 546 123.469 1185.39 474.117
293 0 47.0483 14.1132 664 119.035 1185.16 471.551
294 0 48.0244 11.3692 546 122.038 1186.1 473.647
295 0 50.1012 15.309 767 116.312 1185.04 470.941
296 0 52.0876 17.3362 903 114.096 1187.17 470.006
297 0 54.1027 13.9734 756 117.361 1187.47 472.972
298 0 54.0802 13.8683 750 120.148 1186.69 471.167
299 0 56.0401 14.0971 790 118.863 1186.83 472.98
300 0 59.0823 14.2682 843 119.311 1187.21 471.874
301 0 58.0931 11.7742 684 124.918 1186.81 471.494
302 0 61.0904 12.3587 755 123.335 1187.17 472.205
303 0 63.0481 15.3534 968 115.781 1187.56 472.26
304 0 66.1326 17.48 1156 111.34 1187.15 473.283
305 0 66.0696 14.3939 951 117.81 1186.86 474.409
306 0 68.1221 13.9749 952 118.981 1186.69 473.612
307 0 71.0936 12.8844 916 120.757 1185.35 471.599
308 0 71.0746 13.0004 924 124.709 1183.35 471.586
309 0 76.2739 15.287 1166 116.269 1184.84 469.798
310 0 80.2517 16.1492 1296 115.059 1184.83 470.671
311 0 81.2986 13.5181 1099 120.451 1184.11 466.706
312 0 83.2637 15.2287 1268 118.931 1182.37 463.107
313 0 84.1648 13.8538 1166 120.593 1181.98 467.9
314 0 88.2294 13.3856 1181 122.66 1182.58 460.647
315 0 88.2294 13.2949 1173 131.719 1183.55 460.589
316 0 94.2532 14.0154 1321 122.482 1180.85 456.448
317 0 99.384 14.5999 1451 120.395 1180.16 454.652
318 0 101.192 13.9438 1411 121.522 1179.48 453.369
319 1 52.0949 12.4772 650 122.662 1179.94 475.078
320 0 53.067 11.1557 592 122.816 1178.26 476.51
321 0 55.1999 12.6087 696 121.154 1179.73 469.833
322 0 59.4136 12.2194 726 122.135 1178.71 469.664
323 0 59.4308 15.3288 911 117.207 1179.32 466.132
324 0 63.1757 16.3512 1033 114.933 1178.08 465.826
325 0 65.1637 13.8114 900 119.257 1178.01 464.582
326 0 67.1926 12.9925 873 121.75 1178.12 460.203
327 0 72.3272 15.4022 1114 116.426 1179.56 461.363
328 0 74.1289 15.3921 1141 114.812 1178.93 463.394
329 0 73.1091 15.5521 1137 119.36 1180.16 459.734
330 0 74.0796 14.3089 1060 122.342 1179.45 455.984
331 0 79.1932 15.5695 1233 118.834 1181.5 456.712
332 0 79.1932 15.5948 1235 149.974 1183.49 456.779
333 0 83.0567 13.846 1150 125.021 1181.2 449.617
334 0 86.161 16.6433 1434 120.709 1182.72 448.187
335 0 87.131 13.0264 1135 127.764 1183.49 450.27
336 0 92.1129 17.0877 1574 120.16 1185.32 447.468
337 0 94.2629 13.9503 1315 126.535 1185.51 443.942
338 0 98.2293 14.3033 1405 123.33 1186.43 450.464
339 0 101.104 12.5119 1265 128.081 1188.34 447.232
340 0 108.116 15.6961 1697 122.113 1188.59 445.321
341 1 59.1523 11.3605 672 126.25 1188.91 467.068
342 0 61.1474 13.9663 854 123.259 1187.68 466.397
343 0 61.0572 12.2017 745 127.027 1187.68 465.467
344 0 65.064 15.6922 1021 117.5 1190 472.361
345 0 66.0701 17.1636 1134 112.625 1189.61 470.746
346 0 70.2237 17.6009 1236 111.443 1189.47 471.085
347 0 70.1676 11.9428 838 124.455 1188.97 465.58
348 0 76.1289 14.7382 1122 118.471 1188.55 465.52
349 0 77.219 12.0048 927 123.038 1187.77 467.604
350 0 81.2062 13.1024 1064 120.744 1186.65 466.249
351 0 84.1258 13.991 1177 118.568 1184.95 466.763
352 0 85.1443 13.7414 1170 119.871 1186.36 465.968
353 0 88.0987 15.267 1345 118.383 1185.17 461.825
354 0 90.2516 13.5178 1220 121.302 1185.25 459.672
355 0 94.1352 12.5033 1177 123.111 1184.71 458.255
356 0 94.115 14.0254 1320 120.498 1183.84 457.381
357 0 97.187 11.1743 1086 124.931 1183.08 451.866
358 0 103.12 12.4515 1284 120.305 1183.43 455.784
359 0 102.273 12.3591 1264 123.574 1181.9 443.51
360 0 111.174 12.7368 1416 120.989 1180.98 447.16
361 0 111.256 13.2218 1471 119.145 1181.6 451.036
362 1 58.0446 11.9736 695 112.013 1181.75 473.325
363 0 58.0446 11.9391 693 116.848 1182.72 473.196
364 0 66.0424 11.9771 791 113.509 1179.95 463.08
365 0 65.1682 14.7158 959 110.445 1180.16 462.93
366 0 72.1452 13.6946 988 116.239 1181.05 467.223
367 0 73.1482 14.9559 1094 116.091 1180.81 462.484
368 0 75.169 13.2634 997 119.826 1180.42 458.573
369 0 78.1819 16.1674 1264 114.82 1180.99 454.935
370 0 78.1819 16.0907 1258 128.622 1180.97 454.983
371 0 82.1993 15.5719 1280 115.268 1181.75 455.57
372 0 84.0751 13.2857 1117 119.645 1180.86 451.45
373 0 87.1185 12.9594 1129 120.619 1181.95 448.54
374 0 91.3102 11.6854 1067 123.079 1183.24 447.477
375 1 46.067 10.3328 476 119.689 1183.84 470.439
376 0 51.0141 12.0555 615 116.891 1183.72 469.089
377 0 51.0877 15.6985 802 111.864 1183.19 463.257
378 0 52.098 13.9353 726 116.882 1185.33 465.464
379 0 52.0537 9.6823 504 124.921 1186.04 465.089
380 0 53.2727 11.7133 624 120.72 1186.57 463.918
381 0 57.0897 15.1341 864 113.586 1186.94 464.272
382 0 58.1421 12.3835 720 118.203 1188.46 465.335
383 0 58.1421 12.4351 723 131.574 1189.45 465.447
384 0 61.0672 12.9202 789 116.48 1187.7 464.185
385 0 67.2914 15.6186 1051 110.807 1188.52 465.228
386 0 67.1186 12.2023 819 118.995 1188.54 462.364
387 0 70.0966 16.1919 1135 111.276 1189.57 466.596
388 0 71.132 14.4661 1029 116.154 1189.69 464.914
389 0 73.1504 12.1394 888 120.278 1190.17 463.218
390 0 78.071 15.7037 1226 113.05 1190.11 467.192
391 1 153.394 13.4295 2060 124.038 1189.62 425.047
392 1 82.1701 11.8778 976 121.645 1189.31 462.754
393 0 85.2096 13.5783 1157 119.85 1188.67 461
394 0 87.1398 12.3021 1072 123.272 1187.01 459.35
395 0 87.1398 12.325 1074 138.557 1184.99 459.18
396 1 45.0478 10.056 453 123.545 1188.47 482.227
397 0 48.1 13.7422 661 117.386 1187.08 481.826
398 0 49.2209 13.348 657 113.557 1184.69 481.014
399 0 51.0669 12.9438 661 118.225 1185.77 481.7
400 0 52.0872 16.0116 834 113.507 1184.29 480.711
401 0 55.1147 13.2632 731 117.632 1184.1 480.319
402 0 57.0279 11.5908 661 118.413 1183.3 480.828
