time division length width area intensity CMx CMy
0 0 68.39 16.3328 1117 136.866 961.637 433.436
1 0 71.1501 16.3879 1166 130.253 963.073 436.722
2 0 70.1552 15.0951 1059 131.449 963.565 432.598
3 0 78.2193 20.1229 1574 124.329 964.385 433.815
4 0 76.1821 14.7279 1122 131.07 964.275 434.75
5 0 80.3556 23.2342 1867 121.152 964.903 431.3
6 0 83.3566 16.7593 1397 128.7 964.53 429.394
7 0 88.3588 21.3108 1883 121.298 963.987 431.776
8 1 47.0897 14.3768 677 121.947 963.188 449.914
9 0 50.2544 9.90958 498 126.719 961.404 448.357
10 0 50.3152 13.2167 665 125.43 960.929 445.58
11 0 55.3411 18.2866 1012 116.422 960.718 451.826
12 0 56.2343 17.2848 972 116.798 958.562 456.102
13 0 58.5333 16.2301 950 123.348 958.502 450.783
14 0 58.1965 16.6848 971 125.533 957.607 447.084
15 0 60.2493 13.162 793 133.406 956.083 447.506
16 0 63.1757 13.2646 838 136.247 954.286 444.328
17 0 63.3252 12.4595 789 142.404 952.626 445.925
18 0 65.195 15.4153 1005 139.888 951.531 444.593
19 0 70.2998 19.3599 1361 133.323 950.86 441.75
20 0 68.1144 14.1086 961 148.585 949.563 437.795
21 0 72.2993 17.2201 1245 142.86 949.402 433.226
22 0 73.0955 16.6768 1219 146.758 949.301 431.797
23 0 75.1694 14.6868 1104 151.772 948.447 428.902
24 0 78.2036 14.1937 1110 150.617 948.154 433.375
25 0 81.1502 15.0955 1225 149.646 948.553 429.207
26 0 82.1835 14.9909 1232 149.261 948.182 427.752
27 0 85.115 14.0986 1200 151.972 948.771 424.455
28 0 88.1799 17.2715 1523 142.959 949.617 424.921
29 0 89.3046 14.9265 1333 144.581 951.401 423.371
30 0 92.3543 16.0577 1483 140.413 951.71 422.951
31 0 98.3739 15.4716 1522 135.412 953.459 421.524
32 0 100.487 16.9574 1704 129.101 955.751 415.552
33 0 105.699 19.9813 2112 120.596 957.315 424.881
34 1 60.4416 11.2009 677 122.377 958.696 444.126
35 0 63.2745 11.9005 753 121.163 960.473 441.251
36 0 63.169 12.047 761 119.264 961.509 444.47
37 0 64.0994 19.735 1265 110.237 961.406 446.272
38 0 67.1027 13.5464 909 119.534 962.462 442.964
39 0 69.1852 17.1568 1187 116.943 962.619 443.539
40 0 72.1834 13.1886 952 121.915 962.005 440.644
41 0 73.2306 18.5715 1360 118.64 962.353 437.829
42 0 75.2494 12.6646 953 124.688 961.811 440.934
43 0 79.1211 14.067 1113 126.892 960.393 437.437
44 0 80.3384 13.7917 1108 131.528 960.116 434.62
45 0 85.5576 16.8308 1440 121.94 959.222 440.522
46 0 84.182 14.5043 1221 129.708 957.834 436.721
47 1 47.0413 12.0107 565 128.273 957.046 454.935
48 0 46.1646 10.4409 482 131.494 955.71 455.712
49 0 47.1142 10.1456 478 131.617 954.013 455.659
50 0 48.0761 12.8754 619 131.666 952.079 454.685
51 0 50.0347 14.9896 750 127.445 951.452 450.239
52 0 53.2127 13.9628 743 133.401 949.957 451.355
53 0 52.2485 11.5601 604 142.29 948.75 451.821
54 0 54.099 14.0668 761 135.583 948.326 451.936
55 0 58.2915 14.8564 866 135.339 947.439 448.836
56 0 57.389 10.6815 613 144.272 947.101 445.729
57 0 61.3201 14.1715 869 138.329 946.727 443.796
58 0 61.1105 14.711 899 139.75 946.343 440.155
59 0 64.1345 13.269 851 141.569 946.502 440.598
60 0 65.4398 15.9841 1046 137.729 946.309 436.157
61 0 69.5422 12.9993 904 140.4 946.857 436.729
62 0 72.2563 19.2786 1393 129.326 947.375 433.909
63 0 74.3548 18.8421 1401 126.162 948.413 438.46
64 0 75.502 13.5493 1023 135.212 950.96 435.8
65 0 79.3831 17.2833 1372 127.779 952.046 431.031
66 0 85.4896 12.3524 1056 128.773 955.231 432.684
67 0 91.3307 16.61 1517 121.282 957.442 430.898
68 0 88.3998 16.4254 1452 120.726 959.166 432.601
69 1 43.2534 12.3227 533 117.936 957.856 453.328
70 0 56.99 18.0382 1028 105.637 958.166 456.627
71 0 59.237 11.5806 686 114.845 959.5 452.517
72 0 53.2487 12.1505 647 116.603 960.464 452.297
73 0 51.2973 11.2677 578 118.545 962.061 453.83
74 0 51.2973 11.2871 579 135.627 962.093 453.689
75 0 63.7875 14.078 898 116.002 961.59 456.01
76 0 58.063 10.8331 629 123.647 960.816 453.903
77 0 61.081 15.3894 940 121.03 960.926 448.477
78 0 64.0969 17.0211 1091 119.383 960.424 453.586
79 0 64.1376 18.6474 1196 121.584 959.562 447.936
80 0 69.0855 14.8512 1026 123.859 958.632 449.066
81 0 69.2039 15.4182 1067 126.485 957.186 449.397
82 0 69.1336 14.6094 1010 128.788 955.791 451.123
83 0 72.3347 17.5296 1268 126.897 953.991 447.24
84 0 73.1987 17.9785 1316 129.56 952.296 444.71
85 0 75.135 14.6669 1102 134.423 950.751 448.515
86 0 76.2104 13.279 1012 142.794 949.634 443.796
87 1 46.0621 10.92 503 138.879 948.425 459.928
88 0 41.1088 11.579 476 137.567 947.41 459.838
89 0 43.2516 10.6817 462 141.749 946.892 457.673
90 0 44.1551 9.7384 430 143.781 945.684 455.242
91 0 48.1089 13.4279 646 141.378 946.184 455.851
92 0 48.1873 12.3684 596 145.869 946.129 451.604
93 0 49.0617 9.96704 489 147.284 946.035 454.084
94 0 50.0589 12.8848 645 143.84 945.75 450.893
95 0 51.194 11.6615 597 149.231 943.977 445.214
96 0 53.1151 15.7394 836 133.906 945.187 447.606
97 0 53.088 15.8981 844 137.948 946.203 447.648
98 0 56.1281 12.9347 726 135.536 948.471 449.091
99 0 61.3145 14.0587 862 130.303 949.745 447.461
100 0 61.284 14.3267 878 127.811 951.655 448.88
101 0 58.0954 12.8926 749 129.981 954.188 444.494
102 0 66.1953 12.735 843 124.388 954.378 448.087
103 0 65.1288 23.1695 1509 113.634 956.559 444.976
104 0 68.0632 17.5866 1197 121.774 957.338 441.008
105 0 68.1374 12.1666 829 123.999 957.902 448.55
106 0 76.1769 15.1752 1156 123.369 958.105 446.666
107 0 77.2568 11.753 908 126.393 958.14 448.666
108 0 79.2279 27.0359 2142 112.221 959.007 446.618
109 0 80.4172 12.7212 1023 129.456 958.867 444.766
110 1 46.2335 11.6366 538 130.823 957.487 461.381
111 0 48.3072 16.1674 781 123.819 958.2 462.991
112 0 46.049 11.3575 523 136.937 956.73 459.782
113 0 50.3088 13.8743 698 138.318 955.729 458.915
114 0 52.1475 13.5961 709 141.227 954.704 458.274
115 0 50.105 11.6156 582 147.799 952.857 457.686
116 0 54.0633 13.9096 752 139.914 951.049 456.633
117 0 58.0854 15.3911 894 138.464 949.603 458.065
118 0 57.1201 14.0231 801 137.049 947.497 453.844
119 0 56.1619 15.9539 896 132.648 947.544 456.603
120 0 56.1538 15.974 897 141.576 945.535 456.653
121 0 60.3627 13.336 805 132.759 944.237 454.38
122 0 60.3627 13.2201 798 137.246 944.189 454.456
123 0 59.3945 12.0382 715 138.323 944.235 456.138
124 0 66.0858 13.6338 901 132.263 941.565 446.686
125 0 71.2022 16.9798 1209 130.649 942.049 442.641
126 0 73.1593 13.3818 979 136.532 941.647 443.645
127 0 73.1571 15.3232 1121 133.782 941.483 440.508
128 0 78.2852 15.8906 1244 130.867 941.811 442.721
129 0 79.3022 12.2947 975 135.079 941.768 440.002
130 1 41.2248 10.1395 418 129.89 942.923 456.981
131 0 45.7327 12.092 553 125.222 944.756 456.306
132 0 45.6809 12.0182 549 140.891 946.732 456.266
133 0 46.0869 12.8019 590 126.2 947.475 453.142
134 0 47.1014 19.596 923 118.028 950.349 452.573
135 0 49.1935 14.3718 707 117.16 952.086 450.03
136 0 51.0921 15.1295 773 112.125 953.84 457.502
137 0 56.112 15.7364 883 113.116 956.92 454.536
138 0 53.2819 16.8162 896 114.336 955.286 457.425
139 0 54.2862 14.0367 762 116.535 957.427 455.6
140 0 58.4543 13.4977 789 115.948 957.428 456.952
141 0 57.5606 24.826 1429 108.508 956.676 454.436
142 0 57.2413 22.8506 1308 110.431 956.631 453.112
143 0 64.5255 18.4423 1190 112.665 956.516 457.408
144 0 61.1389 14.7042 899 122.889 955.692 452.899
145 0 62.1321 22.4361 1394 114.339 954.878 457.954
146 0 68.5551 18.7149 1283 117.078 953.111 459.486
147 0 65.3517 19.5557 1278 121.425 952.811 451.761
148 0 66.2025 13.1868 873 138.455 951.495 452.82
149 0 68.0965 13.9949 953 134.588 949.211 451.706
150 0 68.0944 13.8631 944 142.865 946.203 451.672
151 0 74.1089 16.9885 1259 127.287 947.522 452.335
152 0 77.251 13.6697 1056 132.577 945.065 447.284
153 0 81.3127 21.116 1717 119.938 943.969 451.479
154 1 41.0804 13.8265 568 128.343 943.171 462.592
155 0 48.6724 12.656 616 124.727 942.844 464.179
156 0 44.1239 15.3658 678 132.429 941.765 460.186
157 0 46.1696 14.75 681 136.482 941.799 460.159
158 0 48.1574 14.3488 691 129.423 940.016 455.897
159 0 48.2457 15.2345 735 131.392 939.718 455.944
160 0 51.1597 12.1775 623 132.266 940.658 454.578
161 0 53.2471 16.3577 871 125.75 940.561 450.777
162 0 50.1395 12.2857 616 132.878 941.744 450.453
163 0 57.5261 19.0696 1097 118.373 941.811 449.211
164 0 62.2639 13.1537 819 121.814 943.228 449.377
165 0 64.5846 13.9662 902 117.892 944.882 450.713
166 0 65.5839 13.6771 897 127.737 945.933 450.887
167 0 68.6847 26.032 1788 105.493 946.582 448.2
168 0 73.0842 19.416 1419 111.352 949.523 445.573
169 0 72.3624 18.1863 1316 110.36 951.228 448.976
170 0 72.3624 18.0895 1309 130.146 953.248 448.726
171 0 73.2383 17.723 1298 113.743 953.298 450.236
172 0 74.1543 12.7302 944 120.343 953.461 446.104
173 0 78.4118 16.7322 1312 118.479 954.258 444.271
174 0 80.3194 13.409 1077 121.493 955.24 448.668
175 0 81.1531 21.1822 1719 118.054 954.855 440.286
176 0 82.5782 13.7082 1132 129.867 953.992 439.288
177 0 82.1795 12.5457 1031 135.194 953.235 441.03
178 1 44.3762 12.2363 543 127.221 953.096 463.42
179 0 48.0751 12.4181 597 130.104 952.4 462.203
180 0 50.1592 12.7394 639 127.69 951.617 465.548
181 0 49.1431 10.154 499 140.006 950.373 460.084
182 0 51.1053 10.6838 546 139.123 948.905 457.612
183 0 53.1326 17.2211 915 125.783 947.092 457.246
184 0 56.0381 12.0811 677 131.903 944.6 458.344
185 0 60.1196 15.386 925 127.212 943.27 454.069
186 0 60.2092 13.1541 792 131.405 942.066 456.266
187 0 63.1133 18.0152 1137 121.839 940.721 455.29
188 0 64.2157 13.3145 855 133.936 940.006 449.787
189 0 67.1825 13.828 929 131.221 939.991 447.964
190 0 69.3341 19.1104 1325 123.528 939.607 444.652
191 0 70.1859 14.775 1037 129.367 939.654 446.549
192 0 73.2358 16.2898 1193 127.363 938.351 444.624
193 0 75.3029 16.0153 1206 130.104 938.334 444.692
194 0 79.7029 18.2302 1453 127.884 938.518 439.513
195 0 79.4718 14.1056 1121 136.194 937.538 432.278
196 0 81.5324 13.2463 1080 137.666 938.406 434.75
197 0 85.3097 15.2269 1299 131.503 939.383 435.901
198 0 88.2419 15.3215 1352 130.303 941.663 437.695
199 0 92.4355 16.3141 1508 128.042 942.867 433.303
200 0 92.2824 16.4278 1516 126.922 944.165 433.577
201 1 51.1568 12.1587 622 124.913 946.235 450.952
202 0 51.0688 16.9183 864 114.818 947.845 456.897
203 0 52.1339 11.2211 585 125.839 949.503 452.128
204 0 56.192 14.8598 835 119.323 950.81 453.469
205 0 56.2675 9.65034 543 125.718 952.215 454.201
206 0 65.5105 17.9819 1178 114.739 953.628 453.813
207 0 59.059 10.8536 641 130.098 954.632 452.674
208 0 63.3618 14.1568 897 121.409 954.177 452.437
209 0 65.388 16.3944 1072 121.343 953.432 450.66
210 0 66.3615 12.6579 840 126.96 953.425 450.785
211 0 67.314 13.8604 933 129.562 952.247 447.392
212 0 71.5046 14.5305 1039 128.269 951.433 446.977
213 0 71.7028 13.8628 994 133.532 950.021 444.937
214 0 73.7395 12.8561 948 136.987 949.451 442.653
215 0 73.7395 12.7883 943 150.263 949.451 442.677
216 0 80.7799 14.3971 1163 132.342 946.646 445.163
217 0 82.6815 14.1628 1171 134.359 945.263 439.633
218 0 84.8163 14.3251 1215 132.653 943.816 438.152
219 1 47.7029 12.8504 613 123.85 942.127 462.832
220 0 47.6724 14.0962 672 128.722 941.539 456.195
221 0 47.511 10.587 503 132.163 940.664 460.219
222 0 51.3392 14.5503 747 123.688 938.506 457.533
223 0 49.0832 11.6741 573 128.723 938.478 458.567
224 0 51.1986 11.8949 609 128.153 938.709 457.681
225 0 53.2628 13.4428 716 126.17 937.721 456.436
226 0 52.0843 11.1934 583 131.998 936.976 452.28
227 0 56.2171 17.8415 1003 120.729 937.342 451.88
228 0 57.209 11.7289 671 129.976 937.368 449.884
229 0 61.3837 14.4501 887 123.09 938.129 448.268
230 0 63.3039 13.1745 834 122.803 938.725 449.7
231 0 67.4787 13.9155 939 118.827 939.138 443.689
232 0 69.4004 29.4811 2046 103.922 940.362 439.62
233 0 68.1886 12.9494 883 120.596 942.742 441.803
234 0 73.1443 14.1091 1032 117.811 944.63 439.235
235 0 74.1222 12.1286 899 119.07 945.329 440.432
236 0 78.4326 16.2943 1278 114.336 947.437 438.18
237 1 161.735 19.7607 3196 117.875 949.827 396.134
238 0 166.915 15.9183 2657 118.284 950.182 399.346
239 1 86.3109 12.0958 1044 114.612 951.885 440.443
240 0 86.3109 11.9452 1031 141.936 953.89 440.402
241 1 45.0757 12.6898 572 113.675 951.93 461.154
242 0 50.0816 9.32479 467 119.657 951.675 460.152
243 0 50.0696 16.6368 833 112.748 951.293 455.673
244 0 52.1483 20.6143 1075 114.583 952.994 458.294
245 0 52.0816 13.6325 710 125.225 952.427 460.559
246 0 52.0816 13.7669 717 134.084 951.399 460.562
247 0 54.141 16.9557 918 121.992 950.174 461.167
248 0 58.1136 12.6649 736 129.861 949.461 457.243
249 0 60.2675 15.1657 914 128.325 948.312 455.067
250 0 62.4007 12.7563 796 129.853 946.77 455.7
251 0 65.242 11.8482 773 130.075 945.204 455.754
252 0 65.1973 12.0097 783 131.226 943.534 454.651
253 0 68.5321 15.2192 1043 128.133 942.589 450.944
254 0 72.4395 17.449 1264 122.6 941.378 446.805
255 0 73.1897 12.5018 915 131.126 939.391 446.804
256 0 76.5623 16.7707 1284 126.114 938.511 440.438
257 0 80.5779 15.5254 1251 128.408 937.809 439.841
258 0 83.3589 16.8668 1406 125.076 937.371 438.795
259 0 86.6822 14.6974 1274 132.088 936.928 437.288
260 0 89.27 14.0025 1250 132.673 937.256 432.134
261 1 49.0951 10.388 510 130.322 937.596 452.284
262 0 50.0706 11.5038 576 130.134 938.307 448.188
263 0 54.1408 14.4623 783 125.401 938.129 450.213
264 0 53.0945 21.1321 1122 111.712 937.945 451.859
265 0 56.2768 12.1542 684 122.544 938.493 450.906
266 0 56.1638 11.1994 629 122.203 940.639 450.375
267 0 58.2739 13.7283 800 119.674 942.431 452.21
268 0 60.2895 13.2527 799 123.919 944.582 447.666
269 0 65.8224 17.8511 1175 111.65 947.184 449.809
270 0 59.2934 7.97728 473 126.245 948.23 449.307
271 0 63.1978 12.1049 765 122.688 949.413 446.358
272 0 69.367 17.9048 1242 115.3 951.081 445.923
273 0 68.1484 12.9717 884 122.919 950.975 447.287
274 0 70.2553 14.974 1052 122.587 951.587 444.708
275 0 74.652 15.2575 1139 122.193 951.486 448.412
276 0 77.2939 17.9574 1388 120.076 951.39 446.455
277 0 78.3449 14.3596 1125 128.66 950.776 445.354
278 0 80.602 14.5902 1176 128.821 950.122 443.532
279 0 83.3241 16.0338 1336 127.317 949.552 443.305
280 0 84.5687 16.0816 1360 130.401 948.315 440.778
281 0 87.3972 14.211 1242 132.511 947.149 443.583
282 0 91.3472 16.0377 1465 131.05 945.644 439.145
283 0 92.2027 17.6351 1626 127.657 944.455 436.518
284 0 95.3274 11.0252 1051 135.391 942.5 439.39
285 1 50.2084 9.10206 457 134.98 941.112 460.562
286 0 51.0826 9.74891 498 135.388 940.532 459.821
287 0 54.2393 14.2148 771 125.021 940.06 459.577
288 0 56.643 11.2106 635 129.729 939.365 451.883
289 0 56.4057 13.2433 747 126.463 939.099 453.916
290 0 56.4057 13.332 752 127.605 938.098 453.818
291 0 61.1187 13.4656 823 125.92 937.981 449.662
292 0 64.1387 13.2681 851 125.306 937.432 449.461
293 0 66.1116 15.2621 1009 122.857 937.462 447.191
294 0 72.4471 13.748 996 123.802 937.601 445.782
295 0 71.358 19.5213 1393 115.867 938.194 443.943
296 0 72.2409 14.1056 1019 124.058 937.936 438.922
297 0 78.2155 17.5541 1373 118.013 939.772 440.406
298 0 78.2304 19.6215 1535 115.144 940.477 435.67
299 0 82.2983 19.2471 1584 112.994 941.61 440.926
300 0 91.6234 23.8804 2188 108.931 943.282 434.428
301 1 43.1015 11.8789 512 118.391 945.812 456.646
302 0 46.2637 13.5311 626 116.332 948.76 458.736
303 0 47.0858 10.3428 487 126.661 950.3 456.676
304 0 44.0769 10.7539 474 126.116 951.329 455.378
305 0 48.1432 12.0889 582 126.9 953.125 456.328
306 0 49.4408 12.6212 624 125.585 952.694 454.293
307 0 49.4808 11.1558 552 128.48 953.763 454.98
308 0 54.0283 18.3978 994 118.243 953.617 458.522
309 0 51.4136 12.4092 638 131.897 953.089 454.605
310 0 56.1539 16.152 907 123.99 952.352 454.42
311 0 57.1765 13.642 780 127.792 952.104 457.563
312 0 58.2059 12.3355 718 132.703 951.142 457.493
313 0 61.2372 15.938 976 127.777 949.609 457.089
314 0 63.1661 14.2165 898 132.87 948.599 455.829
315 0 65.0777 11.9703 779 136.945 947.452 452.755
316 0 67.1741 13.9786 939 132.029 946.612 454.281
317 0 71.1447 14.59 1038 130.008 945.021 454.296
318 0 70.2215 16.4337 1154 128.134 943.451 449.834
319 0 72.195 11.8429 855 135.571 942.207 450.655
320 0 76.3961 16.1396 1233 131.079 940.674 450.078
321 0 82.4257 15.8203 1304 127.737 939.41 449.822
322 0 79.2973 15.3851 1220 130.269 938.261 443.927
323 0 79.2973 15.3725 1219 138.236 937.25 443.774
324 1 42.1268 10.7532 453 136.773 937.373 459.709
325 0 47.1084 15.942 751 124.329 937.546 459.723
326 0 47.1688 12.5507 592 132.895 937.196 455.887
327 0 49.2192 14.2831 703 127.38 936.74 457.565
328 0 50.448 12.8845 650 132.418 937.302 449.803
329 0 50.0339 12.8313 642 130.618 939.019 451.372
330 0 53.1612 12.923 687 125.785 938.001 452.485
331 0 53.1694 9.76125 519 128.152 938.129 454.723
332 0 56.1557 13.5872 763 121.587 939.619 449.972
333 0 56.141 11.2752 633 124.169 941.156 446.476
334 0 60.1792 18.6443 1122 113.172 943.432 447.9
335 0 62.0945 17.7794 1104 113.448 945.132 446.211
336 0 62.0483 16.4872 1023 114.249 947.955 451.653
337 0 65.2547 9.53188 622 121.638 947.867 450.884
338 0 65.1511 12.4326 810 117.483 949.214 451.278
339 0 69.108 14.9476 1033 116.236 950.352 452.035
340 0 66.1122 10.0889 667 126.25 950.843 452.33
341 0 74.6912 14.5399 1086 119.9 951.18 453.127
342 0 75.2221 15.9794 1202 121.915 951.428 447.211
343 0 77.1654 15.6417 1207 122.652 951.26 445.548
344 0 79.2033 16.8301 1333 135.5 950.142 445.471
345 0 83.1377 14.915 1240 145.095 949.847 446.027
346 0 84.0395 15.1476 1273 144.897 948.545 446.044
347 0 85.1581 14.6316 1246 147.043 947.64 443.206
348 0 93.4367 17.1346 1601 138.327 946.099 448.522
349 1 47.0885 12.296 579 147.288 943.732 462.147
350 0 48.0838 10.045 483 150.718 942.476 463.366
351 0 51.1677 10.2213 523 149.904 944.537 461.153
352 0 50.0374 9.41296 471 149.826 943.677 461.996
353 0 48.1637 10.9003 525 148.627 942.074 456.225
354 0 55.1458 14.2894 788 136.777 940.791 459.154
355 0 57.1214 12.027 687 138.943 939.467 458.115
356 0 57.1116 12.5544 717 138.304 938.53 456.491
357 0 59.2494 13.9242 825 136.827 938.145 451.83
358 0 61.1252 14.8547 908 132.71 937.377 451.857
359 0 64.1223 11.5872 743 136.828 937.145 453.043
360 0 66.1569 15.04 995 129.505 937.365 445.711
361 0 68.3277 12.1912 833 132.144 938.084 443.96
362 0 70.4006 12.0454 848 132.652 937.579 445.817
363 0 74.3878 21.0653 1567 111.301 939.247 446.904
364 0 76.355 15.7946 1206 118.509 939.845 442.884
365 0 76.2634 10.8965 831 121.039 941.412 445.43
366 0 82.3816 14.2508 1174 116.365 943.113 442.59
367 0 81.3739 12.9771 1056 129.872 944.95 441.368
368 0 84.2736 14.4648 1219 116.568 946.144 441.724
369 0 88.4809 12.7485 1128 118.709 948.817 441.248
370 0 93.1716 19.4158 1809 114.247 949.73 435.622
371 0 95.3134 16.8392 1605 116.316 950.227 439.723
372 0 99.23 14.8241 1471 118.503 951.469 435.835
373 1 51.1697 9.84959 504 118.562 950.337 453.986
374 0 54.3886 10.3514 563 120.591 950.798 454.631
375 0 57.6743 10.7153 618 117.872 950.888 458.968
376 0 58.51 19.501 1141 111.926 951.478 450.72
377 0 61.1298 12.4162 759 118.822 951.769 458.615
378 0 61.2951 13.6063 834 120.379 950.873 456.438
379 0 64.3901 14.1171 909 119.612 950.007 456.437
380 0 66.0849 18.3703 1214 116.361 948.806 453.928
381 0 69.1693 14.2693 987 122.223 947.566 455.375
382 0 71.2121 14.2532 1015 125.26 946.784 453.855
383 0 77.4032 17.5057 1355 118.844 945.5 455.482
384 0 76.1699 17.2772 1316 117.861 943.074 449.742
385 0 77.1719 10.6904 825 129.502 942.446 451.567
386 0 82.2565 17.1415 1410 119.245 941.26 444.04
387 0 83.3526 14.7206 1227 124.381 940.436 447.647
388 0 85.2526 15.1315 1290 123.086 939.468 438.274
389 0 90.151 17.1268 1544 120.55 938.94 439.786
390 0 92.2191 15.0403 1387 123.537 938.142 434.195
391 0 91.3383 11.0359 1008 129.592 936.6 429.76
392 0 101.489 17.9231 1819 118.883 936.213 436.738
393 1 52.1529 15.397 803 121.167 935.579 453.323
394 0 54.2983 13.0391 708 124.4 937.6 451.931
395 0 54.2975 13.9233 756 122.378 938.103 452.843
396 0 59.1673 15.9886 946 117.029 938.4 452.162
397 0 59.4494 13.7932 820 117.459 939.263 445.633
398 0 58.5104 8.75059 512 118.443 940.588 453.156
399 0 62.2839 11.56 720 116.399 942.194 447.906
400 0 64.3915 16.6016 1069 111.865 944.413 443.504
401 0 68.5327 14.9418 1024 108.962 946.258 451.495
