time division length width area intensity CMx CMy
0 0 50.1071 11.8347 593 118.774 1263.48 441.794
1 0 49.1171 8.38812 412 126.493 1265.43 438.927
2 0 51.1369 15.175 776 117.719 1262.72 437.728
3 0 53.1785 15.0437 800 115.714 1263.24 437.086
4 0 53.1785 18.0148 958 119.873 1263.49 438.6
5 0 58.1523 18.6923 1087 109.66 1264.47 438.058
6 0 59.1035 19.1528 1132 108.332 1263.92 440.933
7 0 59.4091 19.1385 1137 105.354 1262.56 446.473
8 0 57.2027 10.6638 610 121.225 1261.35 437.985
9 0 64.1871 18.3526 1178 112.481 1259.64 435.615
10 0 64.127 14.4869 929 118.223 1259.01 440.744
11 0 66.168 12.7554 844 126.024 1257.67 442.399
12 0 68.1237 11.7287 799 137.17 1256.5 437.745
13 0 71.1415 13.2412 942 136.132 1255.76 434.55
14 0 72.0816 11.0569 797 139.038 1255.43 437.949
15 0 75.1063 13.9136 1045 139.384 1254.22 433.055
16 1 40.0547 11.3345 454 139.941 1252.04 449.242
17 0 42.05 10.1783 428 140.175 1251.79 451.822
18 0 42.0474 10.0839 424 147.717 1250.76 451.84
19 0 44.0996 11.7235 517 137.074 1250.13 450.205
20 0 43.0512 11.8231 509 144.065 1248.73 444.409
21 0 47.0474 13.9009 654 137.722 1248.11 445.486
22 0 47.0404 14.9446 703 135.62 1247.14 442.068
23 0 49.0979 13.0759 642 138.822 1246.43 441.447
24 0 49.0894 12.5078 614 140.98 1246.97 440.827
25 0 51.1681 14.7944 757 137.353 1247.64 437.966
26 0 54.0928 14.1424 765 136.386 1246.84 438.956
27 0 55.1011 15.2447 840 133.136 1247.05 437.494
28 0 57.1763 12.7326 728 136.096 1247.69 436.433
29 0 56.0519 11.7927 661 136.564 1249.28 433.958
30 0 61.2288 16.9038 1035 121.879 1251.16 437.585
31 0 63.1354 15.1104 954 121.326 1252.38 435.858
32 0 64.1974 15.8729 1019 117.55 1254.54 433.921
33 0 68.2588 15.617 1066 113.411 1256.94 436.602
34 0 67.1967 13.2596 891 118.646 1257.97 430.14
35 0 67.1967 13.2893 893 148.708 1258.95 430.161
36 0 74.2935 25.6146 1903 103.451 1260.63 437.103
37 0 76.2485 14.2298 1085 113.998 1260.94 433.212
38 0 78.4887 12.1673 955 116.175 1262 432.904
39 0 85.522 15.9725 1366 109.194 1262.25 440.139
40 0 83.484 23.1302 1931 107.117 1261.7 435.42
41 0 84.5517 13.0098 1100 119.045 1261.55 431.591
42 0 87.3544 13.2105 1154 122.439 1261.15 427.665
43 0 99.1372 22.6756 2248 107.287 1260.6 436.469
44 0 95.2385 17.0204 1621 118.762 1259.26 425.936
45 0 99.5462 26.1587 2604 110.586 1258.19 426.411
46 0 105.725 19.3899 2050 116.474 1257.46 433.689
47 1 56.3463 12.4764 703 121.713 1256.66 453.903
48 0 55.0819 10.439 575 127.817 1254.75 451.233
49 0 54.0717 11.4293 618 128.508 1252.96 450.549
50 0 57.0884 15.0293 858 128.497 1250.9 448.453
51 0 59.2212 12.1747 721 133.795 1249.18 447.366
52 0 61.1424 17.4511 1067 126.65 1248.07 444.761
53 0 64.0847 14.6681 940 131.539 1247.11 442.427
54 0 63.1051 14.6898 927 129.196 1246.83 446.214
55 0 67.1868 18.0541 1213 125.094 1245.76 437.496
56 0 66.1919 14.6392 969 143.422 1244.55 435.251
57 0 73.3138 17.2 1261 123.326 1244.89 435.814
58 0 72.1942 15.486 1118 126.75 1244.85 434.138
59 0 76.4577 18.3762 1405 122.789 1244.8 433.515
60 0 77.2386 21.3883 1652 117.856 1245.06 431.28
61 0 80.3121 19.2125 1543 118.423 1245.55 428.48
62 0 84.5999 20.0709 1698 116.952 1245.89 424.932
63 1 43.102 12.018 518 120.444 1246.01 446.234
64 0 49.2398 13.6881 674 115.755 1248.34 443.65
65 0 43.4444 7.78007 338 123.979 1249.42 442.991
66 0 47.1198 11.354 535 117.746 1252.55 445.12
67 0 49.3491 14.9749 739 113.926 1253.96 443.364
68 0 46.4702 10.7381 499 120.273 1255.19 442.202
69 0 55.5808 17.4881 972 107.484 1257.64 447.07
70 0 53.2089 16.0312 853 112.921 1257.84 442.277
71 0 55.104 16.3872 903 117.989 1258.16 445.156
72 0 57.096 17.2516 985 116.937 1259.27 446.185
73 0 56.2508 13.0309 733 126.921 1258.71 445.075
74 0 58.1395 15.1704 882 123.584 1259.07 445.19
75 0 61.1234 14.8225 906 127.472 1258.28 443.409
76 0 61.1 20.2455 1237 121.015 1257.77 443.804
77 0 63.1698 12.3952 783 133.911 1257.28 444.397
78 0 66.1746 14.9906 992 132.883 1257.06 446.05
79 0 67.2482 15.9558 1073 131.242 1255.16 445.828
80 0 69.3889 12.466 865 137.564 1254.15 445.022
81 0 70.2343 16.986 1193 129.893 1253.69 440.698
82 0 69.3747 14.6307 1015 135.943 1253.12 438.009
83 0 75.286 14.1726 1067 136.888 1251.87 442.934
84 0 77.2768 14.8945 1151 135.89 1250.69 438.262
85 0 78.2702 16.8008 1315 130.115 1248.95 433.157
86 0 79.2685 15.2393 1208 135.984 1247.95 430.845
87 0 80.1746 14.219 1140 140.662 1246.7 431.334
88 0 84.189 13.7191 1155 140.031 1245.49 430.608
89 0 88.2765 16.7315 1477 131.661 1244.63 425.893
90 1 47.151 11.3465 535 137.753 1244.79 443.589
91 0 48.1534 11.1726 538 146.046 1244.74 443.586
92 0 49.3476 11.3886 562 136.817 1244.44 439.011
93 0 53.1473 11.6092 617 134.677 1245.25 437.335
94 0 56.369 13.8019 778 128.055 1245.09 441.623
95 0 55.0791 12.1643 670 132.325 1243.63 434.506
96 0 57.0967 15.2023 868 122.95 1244.93 442.363
97 0 58.0608 14.0026 813 123.407 1246.18 439.916
98 0 61.1187 13.9237 851 123.194 1248.46 439.114
99 0 62.1905 12.3009 765 125.569 1250.3 436.841
100 0 66.2676 12.0723 800 122.438 1252.32 440.831
101 0 66.101 12.375 818 122.079 1254.22 438.198
102 0 73.28 18.6135 1364 112.001 1256.44 434.037
103 0 68.1827 9.32787 636 123.486 1257.58 437.299
104 0 74.3279 14.3284 1065 117.099 1258.42 434.993
105 0 76.2025 15.3407 1169 114.616 1259.19 433.364
106 0 79.3354 14.0921 1118 115.618 1259.28 437.331
107 0 81.1183 11.7236 951 119.232 1259.69 438.921
108 0 83.2271 15.9323 1326 123.007 1258.61 432.896
109 0 84.102 12.4135 1044 127.681 1258.59 432.942
110 0 84.102 12.58 1058 138.115 1258.63 433.037
111 1 49.1164 10.4039 511 129.534 1257.56 456.603
112 0 46.0633 12.0486 555 130.063 1257.2 452.957
113 0 51.0474 10.7155 547 135.287 1256.07 456.073
114 0 54.0615 14.1505 765 130.485 1254.86 455.174
115 0 53.028 13.9549 740 137.042 1253.85 451.396
116 0 54.1069 12.1796 659 137.816 1252.74 453.346
117 0 56.1691 13.7442 772 141.074 1250.68 451.965
118 0 55.1578 12.8359 708 143.59 1248.53 451.181
119 0 57.0905 13.2772 758 148.385 1247.38 449.26
120 0 60.0668 14.8668 893 140.082 1246.33 448.72
121 0 64.1956 15.7332 1010 137.811 1244.99 446.399
122 0 65.2488 15.1574 989 138.878 1243.18 443.593
123 0 66.1073 14.6277 967 140.062 1242.02 442.499
124 0 68.3484 17.5571 1200 133.759 1242.21 439.606
125 0 70.0985 14.18 994 140.686 1241.54 437.635
126 0 73.1727 16.4405 1203 135.709 1241.51 436.704
127 0 73.1727 16.5362 1210 144.932 1240.49 436.72
128 0 77.1889 15.3779 1187 138.433 1241.5 432.244
129 0 80.1695 15.9163 1276 132.678 1242.04 433.982
130 0 80.2319 13.2865 1066 144.268 1242.61 431.191
131 0 86.2506 16.9738 1464 132.951 1244.77 428.582
132 0 87.3809 14.5684 1273 133.646 1245.96 427.278
133 0 89.2659 13.1405 1173 136.004 1248.39 427.435
134 0 92.2437 15.1013 1393 130.406 1250.36 423.951
135 1 52.106 14.4705 754 119.558 1251.61 451.736
136 0 52.2736 14.7302 770 122.043 1252.98 448.075
137 0 53.1988 10.1882 542 129.006 1254.73 447.834
138 0 55.2084 14.7985 817 123.023 1255.18 448.952
139 0 56.1837 10.1987 573 127.827 1255.79 448.532
140 0 59.0662 15.0001 886 122.926 1255.92 448.412
141 0 63.1864 14.4493 913 124.783 1254.84 449.577
142 0 62.0812 17.2838 1073 123.481 1255.2 444.613
143 0 66.0737 20.2804 1340 123.051 1253.83 448.191
144 0 65.0761 17.5794 1144 138.863 1252.58 449.243
145 0 68.3037 15.3871 1051 145.027 1252.4 445.767
146 0 72.1458 14.8727 1073 143.42 1251.67 447.127
147 0 73.2493 15.2493 1117 146.266 1250.78 444.335
148 0 77.4025 15.6584 1212 149.002 1249.92 443.988
149 0 80.2045 15.2236 1221 148.49 1248.13 442.414
150 0 82.3956 17.598 1450 144.512 1247.27 440.338
151 1 44.0847 9.54981 421 153.967 1246.08 459.777
152 0 45.0191 11.4174 514 148.321 1244.5 461.414
153 0 47.0424 12.1593 572 151.154 1243.06 457.615
154 0 47.2037 10.889 514 158.018 1241.73 453.73
155 0 50.1707 12.1984 612 152.005 1242.34 451.938
156 0 51.1214 12.6953 649 148.659 1242.8 451.747
157 0 50.1211 12.0907 606 152.241 1241.75 447.837
158 0 53.0361 12.7272 675 150.144 1241.06 447.187
159 0 56.2148 11.7407 660 146.114 1240.72 446.224
160 0 57.0295 12.3971 707 144.098 1241.25 444.426
161 0 61.1903 16.3425 1000 134.554 1240.67 443.51
162 0 61.1903 16.3425 1000 127.652 1239.66 443.688
163 0 66.4426 12.2813 816 137.57 1242.06 441.338
164 0 66.427 17.6585 1173 126.101 1243.07 438.763
165 0 71.3373 14.2983 1020 128.291 1244.99 437.175
166 0 71.4165 12.8822 920 130.023 1246.2 436.829
167 0 76.2636 14.463 1103 125.859 1247.66 434.57
168 0 76.3601 13.6197 1040 127.066 1249.91 431.164
169 0 79.4539 10.4715 832 127.562 1251.44 434.558
170 0 84.6963 16.4824 1396 117.71 1252.55 436.107
171 1 45.1038 10.3982 469 123.311 1255.72 451.132
172 0 44.1668 9.12451 403 126.045 1254.81 450.692
173 0 48.1452 14.7055 708 118.831 1255.17 455.408
174 0 46.1117 8.024 370 125.159 1255.36 455.719
175 0 48.1572 12.1062 583 122.631 1255.29 453.58
176 0 51.0633 13.2776 678 123.36 1251.66 450.647
177 0 51.0245 11.9942 612 127.997 1252.72 454.405
178 0 52.1571 12.6157 658 136.608 1250.83 451.533
179 0 54.1408 16.2539 880 130.435 1250.25 454.441
180 0 51.0993 9.45218 483 143.346 1249.07 453.756
181 0 54.0876 11.9991 649 138.159 1248.74 452.532
182 0 59.0478 10.8387 640 138.183 1247.41 453.388
183 0 57.2361 12.5795 720 133.729 1245.95 450.318
184 0 61.0832 13.4898 824 131.42 1244.93 449.013
185 0 64.1464 10.7255 688 133.689 1242.85 447.757
186 0 66.2124 12.7015 841 130.75 1242.07 445.843
187 1 38.1465 11.9801 457 128.311 1240 459.175
188 0 36.0815 8.2868 299 133.09 1239.64 461.224
189 0 39.1453 10.1928 399 128.546 1239.39 459.451
190 0 39.035 10.3241 403 128.007 1238.05 456.675
191 0 41.0862 9.80864 403 128.082 1237.45 455.129
192 0 42.047 7.25379 305 132.892 1236.99 454.82
193 0 44.1542 12.1166 535 127.426 1237.68 449.432
194 0 48.0317 12.1378 583 125.424 1237.71 449.557
195 0 49.139 10.745 528 127.89 1236.88 449.169
196 0 49.0601 15.1447 743 120.324 1238.58 451.595
197 0 52.1112 13.6439 711 120.596 1238.83 444.537
198 0 53.4583 11.6165 621 121.628 1239.73 448.079
199 0 55.164 9.9884 551 120.915 1241.21 443.385
200 0 57.2019 12.08 691 119.062 1243.24 440.595
201 0 57.7986 10.4674 605 117.676 1244.93 447.926
202 0 59.2115 12.9873 769 115.083 1247.33 443.151
203 0 59.2115 13.0718 774 109.891 1249.38 443.145
204 0 62.2112 12.0879 752 122.511 1250.41 441.586
205 0 62.2112 11.9593 744 119.481 1251.46 441.544
206 0 64.1161 11.9783 768 124.973 1252.41 442.697
207 0 67.2182 10.9792 738 126.161 1252.55 441.961
208 0 68.0939 12.0716 822 126.245 1252.95 441.056
209 0 75.1667 11.9335 897 123.66 1252.42 442.472
210 0 74.1051 12.9006 956 126.732 1252.82 439.438
211 0 78.1709 15.6964 1227 126.095 1252.76 439.041
212 0 81.413 14.3343 1167 129.254 1252.07 437.875
213 0 84.3251 12.5823 1061 133.805 1250.64 437.979
214 0 86.3867 10.7424 928 136.956 1250.09 434.491
215 0 88.4012 16.8889 1493 126.948 1248.53 430.875
216 0 93.1819 14.7239 1372 135.606 1248.01 431.789
217 1 44.0871 7.80273 344 138.102 1246.97 457.916
218 0 46.2188 11.0128 509 132.36 1245.42 454.914
219 0 49.4796 12.1262 600 125.57 1244.37 450.983
220 0 51.5303 12.1482 626 132.569 1243.96 453.743
221 0 56.5508 14.3411 811 124.891 1242.06 452.683
222 0 56.1684 12.6406 710 127.769 1241.05 451.217
223 0 58.4746 15.4939 906 123 1240.55 447.82
224 0 60.2908 11.3118 682 130.872 1240.52 447.962
225 0 59.2829 13.8657 822 127.5 1239.56 444.246
226 0 62.2988 13.371 833 127.396 1238.96 443.663
227 0 65.2626 16.0429 1047 123.969 1239.35 439.497
228 0 65.3786 13.8883 908 125.957 1239.98 442.934
229 0 77.4883 22.7131 1760 108.956 1239.54 444.041
230 0 68.4686 11.1 760 131.418 1241.08 436.871
231 0 74.4493 18.7644 1397 114.696 1241.11 434.822
232 0 80.6346 18.3048 1476 112.878 1243.69 438.151
233 1 41.105 9.95013 409 122.609 1245.97 452.33
234 0 46.169 9.70349 448 120.708 1248.05 453.301
235 0 45.0914 14.3708 648 116.443 1249.18 449.66
236 0 46.0952 11.4546 528 121.869 1251.27 450.047
237 0 47.0605 10.2634 483 122.286 1253.42 453.886
238 0 47.1385 7.89164 372 128.263 1252.64 455.097
239 0 47.1381 9.65249 455 129.873 1253.97 452.064
240 0 51.101 13.7375 702 121.953 1253.65 453.235
241 0 50.2615 13.6088 684 128.677 1252.94 449.949
242 0 51.3544 11.8977 611 128.961 1250.81 449.244
243 0 55.3709 12.7684 707 131.198 1250.43 448.547
244 0 55.3709 12.7865 708 149.562 1250.41 448.603
245 0 55.2383 12.4189 686 133.372 1253.17 451.143
246 0 58.08 14.1529 822 130.257 1251.97 450.697
247 0 61.1267 17.8645 1092 123.667 1250.54 451.708
248 0 60.1435 13.1186 789 136.721 1249.82 450.449
249 0 66.1013 19.1222 1264 122.708 1248.64 450.713
250 0 64.0977 13.261 850 135.764 1247.61 449.132
251 0 68.1131 15.577 1061 129.212 1245.95 446.583
252 0 70.2236 16.7038 1173 126.397 1244.35 445.819
253 0 73.135 14.4254 1055 131.707 1243.22 439.927
254 0 72.1554 14.1916 1024 133.833 1241.72 443.211
255 1 36.1651 7.99114 289 140.436 1240.61 459.799
256 0 39.0883 8.00752 313 137.466 1239.67 460.137
257 0 43.0979 11.7407 506 134.103 1239.39 455.808
258 0 42.0839 9.10086 383 138.251 1238.78 455.243
259 0 42.0839 8.98205 378 142.704 1237.8 455.167
260 0 43.2509 12.9708 561 128.271 1238.28 454.793
261 0 45.1044 12.7704 576 128.997 1238.73 449.727
262 0 48.4526 12.5483 608 124.613 1238.55 447.742
263 0 47.2481 10.7518 508 128.661 1238.7 449.311
264 0 49.4462 12.0131 594 125.838 1239.55 447.71
265 0 51.2634 14.4938 743 121.141 1240.59 446.709
266 0 51.2634 14.5328 745 126.984 1241.62 446.847
267 0 60.8755 15.4578 941 113.687 1244.96 451.674
268 0 55.1663 14.6104 806 123.845 1246.51 444.197
269 0 58.4522 14.7642 863 123.652 1248.87 446.132
270 0 59.1397 12.6142 746 123.543 1250.79 445.484
271 0 62.2748 16.5075 1028 119.435 1251.18 442.082
272 0 64.3222 13.0748 841 124.644 1252.6 448.008
273 0 62.2835 12.9248 805 130.434 1252.8 446.41
274 0 66.2664 13.3401 884 130.148 1253.08 444.607
275 0 67.1099 14.2304 955 131.831 1252.94 446.46
276 0 74.5366 17.2398 1285 123.065 1253.23 449.191
277 0 71.2756 13.3285 950 137.245 1252.25 443.64
278 0 75.1536 13.4125 1008 139.625 1251.18 443.951
279 0 77.315 14.9648 1157 137.774 1250.37 443.731
280 1 38.1136 8.5009 324 148.037 1250.97 462.546
281 0 46.3148 10.4934 486 145.08 1249.24 459.856
282 0 47.1664 12.2969 580 139.891 1247.42 460.96
283 0 45.1508 10.6532 481 146.875 1246.64 461.243
284 0 47.1598 11.2172 529 150.868 1244.54 457.217
285 0 49.097 12.4651 612 144.276 1242.98 458.08
286 0 54.1404 15.8662 859 136.662 1241.73 457.198
287 0 54.2141 19.4599 1055 124.477 1240.99 457.809
288 0 54.2141 19.3861 1051 125.472 1240.06 457.937
289 0 57.2437 16.0192 917 133.015 1238.2 453.481
290 0 58.1803 14.9192 868 137.358 1237.36 450.603
291 0 61.1016 15.1224 924 134.252 1237.66 449.728
292 0 63.3912 16.5638 1050 130.422 1236.53 448.493
293 0 62.1865 14.0867 876 138.336 1237.26 445.68
294 0 65.1736 15.451 1007 134.669 1236.83 443.904
295 0 66.1407 14.6506 969 135.866 1237.62 443.328
296 0 69.3545 18.4847 1282 126.527 1238.03 443.417
297 0 70.1383 16.553 1161 129.02 1239.16 440.579
298 0 71.1478 15.3202 1090 130.144 1240.47 437.574
299 0 72.2474 12.8171 926 131.719 1241.24 438.29
300 0 76.18 12.3786 943 128.902 1243.62 439.224
301 0 81.0882 19.6083 1590 117.847 1245.62 438.07
302 0 83.5079 14.7292 1230 123.923 1247.51 440.215
303 0 84.3753 18.0029 1519 135.018 1249.2 432.412
304 1 45.1023 12.7266 574 142.082 1251.33 452.46
305 0 45.3268 10.1926 462 144.203 1253.22 455.177
306 0 47.4077 12.5507 595 134.032 1253.54 453.013
307 0 54.494 16.4972 899 123.406 1252.92 458.126
308 0 52.2543 13.7979 721 134.361 1250.44 453.48
309 0 52.1582 12.7113 663 137.698 1250.82 457.198
310 0 54.1315 15.2776 827 137.524 1250.15 454.97
311 0 53.0666 12.5503 666 142.5 1249.78 455.61
312 0 57.1774 19.2384 1100 130.293 1249.88 453.366
313 0 58.0637 13.3991 778 145.386 1247.6 454.557
314 0 61.116 15.2988 935 138.079 1247.12 454.681
315 0 61.0478 15.5452 949 141.208 1246.18 451.959
316 0 64.2292 14.7441 947 145.834 1244.39 451.704
317 0 66.283 16.3239 1082 139.395 1243.17 448.436
318 0 68.1447 17.3014 1179 138.208 1242.02 449.323
319 0 69.1289 16.2884 1126 142.621 1240.71 445.239
320 0 70.1584 14.2677 1001 148.589 1238.78 447.434
321 0 73.2959 15.2669 1119 147.446 1237.48 444.753
322 0 75.105 15.1921 1141 145.916 1236.04 443.826
323 1 38.2024 11.8055 451 150.508 1235.18 457.565
324 0 41.0532 12.5934 517 147.687 1234.65 456.605
325 0 43.2611 11.1416 482 147.606 1234.53 456.199
326 0 45.0887 12.8414 579 144.062 1234.68 454.903
327 0 45.0432 13.1207 591 146.047 1234.6 451.802
328 0 46.126 15.0891 696 141.829 1235.54 450.908
329 0 45.2296 11.2758 510 148.563 1235.46 450.353
330 0 49.1553 13.9761 687 136.735 1236.85 452.75
331 0 56.8111 14.4514 821 131.609 1237.55 452.845
332 0 54.0624 17.7018 957 128.395 1239.74 449.792
333 0 56.1748 16.3062 916 129.778 1240.59 447.353
334 0 55.1093 15.932 878 129.65 1242.52 444.577
335 0 56.1155 12.6703 711 133.581 1244.86 446.084
336 0 58.1017 15.645 909 130.349 1247.27 447.595
337 0 61.2657 16.7304 1025 127.676 1248.45 448.423
338 0 63.057 15.3671 969 130.427 1249.43 444.794
339 0 66.1586 15.614 1033 131.147 1250.61 446.012
340 0 67.2109 15.31 1029 132.732 1251.14 447.624
341 0 69.1121 16.0319 1108 133.837 1250.81 445.013
342 0 70.3868 15.0028 1056 137.705 1250.31 444.129
343 0 73.0543 16.3577 1195 139.172 1250.47 443.594
344 0 75.0993 16.0321 1204 141.852 1248.78 442.812
345 0 79.1184 17.6065 1393 135.804 1249.05 445.767
346 0 81.1927 26.4679 2149 123.851 1248.05 443.51
347 0 81.1243 16.3206 1324 144.58 1246.8 442.182
348 0 85.2203 18.1647 1548 142.083 1245.31 440.448
349 0 83.1977 15.6014 1298 146.685 1244.16 437.98
350 0 90.1868 17.1311 1545 141.006 1242.45 436.275
351 0 94.317 15.0874 1423 148.02 1240.79 436.069
352 0 98.3009 20.2745 1993 133.616 1239.87 434.046
353 0 99.1729 16.3855 1625 145.003 1238.16 430.862
354 1 54.0485 12.7293 688 140.49 1236.71 456.17
355 0 51.0485 10.1276 517 159.366 1235.67 453.458
356 0 58.0758 11.7088 680 135.762 1235.53 454.713
357 0 60.0992 15.0584 905 132.235 1235.58 450.038
358 0 60.079 13.7486 826 136.2 1234.97 446.682
359 0 64.1107 17.1266 1098 127.504 1234.01 448.714
360 0 66.281 14.861 985 131.002 1234.59 445.249
361 0 68.1457 13.6619 931 133.591 1234.66 442.156
362 0 68.1242 14.1213 962 133.297 1234.48 440.924
363 0 73.1119 14.3342 1048 129.168 1236.15 441.656
364 0 74.112 14.9368 1107 126.59 1236.22 441.644
365 0 75.175 19.0755 1434 119.872 1238.5 438.697
366 0 77.1798 12.0627 931 127.787 1239.96 437.597
367 0 82.4229 14.2921 1178 123.829 1242.18 435.728
368 0 83.2256 12.364 1029 125.338 1243.76 435.527
369 0 87.0681 16.332 1422 116.803 1246.56 436.416
370 0 89.2187 14.0666 1255 121.037 1248.06 435.698
371 0 93.1642 15.1131 1408 119.787 1248.16 435.74
372 1 50.0914 10.6805 535 130.914 1248.7 454.778
373 0 51.204 9.7258 498 130.671 1248.2 453.759
374 0 53.5053 12.9333 692 129.78 1249.44 451.835
375 0 53.2573 15.7725 840 121.8 1248.82 450.946
376 0 56.1358 10.8843 611 130.193 1247.74 452.745
377 0 58.1882 15.278 889 123.475 1247.72 455.093
378 0 60.2188 14.1484 852 126.428 1247.24 451.994
379 0 61.1886 12.9272 791 127.652 1245.41 453.401
380 0 64.2207 13.6716 878 128.267 1244.79 453.257
381 0 65.2566 13.5159 882 130.044 1244.1 451.887
382 0 65.1304 11.4693 747 134.645 1243.34 449.799
383 0 69.137 15.2885 1057 125.429 1242.7 446.641
384 0 71.2844 13.86 988 130.231 1240.73 448.748
385 0 73.2622 14.1819 1039 129.203 1239.75 444.088
386 0 76.2491 12.6297 963 131.293 1238.23 446.067
387 0 74.242 11.1258 826 146.59 1236.27 443.948
388 1 40.0372 10.8649 435 131.124 1235.78 457.715
389 0 43.1514 13.9509 602 123.862 1235.55 458.133
390 0 44.0488 14.0526 619 123.805 1234.68 455.199
391 0 50.9012 14.5772 742 119.931 1234.16 456.988
392 0 49.047 13.5176 663 125.02 1234.56 453.305
393 0 50.1613 13.9948 702 124.709 1233.99 452.868
394 0 51.0724 13.0207 665 125.77 1234.39 450.526
395 0 52.12 11.8764 619 129.163 1234.87 449.026
396 0 54.1573 15.4365 836 121.956 1235.09 447.305
397 0 55.0605 16.4183 904 121.096 1236.85 445.072
398 0 57.0637 16.3326 932 119.248 1237.47 446.567
399 0 58.108 15.8498 921 121.85 1238.82 444.4
400 0 57.0672 13.2651 757 126.24 1240.64 444.209
401 0 64.0949 18.2698 1171 113.452 1243.07 445.564
402 0 65.1393 16.8869 1100 114.794 1243.51 443.393
