time division length width area intensity CMx CMy
0 0 60.243 14.3253 863 133.784 122.512 443.461
1 0 64.2728 16.6478 1070 127.239 123.74 443.736
2 0 66.2788 15.0274 996 130.776 124.289 441.034
3 0 69.3543 14.1592 982 129.245 124.644 444.078
4 0 69.2509 16.3897 1135 126.009 125.452 442.115
5 0 72.3532 18.9764 1373 121.333 125.481 442.128
6 0 84.6009 19.4088 1642 115.864 125.048 446.856
7 0 78.281 18.6252 1458 119.964 123.727 444.086
8 0 76.2222 12.1749 928 132.262 123.355 439.375
9 0 85.2958 20.6692 1763 117.578 120.785 446.787
10 0 84.4027 19.478 1644 125.08 119.858 441.419
11 1 47.1282 13.7497 648 136.031 118.215 457.96
12 0 47.1611 10.4747 494 147.571 115.854 460.04
13 0 49.0737 9.67932 475 142.745 116.888 454
14 0 50.0677 13.8812 695 136.894 115.246 453.278
15 0 52.0998 12.1881 635 143.976 113.948 452.047
16 0 53.0964 13.5602 720 144.008 112.446 457.526
17 0 55.0626 13.1124 722 148.012 111.269 456.037
18 0 56.1217 10.0318 563 154.158 110.909 456.05
19 0 59.0277 15.5181 916 141.892 109.476 454.993
20 0 60.2809 14.4656 872 146.763 108.269 451.44
21 0 58.106 10.5153 611 157.843 107.439 450.856
22 0 63.0241 13.7249 865 151.905 107.354 447.008
23 0 66.2549 12.9198 856 152.051 106.896 446.706
24 0 64.0932 11.4677 735 158.114 107.407 442.565
25 0 67.0814 12.6414 848 156.098 107.919 441.843
26 0 69.2499 13.4441 931 151.784 106.997 437.499
27 0 73.1804 13.8152 1011 148.316 107.029 439.909
28 0 75.1408 12.5631 944 150.376 108.2 436.625
29 0 80.2492 11.6761 937 147.457 109.15 437.094
30 0 81.2125 13.6679 1110 141.473 110.014 434.767
31 0 84.0854 12.3446 1038 137.886 111.982 436.458
32 0 89.3649 17.3558 1551 126.328 113.885 431.009
33 0 92.4187 15.0511 1391 125.415 115.891 436.198
34 0 94.3801 16.5607 1563 124.769 117.388 429.99
35 1 50.1571 11.145 559 128.088 119.084 451.846
36 0 50.1104 13.4303 673 123.765 121.239 451.923
37 0 55.0457 17.7126 975 114.978 120.707 456.302
38 0 61.3312 24.6693 1513 106.043 121.858 456.649
39 0 58.6086 12.319 722 116.961 123.353 457.289
40 0 61.2389 13.4065 821 116.239 122.795 455.999
41 0 58.1326 13.452 782 118.286 122.536 455.987
42 0 61.3985 11.7918 724 123.097 122.301 455.533
43 0 63.168 15.2926 966 118.427 120.905 454.519
44 0 70.4654 17.8527 1258 116.176 120.022 458.404
45 0 66.2003 15.5588 1030 121.683 119.006 456.527
46 0 67.1791 14.7218 989 128.417 118.719 457.339
47 0 69.0927 12.997 898 136.9 117.186 454.85
48 0 71.1076 12.0522 857 138.062 115.904 453.258
49 0 75.1626 15.2336 1145 133.137 114.209 451.381
50 0 77.3466 13.3684 1034 138.338 111.093 451.358
51 0 79.1792 14.3598 1137 138.303 108.99 448.075
52 0 81.0952 13.0464 1058 142.365 107.598 449.757
53 0 83.1798 12.7315 1059 144.207 107.032 441.593
54 0 86.2482 11.293 974 144.691 106.444 445.088
55 1 45.031 11.0812 499 136.906 105.645 463.97
56 0 47.0947 13.3773 630 132.91 105.219 459.527
57 0 49.151 11.2917 555 136.528 105.202 459.258
58 0 52.0555 13.7546 716 129.772 106.476 458.119
59 0 53.095 13.5229 718 131.577 106.552 456.833
60 0 54.4116 11.8173 643 132.588 106.568 455.379
61 0 55.5945 13.7064 762 132.273 104.801 451.348
62 0 58.1419 14.7226 856 128.57 104.729 452.123
63 0 59.1536 12.6112 746 130.055 105.705 451.04
64 0 62.2604 19.7236 1228 116.673 107.658 451.19
65 0 60.2141 11.3096 681 127.037 109.204 451.579
66 0 63.2175 12.3542 781 126.187 112.273 447.822
67 0 65.5578 16.0774 1054 121.406 113.234 448.007
68 0 66.1696 12.3168 815 125.929 114.991 449.043
69 0 74.6147 18.3208 1367 114.924 116.503 450.143
70 0 72.3745 16.691 1208 119.55 117.2 452.645
71 0 72.1315 18.1751 1311 125.801 117.688 450.389
72 0 76.3976 15.7466 1203 128.884 118.524 447.901
73 0 76.3111 14.4802 1105 134.882 118.281 447.361
74 0 82.51 15.2103 1255 131.944 118.118 448.428
75 0 82.1449 14.2553 1171 138.231 117.678 449.062
76 0 84.2141 14.4869 1220 140.231 116.706 444.577
77 0 89.0887 17.8586 1591 133.375 116.529 444.927
78 0 89.1344 12.2736 1094 149.821 115.644 449.303
79 1 46.0452 13.7474 633 139.649 113.648 469.916
80 0 48.1058 10.4353 502 147.38 112.486 467.161
81 0 50.1755 13.6919 687 136.3 111.71 469.803
82 0 49.3182 11.2737 556 145.016 111.469 467.984
83 0 51.2212 15.5795 798 140.955 110.016 464.224
84 0 53.4593 13.3373 713 145.804 110.338 461.25
85 0 56.2007 15.1955 854 136.63 107.094 463.799
86 0 57.0351 16.2181 925 139.683 105.895 460.072
87 0 58.1416 14.0347 816 144.727 104.85 459.67
88 0 59.0986 14.9411 883 141.797 103.468 458.275
89 0 59.093 12.1503 718 145.453 102.588 454.94
90 0 62.1154 13.9418 866 141.808 102.047 453.928
91 0 64.1357 16.4339 1054 133.062 102.193 452.12
92 0 66.0912 13.8596 916 138.055 101.895 446.85
93 0 69.0978 19.002 1313 124.342 102.472 451.069
94 0 70.1586 18.5152 1299 126.442 102.247 445.53
95 0 72.1514 14.2062 1025 131.906 103.042 445.599
96 0 72.1294 12.7826 922 127.946 104.422 445.453
97 0 72.1431 15.6079 1126 122.964 105.75 441.312
98 0 75.2017 14.2417 1071 121.859 108.031 445.394
99 0 78.2867 17.0782 1337 116.704 109.911 443.619
100 0 80.3397 15.5714 1251 118.601 111.663 439.995
101 0 82.1699 15.6505 1286 115.114 113.663 444.89
102 0 83.3796 14.1641 1181 116.655 115.064 440.297
103 0 85.3286 14.2391 1215 116.207 116.544 434.932
104 0 88.3431 15.27 1349 113.085 117.466 438.473
105 0 87.242 17.526 1529 106.317 118.288 448.651
106 0 91.2455 14.1706 1293 110.241 118.462 445.392
107 0 93.2199 15.9194 1484 108.908 118.923 444.483
108 0 97.2137 27.0332 2628 104.561 116.731 433.832
109 0 97.4733 21.2161 2068 109.49 117.236 434.668
110 0 97.4183 21.0946 2055 113.525 117.218 434.769
111 0 99.1878 11.8059 1171 122.255 116.531 439.209
112 1 176.642 15.7664 2785 123.986 116.123 407.683
113 0 177.436 11.9141 2114 136.015 114.897 399.973
114 0 183.875 13.3841 2461 132.687 114.024 401.469
115 1 108.737 17.6205 1916 118.547 113.171 430.347
116 0 109.185 16.4492 1796 121.024 111.826 430.166
117 0 110.476 15.3608 1697 123.478 110.098 432.583
118 0 113.128 12.8173 1450 127.612 108.264 433.172
119 0 113.161 11.6029 1313 132.919 106.957 426.747
120 0 118.48 13.344 1581 126.579 105.801 426.713
121 0 119.338 15.1084 1803 124.352 104.273 422.283
122 0 122.419 20.3727 2494 116.682 102.469 423.76
123 0 122.223 16.0853 1966 122.12 101.345 419.987
124 0 124.46 15.274 1901 122.296 101.125 415.655
125 0 129.333 16.4845 2132 120.485 100.947 409.259
126 0 130.502 16.5055 2154 119.829 100.386 416.056
127 0 133.408 13.4549 1795 120.848 100.792 421.867
128 0 132.23 22.0222 2912 113.407 100.473 407.644
129 0 135.531 17.8705 2422 115.919 101.135 407.149
130 0 138.348 17.427 2411 118.542 101.785 410.874
131 0 143.661 19.5669 2811 114.041 103.586 409.459
132 0 141.547 17.1109 2422 115.11 104.948 405.36
133 0 142.002 11.7674 1671 119.011 107.585 410.06
134 0 146.616 17.522 2569 111.205 109.363 407.999
135 0 144.818 13.3133 1928 114.368 111.306 407.078
136 0 149.526 12.533 1874 113.631 112.369 414.267
137 0 149.582 12.789 1913 112.672 114.13 415.081
138 0 155.756 18.9849 2957 110.215 114.039 401.343
139 1 240.465 13.8066 3320 118.483 114.604 370.414
