time division length width area intensity CMx CMy
0 0 62.1351 13.5511 842 126.191 425.363 437.405
1 0 62.2028 12.0413 749 133.792 426.079 439.669
2 0 63.2029 12.6102 797 134.458 427.487 439.794
3 0 67.1633 13.2364 889 133.709 427.88 436.447
4 0 68.1566 19.0884 1301 124.919 427.834 441.977
5 0 71.0905 12.1676 865 133.126 428.933 438.616
6 0 75.3092 20.781 1565 120.868 428.354 440.558
7 0 77.3965 15.4529 1196 127.809 427.318 439.215
8 0 77.1803 14.2135 1097 132.599 426.213 435.952
9 0 81.2592 14.3491 1166 133.085 424.052 432.339
10 0 86.152 17.2834 1489 130.582 424.052 438.103
11 0 87.1787 13.2142 1152 144.9 422.557 435.504
12 0 91.0765 14.4823 1319 149.3 421.497 434.954
13 0 93.0663 15.634 1455 147.579 420.416 435.045
14 0 95.1654 14.3645 1367 151.119 420.166 431.47
15 1 49.1152 11.8497 582 151.548 419.026 456.471
16 0 50.0483 10.9694 549 154.645 417.741 454.849
17 0 52.1624 10.9657 572 155.68 417.208 453.327
18 0 55.0337 11.284 621 156.552 415.459 450.126
19 0 60.2185 13.7997 831 147.42 413.361 448.884
20 0 61.051 15.7409 961 144.454 413.396 446.26
21 0 64.1709 15.5834 1000 141.439 412.676 444.718
22 0 65.0807 15.5346 1011 142.049 412.761 446.227
23 0 65.1388 13.6938 892 148.241 412.217 440.594
24 0 67.1394 13.7326 922 148.536 412.789 440.136
25 0 70.0962 13.3103 933 150.622 413.146 435.462
26 0 70.0637 11.8464 830 152.851 411.658 437.23
27 0 75.2698 16.2216 1221 142.251 412.693 433.489
28 0 75.1205 11.8743 892 151.841 413.657 434.969
29 0 77.2359 12.8826 995 145.829 414.965 432.631
30 0 80.0848 13.7354 1100 140.624 415.453 433.161
31 0 82.28 17.2946 1423 130.235 417.13 434.188
32 0 85.0914 11.9519 1017 134.144 419.22 433.638
33 0 88.122 17.419 1535 124.785 421.106 430.846
34 0 92.17 17.8909 1649 124.226 422.607 425.859
35 0 92.17 17.9343 1653 136.479 424.626 425.658
36 0 98.227 26.8256 2635 111.127 424.636 436.753
37 0 97.4449 12.7867 1246 124.202 424.889 435.63
38 0 100.436 11.9678 1202 122.142 426.266 439.42
39 0 107.407 39.1966 4210 105.502 424.135 427.335
40 0 106.228 19.2888 2049 118.425 425.165 433.543
41 1 58.3399 11.2959 659 123.947 425.308 454.862
42 0 64.1936 15.5779 1000 118.755 424.584 455.73
43 0 62.1498 20.6919 1286 116.596 423.438 451.491
44 0 64.3272 12.0322 774 131.926 422.13 450.536
45 0 66.1938 11.9195 789 131.672 421.483 448.157
46 0 68.5934 15.6429 1073 129.692 420.315 452.288
47 0 69.2479 12.8091 887 141.741 419.107 448.556
48 0 72.203 15.1933 1097 137.284 417.925 446.991
49 0 75.3657 15.5376 1171 137.547 416.498 446
50 0 78.1641 13.1646 1029 140.844 414.492 450.489
51 0 79.2117 16.5001 1307 137.6 413.361 446.037
52 0 82.1996 15.3042 1258 143.483 411.853 442.271
53 0 85.1879 15.4013 1312 143.346 411.217 442.963
54 0 86.2682 14.849 1281 146.658 410.67 438.474
55 0 90.3955 15.4543 1397 144.488 409.823 436.853
56 0 91.2056 13.9356 1271 146.241 409.363 434.552
57 0 94.5302 14.8841 1407 145.555 409.313 428.95
58 1 51.3241 8.84575 454 147.544 410.804 454.143
59 0 53.1667 10.1567 540 147.6 410.198 452.7
60 0 55.0365 13.9907 770 137.11 409.595 449.225
61 0 58.1722 13.1334 764 137.045 411.766 445.347
62 0 61.2078 10.8646 665 138.805 412.111 446.43
63 0 60.3913 12.7833 772 134.488 412.763 442.206
64 0 62.2665 14.5664 907 126.845 414.778 443.132
65 0 70.8556 16.2443 1151 121.591 416.553 448.142
66 0 66.1336 10.9778 726 135.001 419.547 443.168
67 0 71.1711 16.5798 1180 124.799 420.338 442.014
68 0 74.319 16.6983 1241 121.966 421.622 446.716
69 0 73.3438 17.1112 1255 123.053 423.369 440.476
70 0 76.112 14.0451 1069 128.939 424.442 441.854
71 0 78.1469 14.8694 1162 135.591 424.472 440.886
72 0 79.2551 12.8825 1021 139.137 425.429 442.541
73 0 81.2116 15.3426 1246 138.431 424.612 437.288
74 0 82.2647 13.9914 1151 136.793 424.494 439.866
75 0 84.232 13.9139 1172 139.852 423.829 441.896
76 0 87.2538 16.2858 1421 136.775 422.667 440.645
77 0 88.2781 13.8086 1219 144.548 421.491 438.285
78 0 92.3989 15.8552 1465 146.786 420.504 438.935
79 1 47.0655 11.0484 520 147.46 419.606 463.363
80 0 51.1649 9.34234 478 148.774 418.799 461.176
81 0 52.2178 10.686 558 144.428 418.217 462.964
82 0 57.1752 12.2955 703 138.549 417.963 461.516
83 0 54.0888 10.6492 576 140.333 415.927 455.467
84 0 62.2899 12.1368 756 129.778 415.111 457.09
85 0 63.3976 15.5527 986 134.881 414.372 455.014
86 0 58.0418 13.9555 810 137.028 411.954 455.846
87 0 60.0379 15.84 951 136.034 410.994 452.954
88 0 63.1246 14.9704 945 136.188 410.428 451.85
89 0 62.1491 11.0862 689 141.53 409.714 448.589
90 0 64.1888 12.3386 792 142.004 408.872 446.394
91 0 67.2111 14.1346 950 135.363 408.752 445.498
92 0 72.2794 12.0643 872 138.115 408.671 445.547
93 0 70.1569 12.5148 878 138.11 409.18 441.462
94 0 74.343 14.7963 1100 129.637 408.789 447.422
95 0 73.1992 11.5029 842 137.728 409.634 442.227
96 0 76.4333 11.932 912 137.402 410.442 438.548
97 0 84.4211 17.0218 1437 125.252 411.285 439.516
98 0 81.2808 13.1642 1070 131.877 413.873 439.198
99 0 83.5388 12.4014 1036 131.002 416.284 440.344
100 0 87.1636 13.5951 1185 131.575 417.252 433.878
101 0 93.1763 21.1534 1971 118.246 418.692 435.605
102 0 93.2713 16.5431 1543 122.823 420.134 433.189
103 0 97.3219 13.3475 1299 125.45 421.401 435.48
104 1 54.4091 9.96157 542 121.889 421.967 459.411
105 0 57.8388 14.4194 834 114.177 423.11 458.451
106 0 52.0442 15.7366 819 118.357 423.924 456.379
107 0 53.0937 11.3384 602 124.654 424.502 456.556
108 0 55.0682 12.0759 665 128.22 423.958 457.28
109 0 58.157 18.9831 1104 119.462 423.398 456.216
110 0 58.157 19.1207 1112 131.297 423.393 456.252
111 0 61.1648 13.0467 798 135.357 422.863 454.393
112 0 60.2034 13.0723 787 133.262 422.629 456.396
113 0 63.2273 14.5191 918 135.748 421.207 455.266
114 0 66.0818 15.0874 997 134.706 420.474 455.683
115 0 68.3907 15.7185 1075 131.997 419.471 457.532
116 0 70.1584 14.4673 1015 136.892 418.046 454.699
117 0 70.1906 16.7829 1178 135.986 416.1 451.113
118 0 70.1906 16.7544 1176 132.296 415.112 451.024
119 0 72.2281 17.4724 1262 141.841 412.862 447.055
120 0 75.1364 15.6649 1177 143.025 410.912 450.394
121 0 76.3321 14.1487 1080 147.65 409.528 447.637
122 0 81.3443 15.2807 1243 142.539 407.855 448.983
123 0 80.1713 13.8578 1111 148.261 406.274 445.149
124 0 79.1941 13.549 1073 148.723 407.209 439.897
125 0 81.1423 12.4103 1007 152.56 406.218 438.964
126 0 86.1282 15.0241 1294 144.79 405.732 440.574
127 1 49.0663 10.924 536 147.576 407.998 457.075
128 0 48.0847 11.459 551 143.492 407.94 458.35
129 0 48.0374 9.80486 471 145.749 408.658 457.792
130 0 49.0468 11.6012 569 149.123 409.086 456.907
131 0 48.0275 10.4107 500 152.476 411.046 454.688
132 0 53.1729 11.7353 624 140.556 412.59 456.196
133 0 51.1919 13.2052 676 142.013 410.666 451.382
134 0 56.3029 13.6938 771 135.357 414.425 454.567
135 0 54.1289 13.6156 737 135.475 414.691 453.925
136 0 55.1688 12.4346 686 137.038 415.908 455.178
137 0 56.1028 15.935 894 129.53 417.457 455.681
138 0 53.0947 13.184 700 133.269 417.314 453.357
139 0 56.1725 12.4616 700 130.591 420.84 459.096
140 0 51.093 9.12061 466 140.775 420.59 457.833
141 0 54.0412 16.0618 868 128.749 420.139 463.234
142 0 54.0647 14.0202 758 134.277 420.942 459.426
143 0 53.1876 11.3184 602 145.269 420.329 459.286
144 0 53.1876 11.3372 603 140.652 419.327 459.327
145 0 53.17 11.5102 612 160.172 419.193 460.172
146 0 56.1439 12.3433 693 154.603 417.945 461.218
147 0 55.2944 13.3287 737 155.197 416.847 459.653
148 0 55.135 12.8593 709 157.032 416.217 462.44
149 0 54.1869 12.8444 696 158.211 414.391 461.224
150 0 52.0891 10.578 551 165.722 413.205 461.083
