time division length width area intensity CMx CMy
0 0 62.3959 20.5142 1280 121.478 662.405 443.666
1 0 61.3596 13.8039 847 127.391 662.929 443.515
2 0 61.3208 14.6606 899 137.987 664.018 443.043
3 0 61.3208 14.6769 900 137.232 664.998 443.262
4 0 61.3208 14.6769 900 136.911 665.998 443.262
5 0 69.3262 19.401 1345 121.58 665.67 441.361
6 0 75.7189 16.8254 1274 123.513 665.7 440.319
7 0 77.4861 20.0939 1557 121.592 665.195 437.355
8 0 79.2348 14.3245 1135 127.669 665.462 437.85
9 0 82.2259 13.7426 1130 127.882 663.925 438.28
10 0 86.4439 14.1363 1222 128.739 663.165 434.857
11 1 42.3734 10.9031 462 125.47 661.703 460.476
12 0 47.0903 14.228 670 122.746 662.227 460.851
13 0 46.1561 10.2695 474 136.262 660.677 458.646
14 0 48.0952 13.0782 629 135.014 660.064 457.394
15 0 49.5399 14.2713 707 143.419 657.318 459.69
16 0 49.3943 13.0177 643 155.748 655.888 454.947
17 0 51.2081 10.389 532 162.857 654.137 456.695
18 0 53.261 14.1379 753 153.457 653.38 454.178
19 0 54.3592 13.0245 708 157.475 652.452 452.244
20 0 57.4507 11.5751 665 158.017 652.029 453.394
21 0 58.2198 13.6036 792 156.346 650.282 448.851
22 0 62.3039 13.2095 823 155.617 649.245 447.026
23 0 61.225 13.7689 843 155.206 649.32 445.246
24 0 65.352 14.4754 946 153.455 649.076 442.841
25 0 66.2433 12.6956 841 157.941 648.961 441.315
26 0 71.2286 14.0533 1001 152.336 648.824 440.232
27 0 72.2272 13.6098 983 151.907 649.531 438.556
28 0 75.3155 13.2642 999 157.864 648.833 434.249
29 0 77.4787 11.3192 877 154.464 650.464 433.518
30 0 82.3053 13.0004 1070 146.228 653.34 434.791
31 1 46.3223 13.6651 633 129.536 656.885 452.283
32 0 46.0643 11.8747 547 129.265 657.505 451.38
33 0 43.0902 9.93264 428 124.484 659.348 450.757
34 0 51.6445 14.6579 757 114.046 660.682 453.931
35 0 51.0701 24.2999 1241 105.249 660.8 456.843
36 1 99.8636 19.6768 1965 115.921 662.507 436.501
37 1 48.1372 9.72221 468 115.791 664.513 458.521
38 0 55.1588 12.9807 716 112.223 664.07 459.994
39 0 53.4418 12.7054 679 114.096 664.256 459.094
40 0 53.3394 10.3488 552 115.565 663.942 461.112
41 0 54.8023 12.6637 694 114.863 663.785 461.546
42 0 51.3837 7.04503 362 123.086 663.569 462.715
43 0 60.4262 12.7594 771 124.851 661.805 455.048
44 0 60.2223 14.1476 852 136.41 661.054 453.721
45 0 62.2511 16.9957 1058 135.719 660.13 454.508
46 0 63.1575 13.9018 878 145.759 659.268 454.208
47 0 66.2122 14.9519 990 144.427 658.246 453.858
48 0 69.1584 14.474 1001 149.599 656.304 452.366
49 0 68.1638 12.558 856 162.965 654.148 449.637
50 0 72.2242 12.932 934 158.827 652.599 452.244
51 0 73.2735 14.0706 1031 158.962 651.029 446.703
52 0 75.3283 12.7309 959 162.694 650.658 446.105
53 0 80.2525 12.7971 1027 159.789 649.36 447.346
54 0 83.2289 14.6824 1222 157.399 648.25 443.26
55 0 85.2233 12.3088 1049 162.181 647.478 442.612
56 1 47.0176 13.8246 650 153.406 648.431 456.795
57 0 48.0151 11.4131 548 155.914 648.108 455.708
58 0 51.0864 12.8018 654 152.061 647.792 453.557
59 0 54.0618 14.8904 805 148.939 647.971 452.909
60 0 54.0488 14.4684 782 152.469 648.066 450.422
61 0 54.1337 14.8706 805 155.119 648.145 448.446
62 0 58.1263 14.761 858 149.695 648.855 449.524
63 0 60.095 13.8614 833 150.899 650.63 447.707
64 0 61.0828 15.5036 947 149.927 652.17 444.501
65 0 62.1375 13.5184 840 148.82 653.755 447.104
66 0 62.2323 13.4014 834 146.228 655.239 445.887
67 0 67.2519 13.8732 933 130.572 657.605 445.659
68 0 72.2326 15.8239 1143 123.37 659.019 445.101
69 0 71.4046 13.9767 998 126.354 660.217 443.143
70 0 75.1459 17.2464 1296 119.095 660.982 448.061
71 0 73.1601 14.7622 1080 120.612 661.119 446.506
72 0 81.8102 17.7484 1452 115.082 661.613 448.923
73 0 82.4044 12.9362 1066 121.062 661.433 449.498
74 0 81.168 16.5706 1345 118.432 661.114 447.729
75 0 85.2339 20.1328 1716 117.952 660.809 436.158
76 1 42.0407 10.8229 455 129.411 661.453 461.756
77 0 44.0313 12.6501 557 132.032 659.643 463.803
78 0 45.1685 16.9144 764 128.103 655.928 462.211
79 0 49.1441 13.145 646 134.441 655.108 461.201
80 0 46.1911 10.4566 483 142.106 654.594 462.681
81 0 51.2436 14.7336 755 137.861 652.862 461.972
82 0 52.2783 17.3877 909 132.649 651.496 459.361
83 0 51.1113 12.0521 616 144.891 650.812 460.907
84 0 55.2528 15.0038 829 139.756 648.381 458.42
85 0 56.1002 12.549 704 146.244 646.849 457.189
86 0 59.338 17.1897 1020 135.455 645.604 457.392
87 0 60.3617 14.9101 900 139.048 645.68 455.83
88 0 59.1966 13.1933 781 144.754 645.074 452.763
89 0 62.3043 11.813 736 148.322 644.613 452.31
90 0 64.124 13.6922 878 141.174 644.541 450.13
91 0 64.1588 12.3288 791 144.484 643.989 446.756
92 0 67.186 14.7352 990 140.794 644.021 446.456
93 0 72.1269 13.5317 976 140.283 644.332 442.575
94 0 72.1808 15.766 1138 136.837 644.307 440.148
95 0 72.2277 11.533 833 144.896 644.573 439.737
96 0 77.1564 14.166 1093 140.99 645.311 437.068
97 0 76.1557 11.6209 885 139.919 647.229 435.398
98 0 76.1557 11.5553 880 129.156 649.234 435.365
99 0 85.2437 12.7869 1090 132.962 649.295 433.953
100 0 87.2001 12.3394 1076 119.383 652.437 440.666
101 0 95.9275 18.9205 1815 112.458 654.453 430.369
102 0 97.476 17.9018 1745 108.39 655.76 439.737
103 0 99.4616 15.6241 1554 109.063 657.757 440.003
104 0 102.57 19.5769 2008 111.252 659.759 423.695
105 0 105.533 16.2129 1711 112.098 660.613 428.717
106 0 110.514 17.3552 1918 109.479 660.935 436.418
107 0 110.414 19.771 2183 108.569 660.435 436.645
108 1 174.236 12.0469 2099 120.435 659.112 403.972
109 1 120.231 16.4268 1975 115.168 659.867 419.121
110 0 124.703 8.18745 1021 118.338 659.03 440.287
111 1 65.7698 23.3694 1537 105.339 657.93 452.213
112 0 62.249 12.0163 748 117.493 658.421 453.984
113 0 65.3188 16.3506 1068 118.723 657.11 453.874
114 0 70.4645 13.3117 938 120.181 656.552 460.985
115 0 69.299 12.5399 869 132.455 654.023 452.999
116 0 71.3052 14.8376 1058 130.107 652.66 450.392
117 0 74.2969 13.0423 969 131.207 651.844 452.569
118 0 76.2344 13.2486 1010 139.982 650.216 447.949
119 1 40.0627 11.6068 465 132.241 650.237 468.198
120 0 39.1125 8.53947 334 140.47 648.838 466.746
121 0 38.0167 9.8904 376 137.468 647.348 464.471
122 0 43.1317 11.3142 488 132.717 646.342 465.059
123 0 44.0327 14.2394 627 127.215 645.482 463.179
124 0 45.0714 11.4707 517 135.458 644.453 459.095
125 0 48.0601 13.1502 632 129.685 643.807 458.72
126 0 43.0794 11.444 493 136.554 643.842 454.761
127 0 49.2188 13.247 652 127.903 643.597 456.821
128 0 48.1921 11.9522 576 131.351 643.604 455.8
129 0 51.1044 16.0064 818 124.033 644.311 455.216
130 0 50.1019 10.6583 534 133.927 645.948 451.706
131 0 52.1723 12.7846 667 126.736 648.292 450.682
132 0 57.0917 16.9202 966 117.116 648.099 448.734
133 0 61.2725 12.6158 773 117.158 651.04 453.203
134 0 58.2826 14.567 849 118.869 652.986 451.581
135 0 63.5114 15.1626 963 114.65 654.56 446.933
136 0 64.2318 21.5937 1387 105.913 655.084 453.596
137 0 65.2486 12.3987 809 113.623 657.224 455.435
138 0 69.158 12.1461 840 113.082 657.794 455.504
139 1 148.871 17.2431 2567 120.284 657.494 415.704
140 1 75.339 18.5694 1399 111.02 657.921 454.259
141 0 75.2381 16.4677 1239 115.113 657.826 449.897
142 0 76.3149 17.6506 1347 117.526 657.245 447.569
143 0 81.9948 20.733 1700 114.938 657.462 441.3
144 0 78.1288 13.5033 1055 131.011 656.294 447.776
145 0 83.3299 12.0965 1008 133.947 655.56 448.67
146 0 86.3148 14.5746 1258 131.021 654.459 449.622
147 0 88.1161 13.8 1216 132.566 653.304 444.284
148 0 91.2985 14.4581 1320 133.914 651.874 447.527
149 0 95.2587 15.0852 1437 135.614 650.342 439.855
150 1 51.0548 11.6933 597 135.893 649.218 462.194
151 0 55.3821 11.8089 654 135.142 647.948 462.078
152 0 56.2159 12.4698 701 130.916 646.451 460.395
153 0 58.2063 14.0191 816 128.506 644.642 458.534
154 0 58.2041 13.5386 788 131.883 642.675 458.231
155 0 59.1851 13.0438 772 134.35 642.736 455.228
156 0 61.3013 12.6751 777 137.539 641.717 454.073
157 0 63.2127 14.2376 900 132.6 642.634 453.848
158 0 63.3219 12.6023 798 138.31 642.019 449.811
159 0 67.3773 13.0014 876 138.634 641.1 447.389
160 0 70.1734 14.2789 1002 131.651 641.166 448.076
161 0 76.412 16.3456 1249 124.136 642.207 449.487
162 0 74.5574 13.6807 1020 128.775 642.298 444.188
163 0 76.163 14.062 1071 127.022 642.262 442.88
164 0 78.5789 14.6986 1155 124.604 643.71 437.163
165 0 84.2598 16.7933 1415 118.484 645.895 438.367
166 0 82.2681 12.7388 1048 132.077 647.284 443.052
167 1 46.5052 11.5041 535 118.729 650.316 454.135
168 0 49.2266 17.328 853 109.558 652.604 456.905
169 0 51.1897 10.9006 558 114.892 654.362 456.729
170 0 52.1862 16.4028 856 110.41 655 452.417
171 0 52.1862 16.077 839 129.623 656.039 452.306
172 0 54.7941 12.0998 663 114.979 656.143 454.95
173 0 61.7044 19.2855 1190 108.588 656.003 451.034
174 0 60.0686 16.1982 973 109.775 656.983 459.375
175 0 62.4618 17.4026 1087 111.816 656.246 453.779
176 0 63.4909 11.2457 714 117.578 653.048 460.578
177 0 65.2839 18.2128 1189 110.96 652.625 459.675
178 0 66.2942 19.7152 1307 109.354 652.568 464.375
179 0 68.1103 14.9023 1015 119.231 651.82 456.734
180 0 69.2312 13.101 907 124.571 650.432 457.077
181 0 70.3414 17.3724 1222 123.386 649.845 452.672
182 0 73.2826 17.0846 1252 125.322 648.098 453.457
183 0 74.1337 16.5512 1227 129.029 647.35 452.985
184 0 79.3005 16.7969 1332 127.114 645.735 455.294
185 0 78.1123 13.6598 1067 136.663 643.787 449.605
186 0 84.4685 16.4914 1393 129.789 642.75 449.438
187 0 82.1212 13.8576 1138 144.301 641.104 445.153
188 0 85.1891 14.0746 1199 137.353 640.606 445.902
189 0 89.3091 15.5303 1387 136.273 638.413 440.753
190 0 89.2341 12.1702 1086 144.143 637.232 437.902
191 0 94.1814 13.2723 1250 139.24 637.982 435.64
192 0 97.2884 14.5341 1414 137.414 638.065 435.007
193 0 100.386 14.7231 1478 138.571 637.482 430.457
194 0 103.401 12.408 1283 140.408 636.585 431.529
195 0 108.561 13.025 1414 137.782 639.708 427.557
196 0 110.475 14.863 1642 134.593 640.563 424.27
197 1 61.3868 12.5597 771 127.071 639.162 446.271
198 0 59.2701 8.62154 511 127.863 641.493 456.129
199 0 65.2034 11.7172 764 123.552 641.546 454.152
200 0 66.1779 17.0601 1129 120.363 642.891 447.653
201 0 68.2612 13.712 936 117.274 645.261 453.554
202 0 70.1604 14.8659 1043 116.999 647.528 447.853
203 0 70.1604 14.8659 1043 134.89 649.5 448.058
204 0 75.3974 17.494 1319 112.484 650.857 445.247
205 0 76.1606 18.3953 1401 109.764 652.193 450.526
206 0 78.2209 12.2346 957 114.824 652.152 452.736
207 0 80.1233 15.0768 1208 113.458 652.941 448.33
208 0 87.4647 17.2069 1505 112.588 652.409 445.138
209 0 84.3512 14.3448 1210 115.451 651.454 447.422
210 0 91.3485 14.0889 1287 117.495 652.033 435.256
211 1 50.1433 13.601 682 115.625 650.63 464.814
212 0 54.1093 14.1011 763 116.304 650.448 464.63
213 0 52.0485 13.8717 722 119.532 652.454 461.662
214 0 58.284 11.7871 687 119.721 652.635 462.892
215 0 55.3176 13.07 723 119.538 650.766 463.127
216 0 58.5737 15.6384 916 119.098 649.684 459.257
217 0 60.3709 13.9306 841 125.073 648.341 460.699
218 0 61.3025 13.8004 846 125.056 647.116 460.533
219 0 63.4255 15.8138 1003 126.583 645.244 451.283
220 0 63.3133 14.4046 912 127.007 644.586 454.48
221 0 65.2892 13.0956 855 131.002 643.096 456.461
222 0 65.2265 14.166 924 132.489 641.702 450.653
223 0 67.2522 12.6836 853 135.625 641.001 449.566
224 0 70.5109 13.0618 921 134.989 640.847 448.906
225 0 71.3481 14.7446 1052 132.351 640.282 448.733
226 0 73.4167 15.1737 1114 133.181 639.67 444.757
227 0 74.2796 15.1859 1128 136.096 639.543 443.434
228 0 78.2539 17.0854 1337 133.405 639.415 440.625
229 0 79.4397 16.201 1287 134.305 639.881 438.327
230 0 84.7019 14.9583 1267 136.067 640.977 438.922
231 0 84.5878 14.0919 1192 134.147 640.929 437.767
232 1 47.4219 14.255 676 121.747 644.068 458.938
233 0 48.1051 13.2418 637 128.11 645.575 457.075
234 0 50.1398 11.1688 560 124.679 647.082 459.452
235 0 48.1014 12.931 622 126.241 649.153 453.19
236 0 48.1014 12.9934 625 135.365 651.146 453.098
237 0 54.2082 13.2268 717 120.413 652.589 453.615
238 0 56.1762 13.7425 772 119.201 654.439 454.966
239 0 57.3292 15.7511 903 115.447 656.101 460.899
240 0 56.0589 16.3043 914 116.399 655.782 456.234
241 0 61.4673 13.5682 834 113.113 656.258 459.083
242 0 60.1195 12.8744 774 118.11 655.791 458.879
243 0 63.1628 14.3755 908 120.779 654.964 456.384
244 0 59.0816 11.628 687 126.978 650.598 460.15
245 0 63.0913 17.546 1107 120.752 650.173 457.241
246 0 65.1083 16.5878 1080 125.31 649.161 456.156
247 0 65.0905 16.4079 1068 125.542 647.739 456.39
248 0 70.4124 16.5738 1167 126.08 646.737 456.327
249 0 69.1199 11.8779 821 136.418 645.136 454.85
250 0 72.1076 11.9266 860 137.549 644.343 454.157
251 0 77.1612 13.5042 1042 133.891 643.497 452.936
252 1 41.0084 10.6807 438 138.174 641.607 467.655
253 0 45.0933 13.2392 597 130.538 640.256 468.729
254 0 44.1134 11.7878 520 137.104 638.627 463.027
255 0 43.0693 9.63564 415 144.048 637.822 462.518
256 0 49.116 16.5323 812 124.534 638.224 462.734
257 0 48.135 18.0118 867 116.112 637.271 462.421
258 0 46.0253 10.6246 489 133.65 638.54 461.487
259 0 48.0868 11.916 573 133.066 640.073 459.679
260 0 51.0699 11.9444 610 130.866 639.969 457.328
261 0 51.1123 10.9954 562 131.278 639.923 454.916
262 0 53.1345 12.0825 642 127.224 638.659 457.192
263 0 52.1135 10.3812 541 134.089 638.213 452.299
264 1 111.574 12.494 1394 134.43 638.798 425.032
265 0 114.356 13.7903 1577 133.066 640.251 417.179
266 0 121.513 13.2167 1606 131.265 642.161 419.84
267 0 120.918 11.7269 1418 132.032 643.841 419.438
268 0 127.465 16.0123 2041 127.803 645.851 413.754
269 0 133.717 14.6728 1962 124.398 647.446 419.945
270 0 138.96 16.4436 2285 122.778 649.602 405.1
271 0 139.435 9.2516 1290 129.23 650.261 419.978
272 1 75.3516 16.2173 1222 118.764 651.924 447.318
273 0 75.3344 11.2167 845 124.693 652.12 451.811
274 0 79.3672 14.54 1154 126.197 652.123 445.272
275 0 82.1922 17.8849 1470 119.592 652.033 451.208
276 0 84.2413 13.9005 1171 131.963 652.108 444.939
277 1 48.0842 11.3967 548 137.765 650.849 463.558
278 0 51.0552 14.3374 732 125.202 653.448 463.678
279 0 50.1956 12.1325 609 126.632 651.202 465.304
280 0 52.0783 16.936 882 121.133 651.824 460.762
281 0 54.0496 13.3951 724 127.456 651.113 463.327
282 0 55.0545 14.2404 784 126.872 650.533 460.807
283 0 58.1786 16.9134 984 122.947 648.948 459.511
284 0 57.0483 11.7444 670 136.613 647.631 459.334
285 0 60.1475 13.9823 841 133.32 645.95 458.892
286 0 64.1312 14.829 951 129.766 644.551 457.142
287 0 64.117 13.179 845 133.888 643.4 456.798
288 0 67.1289 13.0197 874 133.129 641.748 456.129
289 0 68.1165 13.8146 941 133.671 639.849 449.586
290 0 73.1721 14.8554 1087 128.173 639.431 449.962
291 0 75.2473 13.0503 982 131.627 639.445 448.24
292 1 41.0758 10.1033 415 133.954 639.923 462.81
293 0 40.0987 10.3744 416 133.147 639.625 464.49
294 0 39.048 8.8865 347 134.666 639.527 464.68
295 0 44.0839 9.95829 439 133.303 640.046 460.13
296 0 46.0169 12.039 554 131.368 640.105 457.377
297 0 46.0287 8.23399 379 135.182 642.277 460.414
298 0 48.1343 11.3848 548 130.765 643.339 456.901
299 0 52.1066 15.3915 802 124.879 644.939 453.663
300 0 51.0694 11.7291 599 129.067 646.818 453.127
301 0 53.0649 13.6813 726 121.161 648.621 457.41
302 0 54.1733 13.5491 734 121.717 650.849 453.282
303 0 55.1208 11.7379 647 124.556 652.682 454.085
304 0 57.2247 12.3373 706 122.448 654.004 452.667
305 0 59.0884 11.5759 684 122.702 654.009 455.904
306 0 59.0884 11.4405 676 119.963 655.036 456.052
307 0 62.3505 14.7874 922 118.593 655.773 456.108
308 0 64.0948 10.9681 703 128.565 655.474 453.283
309 0 69.2288 16.2649 1126 120.568 654.787 450.903
310 0 69.4028 17.4345 1210 121.343 653.578 449.207
311 0 71.2912 17.3233 1235 123.015 653.876 449.507
312 0 71.2512 14.4699 1031 130.801 653.613 450.323
313 0 74.2536 13.1037 973 135.434 651.841 452.946
314 0 75.1624 11.1226 836 138.287 651.013 450.797
315 0 76.4158 12.733 973 139.749 649.544 447.99
316 0 84.3835 15.157 1279 131.59 648.578 444.816
317 0 85.2682 11.1882 954 137.456 647.178 450.405
318 0 88.3095 14.5737 1287 133.304 645.204 442.756
319 0 91.3001 15.345 1401 130.869 644.13 443.903
320 0 95.2794 14.7251 1403 132.491 642.406 438.449
321 1 49.0924 13.3218 654 132.535 642.943 459.492
322 0 51.0979 9.33501 477 139.562 641.82 454.239
323 0 51.1253 8.52808 436 136.534 640.959 461.264
324 0 56.0939 9.19887 516 135.882 639.928 455.946
325 0 58.2421 10.2847 599 134.224 637.539 454.102
326 0 58.3731 12.0604 704 129.3 636.727 448.732
327 0 55.2394 12.1109 669 126.614 637.667 439.031
328 0 61.2605 11.9653 733 127.958 637.644 441.113
329 0 58.1158 10.4963 610 126.657 636.415 441.854
330 0 62.1062 9.66087 600 128.245 637.982 443.427
331 0 67.1759 12.4152 834 121.267 640.017 439.319
332 0 69.1742 13.7768 953 116.409 641.318 440.28
333 1 142.22 16.1159 2292 116.495 643.654 411.158
334 0 143.778 12.0951 1739 123.825 646.424 401.889
335 1 329.42 33.2524 10954 108.226 645.693 296.261
336 0 332.494 34.5781 11497 107.327 647.691 300.024
337 1 86.6615 20.7012 1794 104.346 650.529 439.824
338 0 88.621 7.81982 693 114.04 651.773 443.442
339 0 91.2657 21.6511 1976 107.469 651.217 436.528
340 0 90.3774 13.8973 1256 117.111 652.197 429.515
341 0 97.5359 15.0611 1469 116.867 652.64 432.85
342 0 99.5305 13.8048 1374 121.574 652.06 430.638
343 0 102.421 13.7472 1408 125.153 651.368 434.615
344 0 104.573 11.3605 1188 131.59 650.635 436.493
345 1 57.2781 11.6624 668 123.6 650.513 459.241
346 0 60.3875 11.0288 666 127.575 648.949 457.143
347 0 64.4009 10.4812 675 127.547 648.527 458.046
348 0 63.3057 13.0004 823 133.236 648.264 453.601
349 0 64.1103 10.9967 705 138.326 644.146 453.664
350 0 65.0564 10.0682 655 137.337 643.212 451.067
351 0 67.1344 10.0247 673 136.324 641.893 447.832
352 0 71.1456 14.2665 1015 128.56 640.507 448.171
353 0 74.1147 12.3592 916 130.551 639.145 447.684
354 0 75.1582 13.0658 982 137.235 637.825 446.51
355 0 80.19 14.3784 1153 132.646 637.301 444.245
356 0 79.1236 12.9544 1025 135.278 636.48 441.193
357 0 82.2475 12.4137 1021 136.976 636.016 438.932
358 0 84.1944 12.8512 1082 136.25 635.492 434.453
359 0 85.1727 12.234 1042 138.748 635.913 437.047
360 0 87.2319 11.1886 976 141.016 636.416 428.007
361 0 93.246 14.8746 1387 131.857 637.071 430.25
362 1 49.4788 8.69059 430 131.358 637.358 454.23
363 0 51.1349 8.6047 440 130.848 638.834 454.73
364 0 53.0549 12.7415 676 123.382 640.084 451.377
365 0 55.0774 13.0362 718 124.305 639.613 450.414
366 0 55.0774 12.9454 713 122.823 640.561 450.365
367 0 59.0983 14.7551 872 129.497 642.206 454.162
368 0 60.2 13.4385 809 128.805 644.145 454.653
369 0 62.0622 11.279 700 130.766 646.107 454.873
370 0 62.1444 13.7905 857 130.267 648.007 455.664
371 0 65.1125 15.1737 988 126.144 648.688 452.355
372 0 66.0385 17.2627 1140 122.734 649.544 455.598
373 0 70.1826 16.4001 1151 118.228 649.603 455.109
374 0 70.1799 12.183 855 130.819 649.366 456.681
375 0 73.172 17.7254 1297 121.593 650.062 457.325
376 0 75.377 18.6662 1407 124.667 650.192 453.81
377 0 75.2817 15.1033 1137 136.943 649.622 451.658
378 0 80.1382 14.6996 1178 137.666 649.169 451.873
379 0 80.2599 16.3593 1313 136.097 648.526 450.869
380 0 85.2417 17.9372 1529 133.048 647.458 453.491
381 0 86.1655 15.1917 1309 140.822 646.818 444.332
382 0 87.1213 16.3221 1422 139.584 645.334 445.951
383 1 48.0417 8.76322 421 148.701 643.411 464.99
384 0 49.1232 12.2956 604 141.187 641.947 463.81
385 0 50.0882 12.8174 642 136.343 641.025 463.151
386 0 49.0299 12.0743 592 141.22 639.434 460.6
387 0 56.4561 13.8515 782 132.627 639.634 460.506
388 0 53.3833 11.8202 631 138.758 638.571 457.675
389 0 55.3475 11.2381 622 137.548 637.895 459.461
390 0 54.4331 11.2432 612 141.649 637.095 453.24
391 0 59.337 14.3755 853 134.868 636.678 451.576
392 0 60.0671 15.2163 914 132.43 635.241 453.478
393 0 62.0804 13.112 814 139.303 634.158 452.946
394 0 65.1325 17.3953 1133 130.741 635.59 447.72
395 0 69.0809 17.0235 1176 130.213 636.157 451.058
396 0 71.1418 17.9782 1279 127.271 636.511 451.267
397 0 68.0949 12.8644 876 139.728 637.411 444.048
398 0 71.1792 17.182 1223 129.869 638.524 449.699
399 0 75.1592 15.9262 1197 130.559 640.401 444.573
400 0 81.2171 17.484 1420 125.811 643.252 443.376
401 0 80.2069 16.7816 1346 128.403 648.184 441.134
