time division length width area intensity CMx CMy
0 0 56.0674 20.0295 1123 106.385 1127.64 446.836
1 0 57.2389 16.7544 959 112.625 1128.46 434.66
2 0 61.1715 20.9902 1284 108.413 1128.37 441.026
3 0 71.1139 19.757 1405 105.498 1129.72 449.374
4 0 66.3027 20.8589 1383 109.469 1129.51 442.97
5 0 68.2868 7.84925 536 117.728 1130.48 446.744
6 0 70.2514 10.6617 749 115.294 1130.09 445.698
7 0 75.8187 20.7996 1577 108.844 1128.99 442.455
8 0 75.3597 7.35141 554 114.327 1125.3 451.735
9 0 78.1062 12.3806 967 109.602 1125.09 449.693
10 1 156.643 20.9521 3282 117.04 1124.86 394.782
11 1 252.825 24.4991 6194 114.9 1123.27 375.095
12 1 90.8949 15.0173 1365 112.662 1122.3 444.357
13 0 87.2968 12.257 1070 116.285 1120.99 443.763
14 0 90.255 19.046 1719 110.396 1120.54 445.23
15 0 90.5099 17.9096 1621 115.315 1119.3 441.64
16 0 90.4145 21.2908 1925 119.516 1118.11 415.637
17 0 96.7398 17.9037 1732 121.357 1116.87 433.381
18 1 49.1825 10.9388 538 129.485 1114.79 454.297
19 0 49.1689 13.1994 649 130.442 1113.92 447.194
20 0 50.2344 12.7403 640 130.33 1114.16 447.594
21 0 55.3199 12.3464 683 135.659 1111.97 447.082
22 0 58.0456 13.0587 758 134.93 1112.58 447.662
23 0 60.2262 14.6614 883 132.601 1111.97 447.404
24 0 62.2389 18.429 1147 126.19 1112.23 443.71
25 0 61.2497 13.4368 823 137.303 1111.64 441.187
26 0 68.5271 14.5344 996 131.846 1113.03 443.71
27 0 69.4898 16.6643 1158 126.161 1113.12 442.115
28 0 72.3921 19.6568 1423 122.57 1113.39 438.71
29 0 71.3329 11.4113 814 129.986 1115.05 436.15
30 0 77.7186 16.8814 1312 117.068 1116.85 435.655
31 0 79.6015 16.658 1326 113.489 1118.31 437.508
32 0 81.4825 18.9734 1546 108.154 1120.33 438.89
33 0 82.1752 20.6267 1695 107.891 1121.45 433.727
34 0 89.4155 16.6079 1485 109.69 1123.07 434.532
35 0 83.2885 6.79566 566 117.504 1125.66 439.318
36 0 99.6675 26.6085 2652 103.261 1124.86 432.735
37 0 102.995 18.1853 1873 108.88 1126.07 419.883
38 0 102.995 18.4669 1902 132.835 1127.06 420.06
39 0 102.981 14.022 1444 136.153 1128.18 424.934
40 0 107.458 25.0982 2697 103.104 1126.16 435.136
41 0 107.483 12.9137 1388 113.899 1125.84 428.104
42 0 109.456 13.5945 1488 114.465 1125.4 423.836
43 0 114.782 23.1395 2656 106.832 1124.18 431.851
44 1 57.1882 10.3693 593 109.96 1125.4 458.801
45 0 60.4225 13.538 818 103.664 1123.95 465.99
46 0 65.3097 17.4553 1140 102.309 1122.83 463.078
47 0 62.756 11.2181 704 111.584 1121.73 450.558
48 0 66.7292 13.3824 893 108.719 1119.96 460.228
49 0 68.1436 16.0543 1094 111.611 1117.78 452.444
50 0 70.5238 16.264 1147 117.462 1116.63 452.03
51 0 71.4132 14.2271 1016 119.713 1115.95 456.239
52 0 72.3174 13.7864 997 128.655 1114.39 449.447
53 0 75.2616 14.4297 1086 132.416 1113.3 444.428
54 0 79.3673 14.6786 1165 129.878 1113.21 443.639
55 1 43.0921 12.1136 522 133.481 1113.17 461.736
56 0 44.0367 11.1044 489 141.859 1111.18 459.364
57 0 43.024 11.389 490 136.896 1110.76 459.235
58 0 47.0748 8.32716 392 141.497 1110.38 459.352
59 0 48.1474 10.364 499 134.671 1110.86 459.228
60 0 49.1552 13.142 646 134.197 1109.13 453.859
61 0 51.0592 13.7683 703 126.842 1110.39 456.865
62 0 54.067 15.5733 842 124.926 1111.74 452.4
63 0 54.2198 14.5519 789 122.21 1113.11 450.477
64 0 57.3428 16.8809 968 116.035 1115.1 451.699
65 0 61.9476 25.1341 1557 102.171 1116.57 456.146
66 0 67.2464 24.15 1624 100.776 1118.88 454.087
67 0 63.445 13.5393 859 113.059 1122.53 449.56
68 0 62.5569 15.1382 947 111.749 1123.72 447.677
69 0 65.6492 22.7573 1494 101.282 1123.88 458.572
70 0 70.7056 18.2871 1293 107.476 1125.27 452.585
71 0 69.2971 24.1569 1674 102.381 1125.77 456.521
72 0 73.4758 22.4564 1650 106.568 1126.17 445.684
73 0 73.5262 14.9335 1098 110.95 1126.48 452.897
74 0 77.3306 11.2633 871 112.29 1126.92 455.44
75 0 78.392 34.7229 2722 100.687 1125.57 448.519
76 0 86.5502 16.4875 1427 110.651 1124.27 448.935
77 0 90.0081 25.7199 2315 103.451 1123.1 452.402
78 0 88.2558 12.5658 1109 113.315 1122.31 452.51
79 0 97.9798 15.8298 1551 114.365 1121.8 438.376
80 0 97.4101 20.4086 1988 108.622 1119.81 445.519
81 1 54.5382 17.1806 937 108.232 1117.55 458.247
82 0 52.3157 17.4326 912 111.182 1117.42 464.26
83 0 57.5722 16.7963 967 117.125 1117.24 459.841
84 0 60.4508 16.592 1003 112.44 1115.74 459.392
85 0 58.2967 21.2705 1240 111.357 1114.45 460.471
86 0 58.157 19.2754 1121 121.684 1112.78 456.838
87 0 62.3564 18.7792 1171 117.999 1112.2 460.842
88 0 61.1874 13.9898 856 129.078 1111.69 453.821
89 0 64.1382 12.6446 811 131.72 1111.1 453.084
90 0 68.1778 14.5062 989 127.981 1110.28 452.256
91 0 68.4697 13.1445 900 131.51 1110.43 447.709
92 0 71.3115 13.3359 951 131.452 1110.15 445.179
93 0 76.3058 23.93 1826 113.984 1109.64 449.879
94 0 78.1745 13.9943 1094 131.064 1109.61 441.749
95 0 78.2918 11.6232 910 129.512 1110.73 443.025
96 0 84.3348 15.059 1270 125.092 1108.79 432.161
97 0 89.5746 12.3807 1109 131.206 1111.02 438.395
98 0 91.871 15.3803 1413 122.711 1113.04 430.318
99 0 95.8308 16.9048 1620 115.522 1114.75 434.136
100 0 100.367 16.7884 1685 110.222 1117.51 441.085
101 1 54.2509 16.5159 896 110.545 1119.3 432.721
102 0 58.512 13.587 795 111.391 1122.02 443.036
103 0 61.9143 19.5916 1213 100.341 1122.59 463.553
104 0 54.1969 12.5838 682 110.934 1124.04 458.872
105 0 61.3771 28.6426 1758 100.544 1123.04 457.268
106 0 64.2926 14.4962 932 109.423 1124.33 457.106
107 0 65.3449 20.5219 1341 101.88 1124.65 464.943
108 0 61.3246 14.1379 867 113.551 1125.49 453.765
109 1 125.308 18.6899 2342 115.564 1123.56 425.967
110 0 134.678 26.0176 3504 110.418 1122.58 426.622
111 0 135.94 22.3775 3042 114.585 1122.07 420.418
112 1 74.7491 21.7126 1623 108.208 1122.03 457.589
113 0 74.1858 16.4856 1223 114.448 1121.53 452.899
114 0 74.1858 16.2565 1206 140.961 1120.48 452.718
115 0 76.1908 22.5618 1719 111.581 1118.74 450.863
116 1 42.0584 11.0798 466 121.966 1118.8 467.783
117 0 41.1365 10.1127 416 126.627 1117.1 467.577
118 0 44.062 11.9377 526 127.808 1115.28 462.384
119 0 43.3354 12.161 527 140.028 1112.5 467.577
120 0 45.0279 16.1456 727 129.095 1112.06 464.385
121 0 47.1138 12.7776 602 132.189 1109.84 460.193
122 0 48.0847 14.5785 701 135.759 1109.24 463.676
123 0 50.121 16.959 850 133.093 1107.63 460.167
124 0 51.1783 18.9729 971 130.811 1107.81 457.909
125 0 51.2687 13.9071 713 146.171 1107.5 456.606
126 0 52.1396 15.0366 784 137.793 1105.98 453.019
127 0 57.0673 13.2125 754 137.715 1105.49 453.869
128 0 56.146 16.4393 923 136.326 1106.76 451.609
129 0 59.1889 14.5466 861 135.553 1106.37 449.691
130 0 59.1439 18.5142 1095 123.335 1108.33 454.991
131 0 62.0926 16.4593 1022 124.226 1109.34 449.507
132 0 68.3261 16.7725 1146 119.356 1110.58 448.988
133 0 69.3675 18.3804 1275 114.121 1112.42 449.273
134 0 73.2263 26.5205 1942 107.153 1114.97 444.811
135 0 74.4297 29.3297 2183 103.627 1116.88 449.93
136 0 74.1256 17.7267 1314 109.817 1119.47 453.88
137 0 79.3454 26.769 2124 105.696 1120.37 444.43
138 0 80.4611 21.0039 1690 105.354 1121.25 456.54
139 0 86.6443 26.7761 2320 105.741 1121.41 442.33
140 0 88.2173 16.6974 1473 110.151 1121.54 450.966
141 0 88.2173 16.9468 1495 141.01 1120.53 451.064
142 1 43.124 11.7568 507 113.927 1119.39 462.215
143 0 46.1463 15.1258 698 138.696 1119.24 464.805
144 0 54.8727 22.2515 1221 102.16 1119.9 469.66
145 0 57.306 20.8355 1194 102.903 1119.33 471.253
146 0 48.0651 12.3166 592 111.189 1118.3 471.669
147 0 51.1074 9.68548 495 117.218 1117.55 468.327
148 0 55.101 12.341 680 114.682 1116.31 468.193
149 0 58.3794 17.7289 1035 110.941 1114.82 464.961
150 0 57.2039 14.2123 813 117.833 1113.72 462.629
151 0 61.3177 20.777 1274 109.376 1112.12 466.328
152 0 63.2211 16.9564 1072 116.686 1110.55 463.799
153 0 61.1208 24.1162 1474 110.733 1109.05 465.798
154 0 63.2656 14.8896 942 127.37 1107.53 456.075
155 0 64.1469 13.5782 871 129.104 1105.58 450.692
156 0 69.4611 17.3334 1204 125.6 1104.9 450.205
157 0 69.3309 18.3324 1271 125.696 1104.77 446.083
158 0 69.327 18.2469 1265 143.006 1103.74 445.971
159 0 75.3001 16.919 1274 127.422 1103.77 442.949
160 0 78.4102 14.2328 1116 128.368 1104.59 442.22
161 0 83.54 16.9021 1412 123.809 1104.56 440.336
162 0 83.3768 20.5933 1717 117.754 1105.24 438.959
163 0 87.598 15.2857 1339 121.928 1105.59 437.923
164 0 93.7935 13.3165 1249 123.926 1106.64 434.376
165 0 94.52 15.6581 1480 117.327 1109.03 438.975
166 0 96.373 24.7787 2388 110.381 1109.63 433.033
167 0 96.2826 14.769 1422 115.043 1111.37 436.196
168 0 104.343 17.8162 1859 110.552 1112.66 442.223
169 0 110.718 17.3685 1923 113.048 1114.5 435.524
170 0 109.711 22.5866 2478 111.503 1115.62 427.112
171 0 117.331 30.6739 3599 104.236 1116.33 435.659
172 1 63.3104 13.5681 859 113.707 1116.19 454.456
173 0 65.0771 16.6572 1084 107.091 1117.26 463.254
174 0 67.1611 21.9174 1472 102.272 1116.51 465.408
175 0 64.4076 14.1598 912 112.323 1117.27 458.115
176 0 71.8712 20.3698 1464 106.773 1116.68 459.443
177 0 70.4089 16.603 1169 113.226 1116.5 449.829
178 0 72.2853 20.4468 1478 109.468 1115.83 459.314
179 0 74.1464 16.926 1255 113.88 1114.54 451.437
180 0 74.76 24.1841 1808 107.585 1113.81 459.298
181 0 77.1414 12.3799 955 118.825 1112.76 455.88
182 0 81.4286 20.9386 1705 110.937 1112.46 455.831
183 0 80.3039 17.0228 1367 108.094 1111.31 461.804
184 0 81.2945 18.7221 1522 114.266 1109.96 449.459
185 0 86.6586 20.8404 1806 110.409 1108.47 455.701
186 0 86.3436 14.8129 1279 122.271 1107.07 448.088
187 0 91.3974 18.2828 1671 123.923 1106 443.211
188 0 92.3023 16.3051 1505 126.79 1104.74 440.231
189 0 99.4126 17.0401 1694 126.067 1104.19 440.147
190 0 99.6444 20.6033 2053 122.756 1104.13 438.714
191 0 103.487 16.5914 1717 127.803 1103.31 434.74
192 0 103.487 16.5624 1714 152.918 1102.35 434.826
193 1 57.2406 12.7357 729 128.17 1102.52 457.134
194 0 67.9198 15.4447 1049 119.857 1103.51 456.534
195 0 60.3404 13.4736 813 128.274 1102.96 453.204
196 0 66.7253 17.7444 1184 121.484 1103.9 447.033
197 0 67.2465 15.3317 1031 120.843 1105.81 446.467
198 0 70.3228 14.1917 998 119.169 1107.2 447.402
199 0 76.8426 24.0882 1851 108.879 1108.63 444.308
200 0 75.4011 21.3922 1613 107.83 1110 450.634
201 0 76.2197 24.39 1859 105.584 1111.37 449.084
202 0 86.5875 24.5417 2125 104.315 1113.09 446.76
203 0 82.6684 20.8786 1726 108.685 1115.48 439.17
204 0 87.275 16.8777 1473 111.039 1116.86 439.236
205 0 88.38 21.1813 1872 105.804 1117.74 448.258
206 0 92.4532 15.3375 1418 111.705 1118.04 438.586
207 0 93.6611 20.3927 1910 108.881 1117.9 435.871
208 0 94.8488 14.6654 1391 106.656 1117.94 454.386
209 0 98.7255 25.1911 2487 105.512 1117.33 443.144
210 0 109.456 23.2697 2547 106.781 1117.61 438.566
211 0 108.718 19.8863 2162 109.108 1117.27 438.079
212 0 108.557 22.4583 2438 107.616 1116.76 439.222
213 1 57.5783 10.8027 622 108.752 1114.95 467.28
214 0 61.3301 15.0497 923 104.18 1113.98 464.419
215 0 66.3238 20.3396 1349 99.642 1112.81 462.961
216 0 62.151 6.70946 417 109.405 1112.47 466.571
217 0 65.2527 10.513 686 103.936 1111.14 469.761
218 0 70.1382 13.8584 972 108.18 1109.76 456.773
219 0 69.5045 12.92 898 110.2 1108.46 458.716
220 0 74.4936 17.7196 1320 110.098 1107.44 450.495
221 0 74.2605 14.0182 1041 113.605 1106.09 453.827
222 0 76.3513 15.1667 1158 114.692 1104.51 450.283
223 0 78.1743 16.169 1264 115.961 1104.06 449.744
224 0 80.2966 14.6332 1175 123.923 1103.86 445.008
225 0 84.304 17.1048 1442 121.374 1103.26 442.064
226 0 85.2891 17.1065 1459 120.971 1103.33 440.393
227 0 88.3876 14.0178 1239 124.584 1103.11 438.487
228 0 90.3158 17.8817 1615 119.619 1102.8 438.645
229 0 94.3465 14.6057 1378 120.41 1103.78 439.659
230 0 97.79 19.3476 1892 116.504 1104.06 425.868
231 0 99.5702 17.3144 1724 115.767 1104.77 422.33
232 0 100.678 14.7401 1484 114.927 1106.97 428.672
233 0 107.918 24.1015 2601 105.574 1107.86 427.785
234 0 115.616 19.1063 2209 107.153 1109.97 424.622
235 1 64.3144 18.0675 1162 101.121 1111.2 449.88
236 0 62.293 24.449 1523 96.7321 1113.13 454.122
237 0 68.5326 25.3018 1734 96.7884 1113.63 446.722
238 0 59.4685 23.8614 1419 97.5941 1115.63 447.357
239 0 74.5678 18.2653 1362 95.4244 1118.23 457.14
240 0 74.5678 18.3591 1369 126.385 1120.13 457.381
241 1 79.2466 21.553 1708 96.7318 1118.69 454.357
242 0 87.0378 19.842 1727 98.4007 1117.84 451.863
243 0 77.4859 23.4365 1816 99.1988 1117.73 445.973
244 0 79.4291 20.5088 1629 100.518 1117.4 448.693
245 0 81.4842 28.6191 2332 95.3538 1115.98 455.946
246 0 86.506 21.6632 1874 98.4642 1115.45 455.071
247 0 88.2669 24.7771 2187 100.449 1114.14 457.573
248 1 276.086 40.2193 11104 100.984 1112.64 356.98
249 1 88.386 18.3513 1622 107.441 1112.05 443.45
250 0 91.6242 16.8296 1542 109.851 1111.02 445.563
251 0 94.3122 16.1803 1526 107.51 1109.63 453.434
252 0 102.315 32.2142 3296 99.9339 1108.19 446.835
253 0 104.817 19.0522 1997 112.437 1107.46 437.668
254 0 105.506 19.4777 2055 114.028 1106.29 434.453
255 0 113.261 18.0822 2048 114.776 1105.01 433.697
256 1 59.2441 14.3305 849 115.782 1104.94 452.079
257 0 62.4398 11.8514 740 117.523 1104.76 456.786
258 0 63.4766 15.486 983 113.701 1103.33 450.001
259 0 60.2372 9.61201 579 124.622 1103.61 449.344
260 0 69.9394 16.643 1164 111.294 1103.8 455.506
261 0 68.4759 13.2309 906 114.637 1103.73 451.677
262 0 71.272 16.3037 1162 112.291 1104.01 444.188
263 0 75.6832 20.2951 1536 106.704 1104 445.287
264 1 147.896 24.6254 3642 106.625 1103.66 415.186
265 0 153.113 20.7755 3181 108.008 1106 413.473
266 0 155.781 22.2877 3472 107.537 1107.35 410.059
267 1 274.687 27.9409 7675 105.204 1108.52 362.886
268 1 89.5295 15.7155 1407 103.381 1112.18 443.065
269 0 94.8157 19.1635 1817 103.529 1113.17 431.498
270 0 98.8984 21.6889 2145 101.086 1114.74 432.628
271 0 103.222 20.1507 2080 100.766 1115.75 439.797
272 0 99.7606 12.3395 1231 105.184 1117.55 436.643
273 0 107.317 27.1626 2915 97.5588 1117.07 436.532
274 0 110.686 18.0058 1993 102.501 1117.66 433.656
275 0 112.556 16.383 1844 103.24 1117.44 435.191
276 0 110.688 11.0671 1225 105.575 1117.38 440.113
277 1 70.4986 16.1705 1140 96.4114 1115.82 460.934
278 0 63.6265 16.1411 1027 100.982 1116.49 454.108
279 0 64.3618 16.5937 1068 99.9635 1116.08 462.42
280 0 70.4932 19.165 1351 99.6743 1114.63 458.754
281 0 68.9508 16.6496 1148 104.535 1113.07 450.537
282 0 70.8743 22.2083 1574 100.966 1112.6 447.288
283 0 73.8177 20.6184 1522 102.3 1111.63 456.316
284 0 78.1446 10.6597 833 112.495 1110.51 456.537
285 0 86.082 30.0063 2583 99.6148 1108.69 448.502
286 0 78.6645 14.6826 1155 117.18 1107.4 447.049
287 0 82.8081 13.9117 1152 118.481 1106.11 444.191
288 0 83.0056 12.216 1014 123.022 1104.53 442.02
289 0 88.7832 15.4872 1375 119.107 1103.4 440.949
290 0 89.4513 13.3369 1193 125.981 1102.39 439.262
291 0 95.776 14.7845 1416 121.032 1101.82 435.315
292 1 51.6052 14.5722 752 110.391 1101.1 462.964
293 0 52.4394 9.30598 488 121.383 1101.27 457.551
294 0 54.2797 14.4253 783 114.842 1101.3 450.072
295 0 57.1769 14.5338 831 111.661 1102.53 452.588
296 0 57.0597 11.3916 650 113.995 1100.89 454.605
297 0 62.3123 12.1324 756 109.638 1103.5 455.001
298 0 62.3123 12.2769 765 126.867 1105.45 455.052
299 0 62.1711 15.5056 964 104.726 1106.2 451.678
300 0 65.2248 13.1545 858 103.276 1107.53 452.807
301 0 62.2095 16.4123 1021 101.564 1109.58 443.278
302 0 73.7114 21.1908 1562 94.1383 1111.14 452.464
303 0 73.7398 14.8088 1092 97.6658 1113.35 449.953
304 0 77.7518 22.5461 1753 91.1215 1115.39 457.139
305 0 72.2782 28.6255 2069 91.6549 1115.62 445.87
306 0 76.4139 11.0582 845 99.032 1117.53 454.779
307 0 79.9927 14.5763 1166 96.6878 1117.92 454.389
308 0 407.049 31.8094 12948 101.111 1116.09 241.171
309 1 91.3428 28.6284 2615 91.7644 1116.31 442.374
310 0 88.0723 19.9041 1753 97.356 1116.44 451.095
311 0 92.2581 11.4136 1053 104.171 1116.75 448.915
312 0 94.053 27.7078 2606 95.0368 1114.58 453.162
313 0 96.2587 29.7635 2865 98.8541 1114.1 444.438
314 0 101.221 14.2757 1445 109.669 1114.27 452.78
315 0 101.347 18.5601 1881 115.036 1113.07 442.41
316 1 57.3307 8.58179 492 121.528 1113.01 466.144
317 0 51.2638 13.8109 708 121.391 1111.18 464.773
318 0 55.2351 13.2887 734 120.902 1109.57 463.343
319 0 56.2511 12.5864 708 121.821 1106.39 462.364
320 0 58.3148 13.7358 801 122.526 1105.59 461.559
321 0 59.2446 16.0352 950 121.527 1103.69 459.268
322 0 61.2265 16.3981 1004 119.144 1103.09 452.972
323 0 61.4449 11.5225 708 129.126 1102.41 453.264
324 0 63.2656 13.1509 832 118.341 1102.37 456.12
325 0 68.2722 15.2771 1043 117.731 1102.34 450.779
326 0 68.1089 16.3708 1115 113.98 1102.1 451.737
327 0 70.2268 14.1257 992 122.013 1102.39 444.54
328 0 72.2705 13.6017 983 120.944 1102.94 444.649
329 0 73.1476 13.0284 953 120.395 1103.05 443.535
330 0 74.26 11.4463 850 123.802 1103.74 441.901
331 0 79.302 14.0854 1117 123.468 1105.86 439.45
332 0 85.2734 16.582 1414 112.654 1107.26 440.45
333 0 85.2734 16.6992 1424 126.072 1108.26 440.523
334 0 91.2704 13.2244 1207 111.85 1110.97 440.09
335 0 94.9464 15.3982 1462 107.203 1112.29 435.806
336 0 96.8562 25.223 2443 98.7163 1113.5 433.581
337 0 97.5579 19.5576 1908 97.979 1113.99 447.361
338 0 104.873 14.8179 1554 103.341 1115.88 437.87
339 1 51.164 13.8965 711 102.253 1117.87 459.779
340 0 55.9083 24.0394 1344 93.6362 1117.73 467.92
341 0 57.415 16.8771 969 101.186 1117.66 463.265
342 0 57.298 16.0564 920 100.367 1117.68 466.399
343 0 57.2251 24.8318 1421 118.5 1117.35 462.343
344 0 60.2428 13.2464 798 109.001 1116.55 460.266
345 0 60.2393 15.4882 933 108.449 1115.93 464.889
346 0 63.4298 17.4997 1110 119.238 1114.67 460.334
347 0 66.3613 19.3637 1285 112.263 1113.77 461.188
348 0 69.1243 18.0255 1246 117.484 1112.41 456.704
349 0 69.1852 13.2254 915 124.943 1110.85 456.938
350 0 71.2807 13.2995 948 129.891 1109.3 454.584
351 0 72.2748 15.5518 1124 129.714 1107.94 455.059
352 0 72.2748 14.2512 1030 133.861 1106.92 453.888
353 0 76.303 13.8396 1056 133.432 1105.26 453.04
354 0 78.3023 14.1631 1109 134.91 1104.14 449.666
355 0 78.2724 12.4309 973 137.928 1103.51 446.431
356 1 40.1563 7.02257 282 142.77 1103.76 465.174
357 0 40.1563 6.89805 277 146.173 1102.78 465.267
358 0 44.2557 12.6085 558 133.597 1102.68 462.581
359 0 48.2958 10.3322 499 141.687 1101.77 443.521
360 0 48.4077 11.713 567 132.661 1100.61 452.944
361 0 53.2098 13.7756 733 128.954 1102.62 458.251
362 0 53.349 13.5523 723 130.086 1103.22 456.838
363 0 56.1197 13.4356 754 124.277 1104.79 456.736
364 0 55.4959 12.6316 701 126.081 1105.28 452.66
365 0 58.1656 14.9573 870 120.864 1106.71 452.638
366 0 59.2481 12.9456 767 121.155 1107.82 453.018
367 0 63.2274 17.0654 1079 116.119 1109.6 448.29
368 0 65.214 16.0702 1048 113.486 1111.91 450.233
369 0 64.392 9.24027 595 116.896 1113.87 452.842
370 0 70.2264 14.2254 999 107.918 1115.26 449.082
371 0 74.6691 13.1246 980 106.694 1116 454.676
372 0 72.2755 15.5931 1127 107.122 1116.28 446.736
373 0 75.4771 12.8781 972 108.306 1116.1 456.231
374 0 77.3234 22.4382 1735 103.617 1117.05 451.412
375 0 83.5391 22.4326 1874 103.63 1117.31 453.068
376 0 83.2714 11.0002 916 113.646 1117.78 456.282
377 0 84.3571 15.7426 1328 114.373 1116.81 445.742
378 0 86.1335 13.8506 1193 123.672 1115.98 449.516
379 0 93.3628 16.0985 1503 120.853 1115.04 446.515
380 0 93.6286 14.3439 1343 127.898 1114.37 446.847
381 0 93.352 12.8653 1201 133.639 1113.29 442.161
382 0 98.3568 15.1693 1492 132.305 1111.77 438.377
383 0 102.293 14.4096 1474 138.003 1110 438.438
384 0 103.414 14.0503 1453 139.76 1108.76 432.625
385 0 110.261 14.8103 1633 137.44 1107.32 435.299
386 1 56.2752 12.4744 702 141.228 1105.77 453.553
387 0 59.2708 13.025 772 141.224 1105.06 457.162
388 0 62.2585 15.4517 962 137.614 1104.16 453.867
389 0 64.4679 11.5717 746 143.732 1103.16 450.185
390 0 65.2565 13.1941 861 140.297 1103.49 453.591
391 0 67.4348 14.0729 949 138.714 1101.87 450.051
392 0 73.5584 16.6127 1222 132.917 1101.32 449.292
393 0 73.4672 13.9246 1023 136.97 1101.71 447.407
394 0 76.222 14.7202 1122 134.738 1102.28 446.112
395 0 80.6997 14.9443 1206 132.771 1102.53 443.609
396 0 80.3655 13.4386 1080 139.942 1102.93 439.431
397 0 85.4843 14.6928 1256 131.262 1103.91 439.06
398 0 87.4448 15.6098 1365 130.369 1104.89 436.184
399 0 89.9573 16.7746 1509 128.067 1106.5 432.293
400 1 48.4972 8.66029 420 124.867 1109.74 460.376
