time division length width area intensity CMx CMy
0 0 100.507 15.8397 1592 148.208 1201.29 432.916
1 0 103.337 15.193 1570 135.457 1203.1 424.08
2 0 109.329 17.4793 1911 125.534 1204.09 436.312
3 0 111.624 14.307 1597 133.74 1204.19 428.743
4 1 60.2489 13.2284 797 123.304 1205.11 459.345
5 0 64.3959 13.8829 894 126.244 1204.77 455.955
6 0 63.5486 10.669 678 133.034 1203.1 450.951
7 0 66.5601 11.0276 734 127.617 1201.56 449.718
8 0 66.1669 11.1989 741 126.197 1201.55 454.359
9 0 69.1979 11.2576 779 127.019 1200.48 452.542
10 0 76.3167 13.8764 1059 127.668 1200.84 452.844
11 0 76.4583 11.4965 879 134.982 1199.96 452.676
12 0 77.2519 16.841 1301 131.061 1199.02 451.517
13 0 78.2438 12.2182 956 137.801 1198.5 453.546
14 0 80.3086 13.2863 1067 142.061 1197.06 447.326
15 0 82.2461 13.569 1116 141.504 1195.86 450.599
16 0 87.3873 11.0314 964 148.934 1194.34 447.216
17 0 86.2174 15.6697 1351 146.148 1192.51 447.17
18 0 90.3097 12.8558 1161 154.13 1190.87 441.792
19 0 95.307 15.0776 1437 148.896 1190.08 441.276
20 0 95.2396 13.1038 1248 154.893 1189.28 437.898
21 0 100.161 14.2969 1432 151.215 1189.07 436.937
22 0 103.147 14.9592 1543 149.422 1188.31 432.401
23 0 106.29 18.1485 1929 139.294 1188.07 428.404
24 0 110.185 14.4757 1595 147.243 1187.62 429.901
25 0 114.334 12.9271 1478 148.484 1187.77 429.671
26 0 117.4 14.1993 1667 145.587 1188.03 422.643
27 0 120.42 15.5871 1877 144.953 1187.91 418.277
28 1 64.2319 14.3698 923 129.245 1187.78 442.174
29 0 65.1504 13.0467 850 135.725 1188.31 444.074
30 0 68.2529 11.6625 796 132.353 1189.47 446.99
31 0 70.1408 11.9617 839 128.528 1191.61 450.155
32 0 73.1586 14.0517 1028 128.737 1193.83 442.557
33 0 76.3385 10.5189 803 125.709 1195.47 444.386
34 0 78.5306 13.4342 1055 118.923 1197.04 448.236
35 0 81.3369 15.0977 1228 114.613 1199.27 446.51
36 0 80.3246 10.7564 864 120.652 1199.29 444.515
37 0 86.2324 15.6438 1349 114.882 1200.32 443.59
38 0 87.2611 12.136 1059 117.992 1200.64 446.5
39 0 92.2231 13.3697 1233 118.719 1200.6 445.4
40 0 92.1619 10.8179 997 123.707 1199.92 442.48
41 0 97.3358 13.1195 1277 122.692 1199.9 439.262
42 0 99.337 13.9525 1386 122.469 1198.84 447.196
43 0 100.215 11.7048 1173 129.484 1197.92 443.533
44 1 58.0622 12.2799 713 127.163 1197.03 458.732
45 0 56.0888 11.6957 656 131.404 1199.22 461.392
46 0 60.0994 12.7456 766 125.845 1197.95 464.838
47 0 61.0482 12.4819 762 131.155 1194.69 461.651
48 0 63.0812 11.9053 751 134.609 1192.65 461.924
49 0 61.1142 10.5867 647 137.611 1192.16 461.179
50 0 63.1107 14.0864 889 133.142 1191.24 457.998
51 0 67.2458 12.8484 864 134.321 1190.02 456.796
52 0 69.1198 13.209 913 133.625 1188.44 455.78
53 0 70.1269 12.3633 867 134.428 1188.3 458.622
54 0 73.0773 13.1231 959 135.421 1187.4 450.67
55 0 76.1132 13.5982 1035 134.309 1186.62 448.412
56 0 78.1442 14.8955 1164 131.46 1186.04 449.454
57 1 41.0526 8.64744 355 134.78 1186.59 467.217
58 0 41.0235 9.458 388 136.098 1186.62 464.812
59 0 43.0505 9.6863 417 134.098 1186.33 465.859
60 0 44.0428 11.9656 527 131.507 1187.24 463.541
61 0 45.0186 11.7507 529 130.716 1187.2 464.295
62 0 47.0383 9.31157 438 137.772 1187.44 460.788
63 0 49.1073 15.3949 756 124.971 1189.7 459.835
64 0 53.1682 13.0153 692 126.121 1191.66 462.816
65 0 54.1944 16.4039 889 117.799 1193.5 463.092
66 0 54.1008 14.8057 801 124.12 1195.2 460.685
67 0 53.0598 11.6661 619 126.877 1195.77 460.086
68 0 56.0843 13.3371 748 123.378 1196.39 460.495
69 0 59.1946 14.7987 876 115.768 1198.4 462.678
70 0 57.1066 15.0946 862 114.76 1199.11 463.659
71 0 61.1209 17.7681 1086 109.183 1200.5 465.681
72 0 66.2434 10.5671 700 119.873 1202.33 463.817
73 0 66.1741 16.8344 1114 113.716 1202.14 462.989
74 0 66.1741 16.6984 1105 135.958 1202.15 462.936
75 0 66.2164 14.0298 929 126.785 1200.74 457.928
76 0 68.1986 14.0912 961 128.943 1199.91 459.586
77 0 71.1416 13.5504 964 133.142 1199.54 460.401
78 0 73.1277 14.3584 1050 134.362 1198.76 460.333
79 0 75.1614 15.2339 1145 134.441 1197.9 456.186
80 0 77.2962 14.7873 1143 138.878 1196.51 458.215
81 0 79.1611 14.4263 1142 143.419 1195.07 460.223
82 0 81.2416 12.4567 1012 150.713 1193.97 458.632
83 0 83.2669 15.4323 1285 148.346 1192.17 453.9
84 0 83.2669 15.4323 1285 149.457 1190.14 453.83
85 1 45.0232 12.4158 559 149.243 1190.13 473.275
86 0 48.0555 11.0705 532 150.53 1188.55 472.461
87 0 51.0861 14.133 722 146.111 1188.01 468.911
88 0 51.0545 14.416 736 144.545 1187.24 470.027
89 0 52.0309 14.3568 747 145.96 1186.61 466.727
90 0 51.0836 11.8042 603 152.381 1185.37 467.629
91 0 52.0651 12.1771 634 153.145 1185.4 462.317
92 0 53.0393 13.1035 695 152.191 1185.33 460.685
93 0 56.142 12.8424 721 150.283 1184.81 463.264
94 0 57.1415 14.7529 843 148.026 1185.21 458.665
95 0 60.1291 12.6395 760 151.664 1185.74 458.37
96 0 61.1048 13.6323 833 150.706 1186.32 455.041
97 0 65.1101 14.5753 949 146.844 1188.17 454.436
98 0 68.1953 17.0246 1161 140.369 1190.07 454.819
99 0 69.2577 14.9297 1034 139.775 1193.05 454.855
100 0 68.2211 12.8113 874 143.619 1194.41 453.403
101 0 71.1247 18.0809 1286 128.967 1195.04 456.348
102 0 77.3839 14.0339 1086 133.152 1198.11 456.473
103 0 77.231 14.0488 1085 135.532 1199.09 450.754
104 0 83.552 21.9145 1831 116.962 1199.59 455.696
105 1 47.0779 13.8069 650 121.948 1199.88 471.191
106 0 48.1596 14.9295 719 124.029 1198.45 468.17
107 0 46.1016 12.711 586 118.787 1198.75 468.676
108 0 46.0489 9.90253 456 128.943 1198.37 464.531
109 0 47.0999 14.3737 677 121.507 1198.43 464.873
110 0 50.1206 13.9663 700 125.809 1197.19 464.854
111 0 56.5501 13.2449 749 124.88 1196.22 468.925
112 0 52.0426 14.3344 746 129.235 1195.83 463.401
113 0 54.1021 11.4783 621 133.655 1194.3 468.148
114 0 56.087 14.5488 816 135.681 1192.63 464.208
115 0 56.1211 13.1501 738 139.558 1192.14 466.05
116 0 57.0988 12.9074 737 148.018 1192.41 468.047
117 0 61.1115 13.9417 852 142.042 1191.49 470.748
118 0 63.1323 12.2758 775 149.314 1189.84 465.11
119 0 65.1679 13.5036 880 145.798 1188.26 466.728
120 0 67.1353 15.2081 1021 143.293 1186.53 462.883
121 0 69.2012 14.2917 989 145.962 1185.6 462.1
122 0 67.1607 13.5198 908 150.653 1184.36 455.938
123 0 71.4235 14.9811 1070 144.072 1183.6 454.95
124 0 76.2265 13.3812 1020 147.903 1182.88 456.071
125 0 77.2794 15.1658 1172 146.277 1183.06 452.412
126 0 80.1576 18.7131 1500 139.757 1182.7 450.075
127 1 43.0843 9.4698 408 152.762 1183.7 467.973
128 0 45.0373 12.6118 568 145.195 1183.67 468.819
129 0 45.0343 11.4135 514 149.623 1184.83 468.267
130 0 48.2279 14.6803 708 140.306 1185.19 467.394
131 0 44.0585 9.4193 415 157.773 1186.95 465.39
132 0 49.0284 15.3788 754 144.893 1188.51 460.983
133 0 53.135 16.0723 854 137.678 1191.04 463.651
134 0 50.199 14.5222 729 138.594 1192.45 462.156
135 0 54.1108 11.5873 627 138.648 1193.88 465.338
136 0 56.0849 14.5672 817 133.001 1195.78 464.53
137 0 55.0458 14.2064 782 135.946 1195.97 462.909
138 0 57.0853 15.871 906 132.822 1197.11 464.543
139 0 56.1685 13.4417 755 137.702 1197.24 464.968
140 0 61.0774 15.2757 933 133.453 1197.2 465.302
141 0 63.2127 14.2693 902 133.933 1196.74 466.731
142 0 62.0689 12.7117 789 144.682 1196.67 462.833
143 0 64.1078 12.3698 793 143.782 1195.87 463.75
144 0 66.1049 14.0988 932 142.373 1195.4 461.364
145 0 69.1973 12.3271 853 145.317 1195.31 464.716
146 0 71.093 16.2041 1152 142.38 1193.71 463.507
147 0 73.1843 16.1783 1184 145.295 1192.5 459.595
148 0 78.2788 16.0452 1256 142.554 1191.38 457.82
149 0 76.1373 12.9634 987 149.858 1189.82 459.534
150 0 79.116 13.1579 1041 149.055 1188.38 459.149
151 0 85.2296 15.6636 1335 141.503 1186.73 457.387
152 0 86.0942 15.5411 1338 143.293 1184.82 455.981
153 1 45.086 10.4911 473 147.998 1182.3 475.252
154 0 48.1183 11.5341 555 145.787 1181.04 473.87
155 0 46.0491 11.77 542 148.101 1180.13 470.589
156 0 49.1135 13.0107 639 144.695 1179.62 468.358
157 0 47.168 10.24 483 150.424 1179.49 468.128
158 0 50.3338 12.5562 632 145.345 1179.59 461.207
159 0 50.127 14.4832 726 141.842 1180.21 461.802
160 0 54.2716 13.4324 729 144.163 1180.32 462.082
161 0 57.0538 15.1436 864 139.252 1180.39 461.479
162 0 58.1478 12.7778 743 144.058 1180.51 459.522
163 0 62.1263 13.891 863 141.129 1181.03 458.328
164 0 63.1049 14.7532 931 139.377 1182.43 458.311
165 0 67.0416 14.4239 967 138.91 1184.43 457.651
166 0 66.1098 14.0826 931 142.214 1186.31 455.596
167 0 68.1088 14.9907 1021 140.375 1187.93 453.37
168 0 69.1447 13.7104 948 143.648 1189.17 453.41
169 0 73.1163 15.4138 1127 136.781 1190.98 453.798
170 0 75.2383 14.5538 1095 137.666 1192.29 453.447
171 0 80.2271 15.0448 1207 135.486 1192.94 453.439
172 0 80.1694 13.4465 1078 138.301 1193.46 455.674
173 0 84.2858 15.1271 1275 136.952 1193.94 452.674
174 0 86.2006 14.5591 1255 142.968 1194.38 453.176
175 0 88.2359 14.9712 1321 140.68 1194.17 450.333
176 0 90.2904 17.1779 1551 138.845 1193.25 445.342
177 0 91.1389 12.4755 1137 150.617 1192.44 450.832
178 0 97.1456 18.5701 1804 138.35 1192.08 449.066
179 0 101.166 16.9326 1713 141.457 1190.68 449.978
180 1 57.0892 13.6103 777 137.933 1190.88 472.476
181 0 56.1263 12.0086 674 142.68 1189.32 471.226
182 0 59.1662 12.3719 732 141.418 1187.83 471.146
183 0 61.2092 9.75344 597 146.28 1187.02 469.194
184 0 63.1059 11.2985 713 144.265 1184.94 468.053
185 0 64.2209 12.1144 778 143.442 1182.98 468.179
186 0 68.0919 12.8503 875 144.859 1181.83 461.961
187 0 69.087 13.5626 937 141.046 1180.88 465.888
188 0 68.1524 12.428 847 145.251 1179.51 460.712
189 0 73.1949 11.7904 863 144.552 1179.83 460.742
190 0 77.1741 11.4935 887 143.927 1179.16 461.007
191 0 78.1658 13.6761 1069 142.039 1178.7 454.132
192 0 81.1387 12.5711 1020 144.244 1178.93 454.19
193 0 83.1403 14.9867 1246 139.498 1178.38 451.587
194 0 87.2565 13.9245 1215 140 1179.07 450.914
195 0 91.2183 11.5876 1057 146.618 1178.88 445.129
196 1 49.0793 15.3221 752 126.291 1180.73 470.257
197 0 49.0925 10.0423 493 140.345 1181.65 466.28
198 0 50.1194 10.9738 550 139.536 1182.01 465.371
199 0 53.1006 13.0319 692 135.665 1183.59 464.322
200 0 55.1052 14.4995 799 132.661 1185.96 462.733
201 0 54.1069 11.4773 621 138.67 1186.8 461.847
202 0 56.1726 12.693 713 135 1188.65 463.7
203 0 57.0594 11.7421 670 132.788 1190.55 464.085
204 0 57.0756 9.23337 527 138.831 1191.64 463.218
205 0 60.1858 13.4085 807 128.91 1193.71 463.649
206 0 63.1106 12.3751 781 130.676 1193.95 463.703
207 0 66.315 14.7176 976 126.487 1194.84 461.188
208 0 67.2534 15.0624 1013 127.047 1194.89 461.669
209 0 67.3775 12.942 872 134.564 1193.43 461.656
210 0 72.2426 10.9077 788 133.718 1194.05 466.174
211 0 74.206 13.1795 978 133.866 1192.94 465.283
212 0 77.2709 13.5497 1047 135.496 1192.04 460.818
213 0 78.1069 11.9068 930 138.8 1190.66 464.356
214 0 80.1187 16.2509 1302 131.848 1189.59 457.784
215 0 83.1877 14.305 1190 134.766 1187.99 459.375
216 0 85.1486 11.1335 948 141.131 1186.78 457.154
217 0 90.142 15.7529 1420 130.77 1185.8 458.77
218 1 48.0395 11.5946 557 133.795 1185.91 472.937
219 0 46.0901 11.5643 533 134.593 1182.91 472.088
220 0 49.2452 11.4935 566 133.046 1179.34 471.051
221 0 49.2802 14.8944 734 128.376 1177.97 466.229
222 0 54.125 11.9908 649 127.67 1177.1 470.179
223 0 53.0507 12.177 646 131.483 1176.26 470.91
224 0 53.0986 18.5316 984 123.545 1175.51 469.325
225 0 56.2679 13.258 746 130.314 1175.12 468.468
226 0 54.1793 12.1449 658 135.918 1175.07 462.436
227 0 60.1618 12.35 743 131.676 1175.38 465.094
228 0 58.0842 13.1189 762 134.22 1175.96 458.568
229 0 64.2423 15.0368 966 126.827 1177.35 464.421
230 0 63.2061 16.2959 1030 128.219 1177.43 461.367
231 0 64.0802 14.3882 922 131.894 1177.81 456.389
232 0 67.2097 14.1944 954 130.244 1179.19 457.63
233 0 69.1 13.4298 928 134.166 1181.73 455.737
234 0 70.2499 16.541 1162 128.783 1184.57 456.201
235 0 73.2615 13.5132 990 132.358 1186.85 454.655
236 0 78.4037 15.9941 1254 126.954 1188.68 454.112
237 0 79.3206 15.8093 1254 125.712 1190.62 455.636
238 0 81.2676 14.1139 1147 132.791 1190.78 454.772
239 1 43.1635 11.2595 486 129.002 1193.53 473.572
240 0 44.0601 11.2347 495 129.032 1194.01 475.529
241 0 44.1402 12.1884 538 129.072 1193.3 476.918
242 0 46.1868 13.0773 604 130.942 1193.17 474.71
243 0 50.1388 14.5397 729 126.984 1192.64 477.259
244 0 48.2949 14.0388 678 131.957 1190.73 475.342
245 0 51.2275 17.4516 894 125.896 1188.6 473.532
246 0 52.1344 14.0406 732 130.952 1190 477.818
247 0 52.1494 13.9024 725 133.204 1188.99 474.619
248 0 52.0452 13.5651 706 135.004 1188.73 472.465
249 0 55.1129 14.1528 780 133.679 1186.72 472.933
250 0 59.0924 15.2135 899 131.433 1185.99 470.293
251 0 62.2256 19.815 1233 122.473 1184.67 471.387
252 0 63.116 14.7823 933 131.51 1182.94 470.715
253 0 63.1317 14.5252 917 134.593 1181.87 467.763
254 0 64.1371 16.9013 1084 134.133 1180.48 469.628
255 0 67.159 16.9002 1135 135.509 1179.37 465.147
256 0 67.1935 14.3466 964 143.434 1178.27 460.721
257 0 70.2846 16.7462 1177 137.658 1178.14 461.955
258 0 72.3564 13.1709 953 145.584 1177.33 459.186
259 0 76.2652 16.1804 1234 138.815 1176.87 461.015
260 0 77.291 14.6459 1132 144.525 1176.89 456.776
261 0 79.1651 15.7519 1247 143.068 1176.81 451.839
262 0 78.2137 13.2458 1036 149.183 1177.32 451.715
263 1 43.0601 12.2155 526 144.544 1178.4 470.042
264 0 42.1172 10.6607 449 147.472 1179.43 470.16
265 0 45.2247 12.847 581 145.861 1180.57 466.991
266 0 46.117 13.2055 609 143.544 1183.24 469.297
267 0 46.1436 13.328 615 142.18 1185.26 469.324
268 0 49.2647 14.006 690 141.084 1185.86 466.126
269 0 52.1293 14.3106 746 134.769 1185.8 468.059
270 0 52.0492 16.5228 860 132.602 1187.86 466.179
271 0 56.4885 14.4454 816 131.482 1190.14 470.664
272 0 54.0831 11.5193 623 142.754 1191.17 468.109
273 0 59.0888 13.5559 801 137.919 1191.99 470.094
274 0 58.1054 13.2518 770 138.106 1192.59 468.195
275 0 61.2345 16.3307 1000 134.583 1192.26 466.65
276 0 62.147 15.9461 991 136.925 1191.76 465.779
277 0 64.235 14.4625 929 140.205 1191.66 465.674
278 0 65.175 12.6429 824 145.36 1190.86 464.097
279 0 69.1807 13.4864 933 142.969 1190.18 466.357
280 0 69.1807 13.472 932 151.897 1190.19 466.341
281 0 75.1574 15.0351 1130 139.527 1188.3 460.689
282 0 75.1543 15.0091 1128 146.995 1186.31 460.79
283 0 82.7955 16.6555 1379 135.086 1185.54 462.453
284 0 82.405 12.924 1065 145.662 1183.86 457.179
285 1 42.2016 12.6535 534 139.176 1182.64 478.013
286 0 42.1458 9.04004 381 146.16 1178.23 479.278
287 0 46.0282 11.7971 543 140.575 1176.78 478.856
288 0 48.0429 12.135 583 142.499 1179.36 474.441
289 0 49.0077 13.0388 639 139.632 1178.61 473.158
290 0 50.0632 11.2657 564 145.316 1177.47 471.743
291 0 51.0611 15.0995 771 134.211 1174.81 472.326
292 0 53.0962 15.2365 809 134.58 1173.91 471.487
293 0 53.0337 12.3318 654 143.685 1174.17 468.159
294 0 54.1869 13.0659 708 140.544 1174.24 466.756
295 0 56.2047 10.9244 614 143.37 1175.02 467.581
296 0 57.183 11.7342 671 145.486 1175.61 462.937
297 0 58.1751 15.5221 903 138.986 1177.07 459.204
298 0 62.1554 14.8499 923 138.723 1178.3 458.577
299 0 63.1126 12.4222 784 142.467 1179.63 462.062
300 0 66.0589 15.0018 991 138.898 1181.77 456.474
301 0 67.1386 14.3137 961 139.027 1183.34 458.918
302 0 69.0778 15.9675 1103 135.144 1185.79 455.234
303 0 72.219 15.3561 1109 135.785 1187.37 457.379
304 0 74.1482 14.6733 1088 135.04 1188.69 456.763
305 0 78.1588 15.8268 1237 130.004 1189.62 459.63
306 0 79.2347 16.3186 1293 130.62 1189.86 457.338
307 1 44.02 11.313 498 137.737 1191.19 474.739
308 0 41.0779 11.6364 478 139.134 1190.47 476.732
309 0 43.0578 9.68466 417 142.329 1190.88 476.736
310 0 47.1573 13.4656 635 136.009 1189.29 476.255
311 0 50.0881 14.7939 741 131.02 1188.58 477.561
312 0 48.3499 13.6918 662 137.449 1190.02 474.394
313 0 49.2137 14.8942 733 135.076 1188.38 476.539
314 0 52.3296 15.4215 807 134.108 1186.92 475.058
315 0 54.2061 15.0721 817 135.185 1185.94 475.365
316 0 55.0679 14.1825 781 138.302 1185.83 472.534
317 0 54.0252 13.8269 747 140.697 1184.05 470.727
318 0 59.1196 17.084 1010 131.86 1182.98 473.856
319 0 60.1 15.99 961 136.898 1181.73 471.102
320 0 62.1589 14.2377 885 141.389 1180.59 467.328
321 0 66.0943 18.9729 1254 131.925 1180.44 467.71
322 0 67.1164 17.2387 1157 137.317 1178.87 465.828
323 0 68.1408 15.7468 1073 142.86 1178.97 463.694
324 0 70.1302 15.2146 1067 145.696 1178.37 460.798
325 0 72.2174 14.2625 1030 148.102 1178.01 459.158
326 0 73.2372 15.3884 1127 146.069 1177.88 455.535
327 0 73.2372 15.3884 1127 146.149 1178.87 455.492
328 1 40.0931 9.17863 368 145.198 1177.22 471.927
329 0 39.0613 9.88191 386 146.951 1177.35 469.935
330 0 42.1417 9.65789 407 147.735 1176.89 471.541
331 0 43.1378 11.6835 504 143.839 1180.28 467.825
332 0 44.0799 11.343 500 148.104 1182 464.468
333 0 48.1693 14.1999 684 146.455 1184.45 466.323
334 0 48.1539 11.7124 564 151.598 1185.61 469.199
335 0 51.1197 15.2388 779 142.992 1187.19 465.675
336 0 52.1723 14.8163 773 144.369 1190.06 467.401
337 0 51.1254 12.3618 632 151.854 1190.57 467.538
338 0 56.0314 14.9559 838 142.857 1190.72 468.311
339 0 57.2036 13.7579 787 146.605 1192.94 467.98
340 0 60.2596 13.9895 843 143.077 1193.04 467.827
341 0 60.2629 15.4988 934 144.013 1193.12 468.835
342 0 61.3043 14.1589 868 147.865 1192.62 469.877
343 0 64.1459 14.9659 960 147.505 1191.79 466.043
344 0 67.1595 16.2598 1092 143.752 1191.32 468.355
345 0 67.1306 14.4644 971 150.823 1190.6 467.007
346 0 68.0942 15.0527 1025 151.459 1189.81 467.416
347 0 71.1163 14.4271 1026 154.564 1188.49 464.101
348 0 75.2967 17.2916 1302 146.763 1187.12 464.613
349 0 74.2517 15.5283 1153 151.974 1186.03 462.657
350 0 76.1891 15.2778 1164 155.16 1183.88 461.992
351 0 81.2555 16.4789 1339 151.389 1182.12 459.384
352 0 83.1414 14.8061 1231 154.576 1181.29 459.681
353 0 84.1631 15.9452 1342 153.172 1179.61 458.546
354 0 87.1664 15.5679 1357 155.223 1178.93 455.102
355 0 90.2361 16.7339 1510 150.279 1177.88 457.347
356 0 92.0824 16.5612 1525 152.938 1176.7 451.608
357 0 96.2936 19.1913 1848 146.701 1176.29 449.254
358 1 55.1092 12.7928 705 154.125 1174.08 467.414
359 0 55.1092 12.6658 698 156.628 1173.08 467.36
360 0 55.0775 12.8002 705 155.148 1175.14 466.73
361 0 57.1245 8.85785 506 153.719 1176.4 464.397
362 0 61.156 11.8876 727 149.53 1175.99 460.53
363 0 61.2058 11.8126 723 149.603 1178.04 460.801
364 0 65.1183 14.5581 948 142.086 1178.61 461.292
365 0 66.0979 12.4664 824 150.455 1180.7 460.356
366 0 66.0827 15.5714 1029 148.362 1180.73 460.264
367 0 68.1986 12.4049 846 156.987 1183.2 457.927
368 0 72.1024 14.2852 1030 151.398 1185.13 460.616
369 0 74.1191 15.2322 1129 149.896 1187.31 459.766
370 0 77.2679 15.8669 1226 150.227 1187.99 457.043
371 0 77.1935 14.3794 1110 154.289 1189.02 456.483
372 0 79.1158 14.839 1174 152.476 1189.62 458.375
373 0 80.3046 15.0801 1211 156.334 1189.83 457.197
374 0 82.2385 13.169 1083 163.701 1189.85 455.787
375 0 87.2277 13.9864 1220 160.524 1189.58 458.328
376 0 88.1503 14.6454 1291 161.692 1189.64 456.508
377 0 89.159 13.0553 1164 161.204 1191.05 455.653
378 0 95.1562 14.9123 1419 155.001 1190.2 456.807
379 0 97.1706 18.4315 1791 148.472 1188.82 453.663
380 0 98.1528 13.6624 1341 160.563 1188.29 452.06
381 0 103.239 16.6216 1716 152.383 1187.3 453.232
382 0 106.319 15.9425 1695 153.635 1186.42 450.66
383 1 56.0442 8.83231 495 165.735 1182.67 472.172
384 0 57.0457 9.04538 516 160.864 1180.54 475.357
385 0 63.039 12.405 782 153.48 1180.03 472.013
386 0 65.0307 13.2399 861 152.239 1177.86 469.161
387 0 66.1059 10.3924 687 150.991 1178.34 469.962
388 0 69.0482 16.3509 1129 146.871 1179.05 465.764
389 0 71.1357 15.0698 1072 143.959 1178.53 464.024
390 0 72.1363 11.811 852 150.858 1178.22 462.107
391 0 73.1092 13.1037 958 149.54 1176.26 459.007
392 0 77.2113 14.6611 1132 144.852 1176.58 455.352
393 0 79.1841 13.1845 1044 147.27 1176.45 455.338
394 0 82.2278 11.833 973 148.331 1177.4 455.191
395 0 83.1938 13.8953 1156 145.01 1177.67 451.608
396 0 85.3431 13.9671 1192 143.439 1177.95 443.72
397 0 87.2279 12.0374 1050 147.379 1179.3 446.276
398 0 89.2607 14.8554 1326 142.685 1180.1 444.152
399 0 94.1835 16.6377 1567 137.722 1182.24 441.182
400 0 94.2042 10.0208 944 149.016 1183.81 445.265
401 0 99.173 12.7757 1267 143.737 1185.88 439.103
