time division length width area intensity CMx CMy
0 0 79.261 15.9599 1265 115.613 1266.14 431.846
1 0 79.1387 13.4195 1062 115.293 1267.11 432.338
2 0 81.6704 16.6645 1361 112.949 1267.66 434.176
3 0 85.2409 15.8727 1353 116.072 1267.62 425.922
4 0 85.2189 15.9589 1360 127.89 1267.61 426.082
5 0 94.2219 21.8527 2059 105.713 1268.46 437.044
6 0 98.5185 19.6004 1931 109.412 1267.6 427.266
7 0 96.3405 19.5868 1887 109.397 1266.29 433.547
8 0 100.316 18.7309 1879 114.991 1264.36 426.691
9 0 104.275 11.3354 1182 121.931 1263.12 428.85
10 0 102.243 13.9374 1425 124.812 1262.77 424.352
11 1 56.1545 13.4273 754 118.83 1262.11 450.114
12 0 56.0622 11.7191 657 126.75 1260.93 447.887
13 0 60.1329 12.7717 768 126.677 1260.18 446.284
14 0 60.2886 12.6392 762 128.434 1258.69 447.48
15 0 62.2302 14.0607 875 127.671 1258.16 446.616
16 0 64.183 13.7887 885 130.401 1256.37 442.332
17 0 67.0572 12.6161 846 134.999 1254.84 442.617
18 0 69.146 15.6914 1085 130.977 1253.4 438.257
19 0 72.0823 15.3852 1109 134.093 1252.54 437.222
20 0 72.0739 10.7945 778 143.405 1251.1 437.068
21 1 35.1704 10.7477 378 138.278 1250.11 454.606
22 0 38.0442 7.62271 290 141.141 1249.5 452.055
23 0 44.0618 11.4158 503 134.656 1249.06 449.471
24 0 45.0444 11.0558 498 132.398 1249.48 450.183
25 0 47.1079 13.692 645 127.425 1249.96 448.487
26 0 45.3073 10.815 490 133.873 1250.31 447.714
27 0 46.2169 12.2033 564 130.989 1252.54 445.578
28 0 46.1669 11.3934 526 133.165 1253.52 440.741
29 0 51.0626 15.5887 796 126.704 1252.93 440.198
30 0 53.0479 14.7414 782 123.047 1254.05 443.203
31 0 52.069 8.85364 461 127.987 1258.53 445.275
32 0 56.1125 15.8075 887 115.655 1259.95 445.841
33 0 57.4285 14.0348 806 117.367 1261.33 444.782
34 0 56.2342 9.94057 559 123.351 1263.73 443.236
35 0 59.0798 10.5958 626 118.888 1264.96 445.824
36 0 62.1458 12.5511 780 118 1265.97 441.627
37 0 62.1649 12.7081 790 118.4 1266.46 442.857
38 0 67.288 15.4262 1038 113.792 1267.16 440.587
39 1 135.52 16.8757 2287 117.963 1265.61 418.244
40 0 140.69 18.3525 2582 117.787 1265.04 411.114
41 0 140.69 18.2103 2562 130.692 1264.03 411.047
42 1 150.596 15.4254 2323 124.963 1263.49 407.371
43 0 156.442 17.3802 2719 127.06 1262.79 404.469
44 0 159.698 15.6921 2506 129.316 1262.19 403.324
45 1 42.0312 11.087 466 130.856 1259.85 460.897
46 0 45.0776 12.0459 543 124.597 1259.4 461.755
47 0 45.1593 16.32 737 120.311 1257.93 460.38
48 0 45.1593 16.2536 734 122.489 1255.93 460.526
49 0 48.1964 17.2212 830 118.499 1255.08 461.664
50 0 48.041 14.0089 673 125.073 1254.65 457.612
51 0 50.0925 17.7871 891 121.212 1252.24 455.085
52 0 50.0423 16.7458 838 120.409 1251.49 452.32
53 0 50.1507 13.3198 668 129.81 1250.64 451.443
54 0 55.1826 15.6752 865 122.467 1249.77 452.719
55 0 56.0933 13.7093 769 126.999 1249.04 450.364
56 0 57.2624 12.888 738 125.069 1248.56 447.648
57 0 57.2421 12.9101 739 138.528 1247.57 447.621
58 0 60.1078 13.8917 835 124.382 1248.72 444.338
59 0 63.1694 16.9702 1072 119.881 1248.04 441.16
60 0 66.1179 15.6085 1032 121.022 1248.53 439.75
61 0 66.1459 14.7855 978 125.813 1248.17 440.686
62 0 71.1984 13.8767 988 122.021 1248.89 438.329
63 0 72.0388 13.701 987 120.644 1250.65 438.663
64 0 74.3369 15.1338 1125 121.171 1255.26 437.499
65 0 74.3369 14.9724 1113 133.828 1257.26 437.447
66 1 40.2539 10.2102 411 122.759 1259.65 453.915
67 0 42.3266 12.5689 532 117.491 1262.22 453.889
68 0 42.2986 12.7664 540 119.726 1262.81 453.419
69 0 43.2722 10.8846 471 118.456 1263.98 454.66
70 0 41.1026 13.5271 556 112.272 1262.51 450.018
71 0 41.2093 8.61457 355 119.166 1263.41 448.454
72 0 41.2093 8.4447 348 136.25 1264.39 448.422
73 0 48.2784 12.1587 587 115.727 1265.85 457.76
74 0 48.2343 13.932 672 115.098 1265.02 461.738
75 0 52.3616 14.6863 769 116.151 1264.8 460.351
76 0 49.1305 10.3398 508 126.819 1263.52 460.64
77 0 53.2184 13.4728 717 124.165 1262.73 458.24
78 0 53.1594 12.9986 691 129.276 1262.29 457.145
79 0 57.2704 14.7546 845 124.363 1261.29 458.594
80 0 57.2704 14.6498 839 141.269 1260.31 458.651
81 0 58.1855 13.3882 779 133.14 1258.21 457.883
82 0 55.0779 10.6213 585 142.713 1257.11 455.279
83 0 62.0824 12.9022 801 136.782 1255.98 453.732
84 0 63.1546 14.8683 939 133.821 1254.46 453.813
85 0 65.1841 14.0525 916 134.124 1252.57 451.318
86 0 67.1553 13.6102 914 135.928 1251.84 448.452
87 0 70.2201 13.2441 930 136.448 1250.59 447.473
88 0 71.2723 15.3496 1094 133.519 1248.71 447.79
89 1 38.0626 12.3481 470 132.606 1247.18 461.213
90 0 40.0795 11.552 463 137.089 1247.28 460.475
91 0 40.1133 12.6891 509 132.941 1247.52 457.884
92 0 43.2197 12.3786 535 131.813 1247.33 457.185
93 0 44.1388 12.5966 556 132.07 1247.36 456.232
94 0 45.0424 12.2995 554 132.679 1247.15 453.76
95 0 47.0879 12.5085 589 130.861 1246.83 451.879
96 0 45.1117 12.1033 546 130.062 1249.87 453.555
97 0 47.071 13.7664 648 127.085 1250.87 451.815
98 0 49.0918 12.5887 618 132.264 1252.84 450.835
99 0 52.1238 13.4487 701 125.74 1254.93 450.307
100 0 56.4047 16.4348 927 116.809 1256.43 454.303
101 0 51.0231 13.8957 709 127.707 1257.3 448.028
102 0 56.226 14.6196 822 126.04 1259.59 448.026
103 0 56.1679 20.5277 1153 115.362 1260.91 451.041
104 0 56.1253 20.5255 1152 108.738 1261.92 450.97
105 0 62.5114 16.365 1023 119.668 1262.3 450.725
106 0 64.3298 14.208 914 123.429 1262.16 451.753
107 0 64.3534 12.3537 795 128.454 1262.36 450.828
108 0 66.2697 13.5054 895 129.053 1261.91 449.059
109 0 67.4304 12.4128 837 131.088 1262.07 447.914
110 0 67.4304 12.5166 844 133.098 1263.07 447.935
111 0 74.4253 13.2482 986 127.432 1261.47 452.236
112 0 76.2782 13.4508 1026 128.545 1261.45 446.735
113 0 78.1988 12.7879 1000 132.517 1260.2 447.182
114 0 81.2235 13.3582 1085 134.864 1257.92 444.511
115 0 84.4499 15.6306 1320 130.311 1257.55 443.942
116 1 46.1474 11.745 542 133.434 1257.24 463.007
117 0 49.1986 12.419 611 130.717 1255.53 462.794
118 0 48.1158 8.87443 427 138.379 1253.76 462.136
119 0 48.1158 8.89521 428 139.18 1251.77 462.171
120 0 48.1158 8.93678 430 138.663 1249.79 462.13
121 0 52.0699 11.2541 586 134.316 1249.87 456.572
122 0 54.1164 13.5633 734 130.789 1248.88 454.48
123 0 54.076 10.8736 588 132.037 1247.16 454.624
124 0 57.2245 11.3413 649 132.519 1244.44 451.946
125 0 57.136 12.0239 687 132.776 1245.17 449.949
126 0 57.136 11.9539 683 128.499 1245.21 449.769
127 0 57.1154 11.8707 678 128.199 1245.22 449.765
128 0 65.162 13.6736 891 126.644 1245.83 445.129
129 0 66.1424 11.8986 787 131.083 1247.23 442.906
130 0 66.1424 12.0195 795 126.8 1249.23 442.957
131 0 71.0907 12.4067 882 134.512 1248.43 440.588
132 0 75.2189 12.9489 974 126.01 1249.96 438.93
133 0 78.3057 13.6133 1066 126.252 1252.57 437.158
134 1 46.0923 12.0194 554 124.067 1254.41 455.484
135 0 44.0426 11.7159 516 126.242 1255.21 456.508
136 0 48.0388 9.78376 470 126.1 1256.99 458.609
137 0 49.2661 15.5279 765 120.196 1257.23 453.942
138 0 47.2546 11.0677 523 131.174 1258.76 453.692
139 0 48.3008 10.8073 522 143.1 1259.77 453.561
140 0 53.0523 12.1578 645 131.423 1258.57 456.344
141 0 54.1402 12.7447 690 136.881 1257.84 454.112
142 0 56.1072 16.0942 903 125.38 1258.43 454.141
143 0 56.1072 16.0764 902 133.261 1258.42 454.183
144 0 58.0874 14.3577 834 132.832 1256.51 456.393
145 0 60.0767 14.3317 861 132.374 1255.94 455.208
146 0 60.147 14.0988 848 134.939 1254.49 453.68
147 0 60.045 15.1886 912 132.991 1254.2 456.507
148 0 63.1081 11.0445 697 139.978 1252.68 455.165
149 0 67.1799 15.198 1021 133.488 1251.38 451.08
150 0 67.0456 15.2881 1025 131.842 1249.79 454.872
151 0 69.2001 13.9451 965 136.486 1248.56 448.544
152 0 71.1226 13.9618 993 136.857 1247.16 447.921
153 0 75.102 13.9543 1048 133.599 1245.75 448.111
154 0 75.2935 13.8657 1044 135.145 1244.28 446.492
155 0 81.3203 16.9207 1376 126.57 1244.51 443.251
156 1 41.0345 7.57899 311 137.977 1242.43 460.412
157 0 41.0851 11.5127 473 130.617 1242.27 457.829
158 0 42.054 9.13111 384 142.549 1241.35 458.432
159 0 45.0188 12.8835 580 132.243 1241.13 455.771
160 0 45.0237 10.4389 470 137.079 1241.54 455.5
161 0 47.203 10.529 497 133.642 1245.96 452.35
162 0 49.1939 11.4039 561 128.553 1246.63 452.184
163 0 51.2232 14.1537 725 122.284 1246.88 449.592
164 0 49.1349 9.38234 461 132.649 1247.9 447.861
165 0 49.1349 9.34163 459 134.553 1247.87 447.647
166 0 59.2491 14.9369 885 115.954 1251.47 452.203
167 0 61.2766 17.1191 1049 111.607 1255.05 450.496
168 0 59.3914 13.9414 828 120.519 1254.6 447.975
169 0 59.3914 13.8572 823 124.848 1254.57 447.814
170 0 65.1575 15.6544 1020 117.593 1257.41 447.472
171 0 64.3878 14.3661 925 120.73 1257.89 447.092
172 0 64.1886 14.0523 902 122.929 1258.85 449.651
173 0 69.1882 18.9917 1314 114.834 1259.53 445.846
174 0 71.3422 15.8532 1131 119.365 1259.91 448.888
175 0 74.3744 20.0876 1494 114.967 1259.07 447.338
176 0 75.3525 15.5403 1171 126.3 1258.09 448.137
177 0 83.6171 13.7891 1153 126.136 1257.69 448.62
178 1 40.1267 10.0432 403 138.638 1258.34 464.561
179 0 42.0275 12.4442 523 139.05 1257.36 466.057
180 0 41.0266 13.4303 551 140.376 1255.87 464.033
181 0 45.034 13.7674 620 137.25 1253.63 465.261
182 0 46.1583 14.0387 648 134.083 1249.79 461.293
183 0 46.1536 11.9384 551 140.299 1248.35 463.225
184 0 46.105 11.7992 544 139.676 1247.37 463.199
185 0 46.1072 11.7769 543 139.227 1246.38 463.208
186 0 52.1605 15.5482 811 133.932 1244.18 460.596
187 0 53.2776 14.5089 773 134.003 1243.08 462.528
188 0 53.2339 14.8026 788 136.316 1242.93 456.843
189 0 55.0966 12.7776 704 140.469 1242.12 458.384
190 0 55.1794 13.9182 768 138.107 1241.39 456.577
191 0 55.0869 11.9266 657 141.775 1240.86 453.237
192 0 58.1508 16.9559 986 131.701 1240.87 450.691
193 0 61.1943 14.0373 859 133.801 1240.74 450.63
194 0 62.307 14.1397 881 131.059 1241.29 447.751
195 0 65.0635 16.1842 1053 126.594 1241.34 448.504
196 0 64.077 16.2617 1042 133.407 1241.32 448.526
197 0 69.2078 14.8683 1029 132.824 1243.47 443.488
198 0 69.1523 13.0581 903 132.75 1244.75 442.687
199 0 74.1831 16.3919 1216 125.505 1245.9 441.507
200 0 77.1655 19.6202 1514 121.758 1248.27 439.221
201 0 80.37 13.5374 1088 130.672 1249.51 442.763
202 1 44.1518 13.6348 602 128.92 1251.09 457.953
203 0 42.0809 10.86 457 130.919 1256.71 459.438
204 0 46.3383 13.9409 646 124.757 1257.15 460.893
205 0 45.0588 15.513 699 125.768 1257.36 459.587
206 0 46.095 12.8864 594 131.214 1257.93 459.488
207 0 49.2962 14.0782 694 129.081 1257.46 460.893
208 0 54.8793 13.0286 715 127.699 1258.3 461.799
209 0 49.1031 11.1398 547 135.433 1256.84 459.852
210 0 48.0683 11.4837 552 137.172 1256.72 460.685
211 0 51.3421 12.0174 617 137.094 1256.26 460.297
212 0 55.353 13.0255 721 136.295 1255.48 461.994
213 0 55.1848 12.9202 713 137.677 1253.61 458.742
214 0 58.0867 14.2029 825 131.893 1252.88 459.314
215 0 60.0956 15.0094 902 128.696 1252.03 460.232
216 0 60.3734 13.1184 792 132.418 1250.85 456.191
217 0 65.3006 13.859 905 128.082 1249.46 460.369
218 0 63.0858 13.125 828 134.403 1248.46 454.71
219 0 66.1429 14.0756 931 129.818 1246.78 452.952
220 0 69.1663 14.7037 1017 127.917 1244.75 452.493
221 0 71.1821 15.1724 1080 129.549 1243.31 451.684
222 0 73.2183 13.7397 1006 130.095 1242.19 451.748
223 0 74.2746 14.0559 1044 129.313 1242.07 446.559
224 0 78.1805 14.5305 1136 128.219 1241.78 446.995
225 0 79.1889 14.1686 1122 129.54 1240.96 440.15
226 0 83.3246 14.7375 1228 128.987 1240.83 439.278
227 0 83.3246 14.8456 1237 147.392 1240.84 439.366
228 0 91.2711 14.6596 1338 128.749 1241.94 435.653
229 0 93.5392 15.3732 1438 125.244 1242.77 440.688
230 0 92.3762 13.8456 1279 131.097 1244.17 434.812
231 1 54.1578 12.3343 668 127.21 1245.57 451.298
232 0 59.7441 16.0518 959 117.782 1247.89 454.638
233 0 56.2832 12.9879 731 127.986 1249.21 454.108
234 0 58.2032 15.738 916 126.334 1251.22 450.379
235 0 59.5609 19.5934 1167 118.93 1252.17 454.859
236 0 59.5609 19.4591 1159 128.051 1253.17 454.891
237 0 62.4789 15.4292 964 128.164 1255.01 449.584
238 0 63.2445 15.448 977 127.843 1255.75 453.598
239 0 67.3762 14.8272 999 128.399 1256.96 450.6
240 0 67.3762 14.7381 993 150.191 1257.93 450.584
241 0 72.1868 15.9586 1152 129.683 1256.65 453.984
242 0 77.3742 15.69 1214 131.173 1256.92 452.634
243 0 77.3807 17.0456 1319 131.663 1256.39 449.327
244 0 81.3492 16.0051 1302 135.299 1255.71 449.313
245 0 81.2539 13.9809 1136 137.302 1255.18 448.097
246 0 86.386 14.933 1290 135.922 1253.05 447.388
247 1 50.1087 11.6547 584 134.339 1253.02 466.598
248 0 50.4839 12.7169 642 130.223 1250.81 465.727
249 0 51.3783 12.7875 657 134.207 1250.75 461.846
250 0 49.2223 11.6207 572 139.147 1249.59 458.253
251 0 53.4437 12.574 672 138.062 1247.03 457.765
252 0 56.2437 12.677 713 132.928 1245 457.983
253 0 58.123 13.8844 807 127.8 1244.37 458.019
254 0 61.126 14.4946 886 124.26 1243.18 458.528
255 0 61.1176 13.5313 827 125.536 1242.01 456.924
256 0 61.1158 13.0081 795 139.169 1239.94 457.543
257 0 61.1158 12.959 792 138.847 1237.91 457.518
258 0 66.2125 16.4924 1092 124.195 1240.75 448.663
259 0 67.2076 13.1682 885 131.192 1239.84 446.845
260 0 68.2064 14.6467 999 146.077 1239.76 448.799
261 0 68.1652 14.6262 997 145.686 1239.77 448.801
262 0 72.1025 12.7458 919 132.857 1240.1 444.439
263 0 78.2391 15.6827 1227 126.418 1240.95 440.876
264 0 82.1528 14.5339 1194 128.312 1242.45 438.326
265 0 84.1514 15.2463 1283 130.039 1243.43 439.636
266 1 49.2638 12.565 619 126.132 1245.45 457.244
267 0 47.1714 11.3204 534 130.071 1247.62 458.543
268 0 49.1275 11.9078 585 132.171 1249.4 455.738
269 0 49.1324 14.695 722 124.733 1251.34 459.204
270 0 51.1229 11.6582 596 132.988 1252.19 457.547
271 0 53.1474 14.0553 747 130.05 1254.25 457.007
272 0 54.0528 19.296 1043 119.5 1257.03 457.648
273 0 55.2656 15.7964 873 127.825 1256.76 455.671
274 0 56.1646 14.7602 829 130.186 1257.23 457.123
275 0 56.1646 14.867 835 142.139 1256.28 457.251
276 0 60.1311 15.0006 902 131.881 1256.33 456.007
277 0 61.1276 15.9339 974 133.3 1256.3 456.061
278 0 64.2091 17.0692 1096 131.79 1255.08 456.73
279 0 65.2676 14.4789 945 140.854 1254.07 455.506
280 0 67.1168 16.4042 1101 138.856 1253.62 453.613
281 0 68.1154 14.4607 985 146.82 1253.76 454.793
282 0 70.101 15.8486 1111 141.012 1250.33 453.099
283 0 73.1923 15.2885 1119 142.367 1250.12 451.652
284 0 76.1871 16.7351 1275 139.353 1248.23 449.256
285 0 77.4149 15.4234 1194 139.725 1247.09 450.976
286 0 81.3451 15.4773 1259 138.84 1245.31 448.018
287 0 80.3472 16.3789 1316 146.976 1243.33 447.34
288 0 84.3466 14.3219 1208 140.103 1243.42 444.374
289 0 87.3144 15.4385 1348 142.641 1242.08 439.606
290 1 46.2041 8.72217 403 147.558 1242.81 461.422
291 0 48.2186 10.9501 528 147.148 1241.77 456.902
292 0 50.1917 13.6078 683 137.372 1241.53 454.953
293 0 52.2443 12.8244 670 139.987 1241.71 455.306
294 0 54.1481 12.7982 693 135.837 1241.9 454.242
295 0 54.1866 13.3059 721 133.646 1242.45 452.485
296 0 55.3539 12.5917 697 135.581 1242.71 448.74
297 0 56.1874 13.8465 778 133.478 1243.82 449.152
298 0 59.2711 18.9974 1126 123.486 1245.77 448.936
299 0 60.2507 14.0745 848 130.677 1247.02 450.097
300 0 62.2036 15.176 944 132.201 1249.31 445.204
301 0 64.2112 14.8261 952 132.092 1250.74 447.982
302 0 66.2008 15.5889 1032 142.96 1252.74 447.002
303 0 66.251 14.3545 951 135.013 1254.11 446.278
304 0 71.3775 15.7613 1125 129.679 1254.89 449.624
305 0 71.2408 14.7107 1048 132.904 1256.18 448.081
306 0 71.2408 14.7668 1052 145.35 1257.18 448.095
307 0 76.3043 16.3556 1248 132.487 1257.13 446.023
308 0 78.1498 14.8305 1159 138.374 1256.58 448.079
309 0 78.1498 14.8561 1161 140.231 1256.57 447.922
310 0 82.2565 15.3423 1262 139.429 1255.36 446.851
311 1 42.019 9.5195 400 146.11 1255.81 468.838
312 0 43.0395 12.6396 544 144.581 1254.43 467.452
313 0 42.0395 12.0601 507 146.377 1252.2 466.769
314 0 45.0385 14.6763 661 139.688 1249.63 468.28
315 0 48.3195 14.3006 691 138.493 1247.93 463.537
316 0 48.3195 14.3213 692 143.01 1246.89 463.649
317 0 50.0337 13.0312 652 144.71 1245.35 464.367
318 0 50.1626 13.217 663 148.937 1244.49 462.897
319 0 52.1616 12.3271 643 152.087 1243.14 460.462
320 0 55.0131 15.2327 838 142.563 1242.03 461.014
321 0 57.1729 15.6543 895 136.469 1244.81 460.21
322 0 57.1769 17.1223 979 136.785 1239.91 456.261
323 0 58.2384 13.1872 768 142.866 1240.36 454.531
324 0 61.1663 17.5096 1071 131.922 1239.9 455.404
325 0 62.1149 16.7915 1043 133.733 1239.57 450.512
326 0 63.1473 16.3269 1031 136.777 1239.57 447.608
327 0 67.1483 14.3265 962 142.141 1239.11 448.445
328 0 70.1639 14.7369 1034 142.275 1239.14 445.634
329 0 71.0902 16.2751 1157 136.793 1240.18 441.296
330 0 74.2982 16.9049 1256 135.072 1241.6 443.325
331 0 73.1325 14.4806 1059 144.156 1243.48 438.288
332 0 73.1325 14.4122 1054 148.459 1244.48 438.267
333 0 77.2336 13.5304 1045 142.098 1247.91 440.302
334 0 81.2224 12.8413 1043 142.284 1250.43 439.204
335 0 82.2994 12.7583 1050 144.201 1252.05 438.802
336 1 46.0809 13.0206 600 138.783 1254.34 458.383
337 0 46.0633 10.7461 495 145.576 1254.38 458.655
338 0 45.0404 10.7459 484 140.82 1256.15 462.176
339 0 49.1247 13.6591 671 138.222 1256.3 459.502
340 0 50.1354 11.8679 595 146.034 1257.28 459.568
341 0 52.1464 15.4565 806 138.118 1257.58 458.498
342 0 55.2047 13.3865 739 141.139 1256.94 457.606
343 0 57.2448 13.6432 781 141.465 1256.19 457.452
344 0 59.1571 12.8979 763 143.881 1255.6 456.202
345 0 62.1874 14.8422 923 138.469 1254.57 457.741
346 0 61.1222 13.9229 851 144.918 1253.49 454.447
347 0 63.0884 13.4415 848 144.774 1252.34 455.647
348 0 64.074 14.4676 927 143.691 1250.43 452.125
349 0 64.074 14.4676 927 141.526 1248.43 452.125
350 0 70.1945 13.3059 934 144.201 1247.81 452.942
351 0 76.2284 17.4607 1331 133.66 1246.35 452.187
352 0 77.3935 21.3713 1654 127.019 1244.59 449.319
353 0 78.19 17.061 1334 132.833 1243.24 448.157
354 1 42.0174 9.51987 400 142.612 1243.01 466.072
355 0 41.0152 9.77686 401 140.82 1242.31 464.454
356 0 45.0482 12.8307 578 134.375 1242.42 461.753
357 0 47.0501 13.7725 648 135.48 1241.09 458.762
358 0 48.0567 11.6737 561 135.073 1240.63 460.766
359 0 55.4017 14.4761 802 126.258 1240.69 459.611
360 0 53.1108 17.2093 914 123.67 1241 457.246
361 0 53.2987 14.6345 780 130.063 1242.14 454.631
362 0 54.155 13.2582 718 133.189 1242.65 453.979
363 0 58.13 14.0375 816 130.96 1244.82 453.228
364 0 58.1073 14.9035 866 127.47 1245.03 452.843
365 0 57.0935 11.2972 645 134.763 1247.3 450.078
366 0 64.3588 14.6211 941 121.672 1248.63 454.132
367 0 63.2381 12.366 782 134.99 1250.27 447.136
368 0 64.1533 14.8862 955 133.176 1252.07 444.516
369 0 68.3882 16.4648 1126 129.577 1254.16 445.855
370 0 71.2571 14.4407 1029 131.309 1254.74 449.621
371 0 74.2151 13.892 1031 132.919 1256.37 447.535
372 0 75.2098 14.5061 1091 141.331 1258.41 448.308
373 1 39.0709 9.21402 360 142.478 1256.91 462.725
374 0 43.128 10.5964 457 141.149 1256.38 463.306
375 0 45.0815 10.1372 457 138.12 1256.96 467.013
376 0 45.0574 11.5852 522 139.989 1256.37 466.745
377 0 44.0762 9.8239 433 142.774 1256.02 469.115
378 0 48.0496 12.4455 598 136.41 1255.48 466.304
379 0 50.1043 11.4561 574 136.984 1254.25 468.007
380 0 50.088 11.3999 571 141.606 1253.27 467.907
381 0 53.084 11.7173 622 138.013 1252.62 465.675
382 0 53.1272 14.6065 776 133.447 1251.5 463.961
383 0 54.1075 12.9372 700 136.95 1249.61 462.244
384 0 58.2088 14.1559 824 130.638 1247.67 464.468
385 0 60.2319 13.6306 821 133.139 1246.6 462.186
386 0 59.0609 14.9507 883 133.051 1243.12 457.544
387 0 62.124 12.3302 766 132.033 1241.83 460.238
388 0 62.04 11.2669 699 135.89 1241.32 455.682
389 0 64.1614 12.4218 797 132.379 1240.37 455.917
390 0 66.2211 11.9297 790 134.235 1239.19 455.985
391 0 69.1924 16.5336 1144 128.017 1238.71 448.503
392 0 69.1924 16.6348 1151 131.457 1237.76 448.451
393 0 69.2 16.7341 1158 130.668 1236.8 448.241
394 0 75.1978 11.769 885 135.533 1238.98 444.108
395 0 78.124 11.6353 909 135.062 1239.36 444.154
396 1 45.0355 11.1912 504 129.966 1239.99 461.554
397 0 44.0626 8.85105 390 133.026 1241.65 458.123
398 0 47.1001 11.9533 563 125.25 1243.57 458.272
399 0 47.0945 13.3561 629 119.45 1245.88 457.871
400 0 49.1399 10.6634 524 122.647 1248.35 458.187
401 0 51.1063 12.7969 654 122.946 1248.61 457.59
402 0 52.1499 13.4804 703 121.812 1251.04 458.73
