time division length width area intensity CMx CMy
0 0 47.2376 12.2995 581 120.814 1113.97 444.978
1 0 48.4164 10.4097 504 119.982 1115.14 444.923
2 0 50.8172 13.3813 680 117.209 1115.85 446.093
3 0 49.0657 17.6498 866 112.695 1114.4 449.818
4 0 49.0657 17.874 877 112.732 1114.49 449.808
5 0 56.1863 21.1261 1187 109.901 1115.62 447.099
6 0 55.4624 14.5504 807 114.088 1114.75 448.875
7 0 57.3126 14.2028 814 115.313 1113.61 450.485
8 0 58.2311 29.7435 1732 105.225 1112.31 450.707
9 0 62.0083 15.8205 981 118.555 1111.1 445.804
10 0 60.3076 20.81 1255 116.338 1110.18 447.592
11 0 63.1759 15.1007 954 124.344 1109.31 444.768
12 0 64.3144 16.4349 1057 125.074 1108.21 445.165
13 0 67.3869 13.8899 936 130.087 1107.84 446.787
14 0 71.345 17.4504 1245 126.613 1106.36 444.959
15 0 71.1579 12.8587 915 135.243 1105.6 442.144
16 1 36.0629 9.59434 346 138.419 1103.62 459.358
17 0 39.0525 11.062 432 136.185 1102.91 459.238
18 0 40.0945 11.6974 469 136.179 1101.39 456.644
19 0 40.1569 10.4839 421 141.61 1100.38 457.641
20 0 40.0781 10.0055 401 144.848 1098.49 453.89
21 0 44.1423 12.8675 568 137.542 1098.6 452.548
22 0 44.0432 12.4877 550 137.249 1097.8 450.116
23 0 43.0864 13.6702 589 137.183 1098.05 450.764
24 0 45.1061 11.7279 529 142.448 1098.09 446.716
25 0 48.0257 11.9311 573 141.71 1098.25 447.991
26 0 50.0434 13.2085 661 137.356 1098.49 447.461
27 0 50.1119 13.5896 681 139.164 1098.76 443.576
28 0 52.1711 14.4333 753 133.405 1099.73 444.671
29 0 53.0406 11.9343 633 142.016 1101.08 441.638
30 0 54.2647 14.4846 786 132.206 1102.15 440.36
31 0 57.2391 18.6586 1068 122.434 1105.06 437.805
32 0 59.2192 17.1059 1013 123.406 1105.9 440.315
33 0 59.1234 11.383 673 129.126 1107.2 441.652
34 0 60.1174 14.3885 865 124.43 1109.07 440.763
35 0 64.1484 12.9543 831 122.949 1110.75 441.298
36 0 67.2194 12.8981 867 122.089 1111 441.852
37 0 68.2167 11.4048 778 126.743 1111.55 439.473
38 0 72.371 13.873 1004 121.374 1112.36 440.812
39 0 73.3104 12.904 946 125.16 1111.35 437.518
40 0 76.295 13.5658 1035 123.508 1111.08 442.834
41 0 75.1793 13.7804 1036 125.264 1110.12 442.858
42 0 82.4143 17.0844 1408 124.139 1109.94 441.04
43 1 46.0556 11.6381 536 136.041 1108.52 457.478
44 0 47.1914 10.023 473 138.996 1107.93 457.249
45 0 45.0404 8.65888 390 149.685 1107.13 456.385
46 0 48.1706 12.5595 605 137.41 1106.41 456.04
47 0 49.2118 12.5783 619 137.725 1107.47 453.351
48 0 49.2118 12.5783 619 139.628 1107.48 453.422
49 0 53.1246 16.4707 875 136.951 1101.82 455.307
50 0 52.1935 12.7219 664 146.505 1100.53 452.577
51 0 55.1354 13.6029 750 146.117 1099.25 451.791
52 0 59.0854 14.2336 841 139.924 1098.35 450.257
53 0 58.0678 14.8275 861 145.693 1097.67 448.181
54 0 61.0606 13.6258 832 144.331 1096.64 449.78
55 0 64.1152 14.9418 958 143.301 1095.66 446.289
56 0 68.1209 15.2229 1037 138.45 1095.05 443.869
57 0 68.1209 15.3551 1046 149.496 1094.05 443.985
58 0 70.1635 15.6777 1100 140.266 1095.48 440.265
59 0 71.1402 17.3601 1235 138.94 1094.63 437.057
60 0 77.2784 13.7037 1059 142.448 1095.06 438.703
61 0 75.1701 15.6711 1178 144.795 1095.21 436.473
62 0 79.0983 18.1167 1433 133.136 1096.4 436.205
63 0 82.2096 15.6308 1285 135.773 1097.92 434.293
64 0 84.1807 16.3577 1377 138.993 1099.86 430.057
65 0 84.1807 16.3695 1378 141.866 1101.88 429.963
66 1 47.0543 10.1797 479 135.138 1102.93 452.933
67 0 48.0499 9.92718 477 134.614 1106.65 450.734
68 0 50.0814 14.2967 716 127.878 1107.6 451.212
69 0 53.3137 14.2365 759 123.759 1107.98 450.063
70 0 55.1878 13.9886 772 124.567 1108.48 451.209
71 0 57.1134 11.8361 676 126.929 1110.03 453.072
72 0 57.11 11.7493 671 127.17 1111.03 453.016
73 0 57.152 13.3504 763 126.265 1110.03 450.809
74 0 60.3553 16.8668 1018 123.527 1109.73 450.841
75 0 61.1435 16.4204 1004 124.442 1109.5 453.529
76 0 65.186 14.0828 918 132.423 1107.76 451.366
77 0 66.1619 15.9306 1054 130.119 1107.3 450.432
78 0 68.2186 13.3248 909 136.597 1107.02 450.173
79 0 69.1808 14.8741 1029 135.235 1106.06 445.188
80 0 71.0768 13.7457 977 137.474 1104.7 450.146
81 0 72.1906 14.0739 1016 139.838 1103.12 446.777
82 0 76.0941 15.218 1158 139.385 1102.05 444.477
83 0 78.1583 11.5791 905 146.559 1101.1 444.377
84 0 81.132 13.854 1124 143.153 1099.77 439.109
85 0 84.2258 13.9268 1173 140.381 1097.71 438.612
86 0 89.1812 15.3283 1367 135.742 1096.86 439.001
87 0 91.1446 16.6658 1519 134.804 1096.72 438.421
88 0 93.3435 12.0308 1123 143.057 1095.67 432.574
89 1 52.0858 10.9627 571 139.166 1094.86 453.259
90 0 54.0394 12.2873 664 138.883 1094.87 454.042
91 0 58.1276 14.1413 822 133.938 1095.09 448.367
92 0 59.0335 13.162 777 134.627 1094.44 446.81
93 0 61.2453 15.3481 940 127.227 1097.33 444.791
94 0 60.1267 15.2345 916 128.938 1097.49 443.538
95 0 62.0636 14.5012 900 129.841 1096.77 445.16
96 0 63.1421 10.1992 644 141.056 1096.87 444.095
97 0 66.3195 12.4549 826 135.972 1096.67 441.431
98 0 68.1672 14.2737 973 134.053 1098.83 442.943
99 0 74.6879 14.9823 1119 126.686 1101.42 441.99
100 0 74.1734 14.9515 1109 127.932 1102.56 438.526
101 0 75.2067 14.6795 1104 130.318 1104.06 436.676
102 0 78.1225 16.0773 1256 126.992 1106.75 436.945
103 0 81.2127 15.8842 1290 123.333 1108.17 442.561
104 0 81.2127 15.7734 1281 128.928 1109.15 442.279
105 0 84.1571 18.1684 1529 122.32 1109.66 433.445
106 0 92.4679 17.5629 1624 121.637 1109.72 437.691
107 0 93.2053 14.3661 1339 127.825 1109.86 437.385
108 0 96.4751 12.8116 1236 130.743 1109.19 436.303
109 0 106.405 18.1759 1934 119.849 1110.02 439.337
110 0 106.404 18.3546 1953 123.65 1110.03 439.546
111 1 55.0947 10.6362 586 131.932 1108.32 458.829
112 0 57.167 13.3644 764 127.823 1106.36 454.944
113 0 58.1473 15.0308 874 125.102 1105.95 457.341
114 0 63.2379 15.4654 978 121.606 1104.48 457.679
115 0 62.0751 14.9335 927 125.877 1104.97 456.329
116 0 63.1102 13.1358 829 131.89 1101.72 451.721
117 0 66.0997 13.994 925 128.173 1100.03 454.671
118 0 66.2617 12.2997 815 134.631 1098.46 450.809
119 0 66.2571 12.1798 807 135.3 1097.46 450.765
120 0 66.2528 12.1504 805 134.957 1096.46 450.703
121 0 71.203 16.9515 1207 126.838 1094.86 446.429
122 0 73.1201 13.4573 984 132.578 1093.59 445.405
123 0 76.1816 15.6993 1196 127.597 1093.21 438.85
124 0 79.1635 14.8553 1176 127.668 1092.23 441.74
125 0 84.5879 17.7094 1498 122.893 1093.38 441.911
126 0 84.7713 17.7537 1505 125.685 1094.34 442.068
127 0 84.7713 17.6711 1498 125.362 1095.38 442.138
128 0 89.1458 15.6037 1391 127.618 1092.88 432.166
129 0 88.1311 12.6516 1115 135.296 1094.36 426.912
130 0 88.1311 12.5949 1110 146.114 1096.35 426.842
131 1 53.0729 13.5662 720 131.574 1095.95 449.599
132 0 55.1083 12.3756 682 125.723 1097.71 448.909
133 1 105.451 18.1411 1913 123.883 1100.62 423.428
134 1 60.1461 11.4721 690 125.961 1102.72 451.009
135 0 58.2522 13.1497 766 127.542 1104.42 448.859
136 0 59.4407 10.1614 604 127.634 1106.29 441.829
137 0 61.5249 16.7249 1029 116.902 1106.31 442.541
138 0 62.2344 9.8338 612 125.132 1108.46 446.765
139 0 63.1701 11.8094 746 119.861 1109.25 448.814
140 0 70.1728 13.0535 916 117.841 1109.05 452.301
141 0 68.2678 15.4978 1058 122.106 1108.24 449.321
142 0 70.2036 14.5434 1021 121.566 1108.17 446.174
143 0 70.2036 14.7143 1033 126.733 1108.1 446.117
144 0 73.0603 14.0295 1025 126.146 1106.69 444.044
145 0 75.1563 11.1368 837 127.335 1106.02 448.973
146 0 81.165 13.7621 1117 123.543 1104.43 447.579
147 0 85.2546 14.8144 1263 120.798 1103.46 448.135
148 0 84.336 12.9956 1096 126.005 1102.47 440.154
149 0 86.4049 13.4483 1162 127.269 1100.96 438.606
150 0 89.1913 13.0954 1168 127.508 1099.22 436.713
151 0 91.1557 12.0892 1102 129.95 1098.02 433.226
152 0 95.2195 15.1229 1440 125.562 1096.68 434.256
153 0 97.176 11.8548 1152 128.626 1095.07 436.518
154 0 97.1427 11.6633 1133 135.766 1094.26 431.949
155 0 103.164 15.6644 1616 123.428 1093.5 435.785
156 0 108.258 16.0727 1740 123.457 1092.42 432.89
157 0 109.4 13.8757 1518 131.558 1091.49 424.531
158 0 114.457 16.7049 1912 134.703 1089.6 419.791
159 0 119.372 15.4726 1847 134.703 1090.02 418.796
160 0 117.191 13.158 1542 137.852 1091.23 420.372
161 1 62.3428 14.5646 908 126.785 1092.01 446.351
162 0 64.4959 15.1793 979 121.842 1092.69 444.384
163 0 65.2087 17.2063 1122 117.626 1093.31 448.127
164 0 74.42 17.1863 1279 115.869 1094.51 446.979
165 0 74.4771 17.2939 1288 117.971 1095.49 446.983
166 0 75.3415 16.5911 1250 118.819 1097.71 440.575
167 0 75.3309 14.9607 1127 122.368 1099.45 439.889
168 0 78.3882 16.3673 1283 119.311 1101.4 443.044
169 0 78.3885 16.9923 1332 129.796 1102.38 442.642
170 0 83.0948 16.5474 1375 121.08 1104 439.106
171 0 85.143 17.5235 1492 120.046 1104.45 440.114
172 0 86.0677 15.3368 1320 125.2 1104.58 439.63
173 0 89.2592 14.4411 1289 125.373 1105.31 440.798
174 0 91.3159 18.321 1673 124.943 1106.7 435.54
175 0 94.3066 15.0043 1415 130.134 1105.83 437.269
176 0 97.1708 13.9651 1357 137.536 1104.53 438.08
177 1 53.066 11.2313 596 131.564 1104.14 459.809
178 0 55.0531 10.9167 601 137.456 1103.86 459.589
179 0 56.2228 13.4821 758 136.872 1104.41 461.02
180 0 59.2403 14.4327 855 137.136 1100.62 458.375
181 0 61.0951 14.7802 903 136.648 1097.94 456.018
182 0 62.161 13.2559 824 139.313 1097.17 454.414
183 0 65.2376 15.2519 995 135.213 1096.11 451.74
184 0 68.115 13.4919 919 136.541 1094.78 457.418
185 0 69.1595 14.5461 1006 137.273 1093.66 451.95
186 0 71.1767 14.4429 1028 136.806 1091.8 450.443
187 0 71.1234 13.4555 957 138.061 1090.83 450.185
188 0 75.1206 15.0292 1129 134.52 1090.48 445.513
189 0 74.1972 11.8468 879 141.746 1089.62 444.643
190 0 79.211 16.0962 1275 129.457 1088.84 447.584
191 0 83.1132 14.3058 1189 132.831 1088.48 442.473
192 1 45.2109 11.2805 510 133.965 1087.35 457
193 0 49.1667 12.4068 610 126.389 1087.39 457.882
194 0 48.1185 14.0902 678 122.248 1087.96 455.177
195 0 51.1538 14.6617 750 119.627 1087.46 454.781
196 0 49.1129 12.6036 619 133.265 1086.66 452.588
197 0 52.1534 13.5753 708 128.367 1089.83 448.77
198 0 54.1082 11.6618 631 126.306 1091.64 450.64
199 0 56.0368 13.0807 733 124.333 1092.78 447.57
200 0 58.1242 13.5056 785 123.805 1095.07 447.394
201 0 58.27 11.5669 674 127.24 1095.97 445.503
202 0 57.2023 12.1848 697 127.119 1098.11 445.481
203 0 65.2157 14.8277 967 118.863 1100.86 448.898
204 0 68.5637 18.9459 1299 112.959 1101.5 449.71
205 0 63.1258 11.6117 733 126.527 1101.54 446.999
206 0 64.0491 13.1618 843 125.836 1102.19 443.676
207 0 70.1118 19.7114 1382 116.778 1102.37 446.038
208 0 73.595 16.0745 1183 119.682 1103.06 450.683
209 1 148.534 20.3051 3016 121.836 1102.17 416.417
210 0 153.342 14.5883 2237 134.643 1102.1 403.301
211 0 158.565 14.3285 2272 134.606 1101.81 410.158
212 0 154.437 11.2797 1742 147.757 1101.77 402.793
213 1 86.281 14.4528 1247 129.061 1098.67 442.455
214 1 45.0904 7.58476 342 129.857 1098.27 465.187
215 0 48.2512 10.6733 515 126.928 1097.58 463.105
216 0 48.229 8.54258 412 130.124 1096.12 461.204
217 0 54.1151 10.8842 589 125.919 1094.69 461.336
218 0 51.1559 10.6537 545 127.644 1094.08 461.567
219 0 53.1192 10.1093 537 126.801 1092.39 460.659
220 0 54.1133 13.0837 708 123.089 1092.08 458.636
221 0 57.0936 11.052 631 127.686 1089.74 451.865
222 0 59.0421 13.6852 808 122.17 1088.4 450.802
223 0 58.1532 16.147 939 118.202 1088.33 448.412
224 0 62.2075 13.1656 819 122.383 1087.8 448.046
225 0 63.0626 13.3359 841 122.702 1087.09 445.165
226 0 66.0856 13.074 864 123.103 1086.99 443.992
227 0 68.1411 13.7068 934 122.094 1087.36 442.594
228 0 70.2069 11.2525 790 126.21 1087.82 443.603
229 0 72.1826 13.452 971 121.876 1088.7 442.92
230 0 76.2122 14.7745 1126 118.547 1089.42 437.664
231 0 77.089 11.584 893 120.421 1090.3 438.713
232 0 78.2602 9.83897 770 122.81 1092.48 435.33
233 0 81.334 14.422 1173 118.125 1094.08 436.12
234 0 85.3237 19.3733 1653 113.311 1096.11 432.448
235 0 86.2593 15.3143 1321 119.683 1097.84 433.92
236 0 88.2867 13.0257 1150 124.824 1099.35 433.626
237 0 92.3929 13.2261 1222 123.6 1100.78 431.687
238 0 92.3778 10.955 1012 127.992 1101.5 430.968
239 0 95.3167 10.869 1036 126.07 1102.87 437.791
240 0 95.3192 11.0261 1051 135.389 1104.87 437.696
241 1 55.1103 6.93156 382 127.495 1101.21 460.686
242 0 56.1638 10.0243 563 126.863 1101.76 456.837
243 0 62.1476 13.6128 846 120.488 1101.52 456.115
244 0 63.0943 10.73 677 124.96 1100.53 459.391
245 0 62.1988 10.6594 663 126.27 1100.68 454.591
246 0 66.1314 14.5619 963 121.354 1102.2 451.187
247 0 69.322 13.9783 969 123.886 1101.69 452.017
248 0 70.2771 14.9409 1050 123.575 1100.16 448.526
249 0 74.2636 13.5194 1004 124.603 1099.38 446.943
250 0 75.4158 11.1382 840 129.639 1097.97 447.751
251 0 75.2449 10.7383 808 133.338 1095.81 447.241
252 0 83.3134 17.1521 1429 120.861 1094.8 446.835
253 0 87.3154 17.557 1533 118.607 1094.02 444.526
254 0 88.3322 13.3021 1175 126.54 1092.59 440.765
255 0 91.4887 17.5541 1606 118.662 1091.46 440.947
256 0 95.3007 14.0922 1343 125.22 1090.7 438.397
257 0 94.5079 11.8403 1119 130.821 1089.86 434.04
258 1 46.0283 8.40787 387 126.53 1089.12 461.561
259 0 49.2427 7.75749 382 130.257 1086.85 453.903
260 0 51.2456 9.48373 486 131.364 1086.97 451.626
261 0 52.1588 10.7748 562 128.655 1086.17 453.589
262 0 57.3078 18.0255 1033 109.536 1086.73 453.625
263 0 57.2473 11.0573 633 121.938 1087.19 449.009
264 0 57.0548 14.267 814 120.343 1088.43 447.51
265 0 59.1796 12.9436 766 123.944 1089.67 445.962
266 0 65.3029 17.5643 1147 113.827 1092.84 447.59
267 0 66.1579 12.9992 860 122.322 1094.19 446.901
268 0 67.1786 14.2307 956 120.937 1096.25 444.902
269 0 68.0966 12.0564 821 124.677 1097.87 444.798
270 0 71.1949 13.5824 967 120.838 1099.25 447.947
271 0 75.1447 16.1156 1211 118.998 1100.35 445.723
272 0 74.1396 13.9871 1037 124.439 1101.16 445.421
273 0 77.0566 15.56 1199 122.46 1100.91 446.659
274 0 78.2091 13.1954 1032 128.109 1101.01 444.037
275 0 78.2073 13.0678 1022 149.619 1101.04 443.899
276 0 82.2475 15.0521 1238 125.818 1103 445.736
277 0 84.1269 16.7128 1406 126.187 1102.95 444.095
278 0 87.1781 13.6617 1191 132.573 1102.04 444.427
279 0 89.3196 14.5993 1304 134.887 1100.82 440.991
280 0 90.089 11.3443 1022 142.592 1100.39 440.022
281 0 90.089 11.3665 1024 152.366 1099.39 440.129
282 1 55.1509 9.79131 540 131.222 1096.32 465.807
283 0 55.292 7.43326 411 136.942 1095.01 464.324
284 0 58.0803 11.9834 696 132.25 1093.21 455.585
285 0 59.1651 12.2877 727 128.805 1091.06 453.78
286 0 67.5635 14.7417 996 120.331 1093.37 459.834
287 0 63.0337 13.0724 824 138.059 1091.27 457.313
288 0 63.1501 13.6184 860 125.683 1091.72 453.267
289 0 65.0746 11.8172 769 131.129 1090.61 454.44
290 0 67.1482 17.2603 1159 121.378 1089.7 449.964
291 0 69.372 12.7573 885 129.771 1088.67 448.583
292 0 72.1755 14.631 1056 123.802 1088.25 445.743
293 0 73.3558 11.0421 810 130.184 1088.76 446.793
294 0 74.2284 12.0843 897 128.252 1089.07 442.641
295 0 77.2007 13.5621 1047 125.673 1089.42 441.345
296 1 37.1397 10.1239 376 136.229 1090.69 461.54
297 0 42.1785 10.2185 431 126.2 1091.21 459.74
298 0 52.6972 12.4295 655 119.205 1093.51 458.287
299 0 45.1431 10.8544 490 127.151 1094.42 454.024
300 0 54.5646 14.3683 784 118.204 1096.84 456.615
301 0 52.1946 12.3001 642 122.455 1098.99 456.62
302 0 53.3076 9.58588 511 136.906 1099.93 458.994
303 0 51.0893 12.6445 646 127.628 1102.52 452.232
304 0 56.1512 12.9294 726 124.664 1103.58 455.51
305 0 59.0452 15.4289 911 119.653 1104.42 456.199
306 0 59.0452 15.4797 914 132.627 1105.41 456.209
307 0 59.0817 10.7309 634 130.347 1105.56 456.095
308 0 59.0553 13.2249 781 130.02 1105.41 453.542
309 0 60.0664 12.3363 741 140.364 1104.39 453.838
310 0 66.0518 14.7611 975 126.489 1104.12 454.129
311 0 66.0263 12.1921 805 134.211 1103.77 455.37
312 0 69.0387 13.4707 930 133.842 1102.26 456.26
313 0 69.1372 13.9433 964 130.161 1100.96 458.618
314 0 74.0317 14.7774 1094 131.005 1099.89 454.878
315 0 75.0422 12.1665 913 134.483 1098.78 456.229
316 0 75.0349 12.141 911 141.996 1097.78 456.221
317 0 80.1918 14.6898 1178 132.753 1096.4 452.414
318 0 82.1627 14.2644 1172 135.696 1094.92 449.512
319 0 84.34 15.6865 1323 134.613 1092.87 445.944
320 1 46.0363 10.0356 462 139.688 1093.05 464.039
321 0 46.1313 11.7274 541 135.665 1092.57 461.71
322 0 47.0623 10.1355 477 139.597 1090.76 459.69
323 0 53.0905 11.697 621 135.615 1091.19 456.467
324 0 51.0216 11.6029 592 137.225 1090.81 456.306
325 0 53.096 12.129 644 134.512 1090.43 454.89
326 0 57.1652 13.5047 772 127.724 1090.59 457.449
327 0 58.2873 16.4873 961 127.822 1088 453.171
328 0 56.0628 11.1482 625 133.235 1088.94 443.885
329 0 59.0679 12.3925 732 124.173 1088.21 445.135
330 0 60.1157 12.6756 762 121.957 1089.95 450.113
331 0 64.2209 11.4137 733 127.119 1091.84 446.663
332 0 64.2209 12.3013 790 119.39 1093.72 447.697
333 0 66.1918 12.1616 805 125.442 1094.97 442.211
334 0 70.1648 13.9386 978 121.193 1097.58 442.717
335 0 71.1824 14.9616 1065 121.577 1099.47 442.388
336 0 71.2316 17.5063 1247 119.313 1100.68 446.747
337 0 71.1718 12.1396 864 131.701 1100.67 440.039
338 0 76.2175 12.9498 987 128.084 1102.59 441.672
339 0 79.2709 14.0405 1113 126.746 1102.56 443.987
340 0 80.1406 13.4514 1078 132.604 1102.75 441.677
341 0 83.4818 13.5119 1128 130.866 1102.94 437.607
342 0 85.1619 10.8147 921 134.4 1102.02 446.397
343 0 89.2112 14.1798 1265 134.909 1101.47 436.304
344 1 49.2259 12.7372 627 127.011 1100.9 463.375
345 0 49.0244 11.8716 582 136.105 1099.08 463.876
346 0 53.1629 12.9414 688 134.211 1097.54 462.004
347 0 55.1272 14.403 794 130.832 1096.39 461.128
348 0 55.1613 13.7778 760 132.909 1094.66 460.612
349 0 55.1613 13.6146 751 124.505 1093.67 460.514
350 0 59.2089 15.116 895 129.403 1092.68 459.169
351 0 58.1149 11.8214 687 136.389 1091.18 457.068
352 0 60.093 13.3959 805 133.045 1089.92 457.353
353 0 64.0807 13.7951 884 129.184 1088.43 455.245
354 0 65.0884 15.3944 1002 127.194 1087.81 451.317
355 0 66.0347 13.0386 861 129.28 1086.99 451.319
356 0 68.1612 14.0696 959 128.178 1087.09 451.858
357 0 72.0676 17.0951 1232 125.555 1085.88 447.44
358 0 73.1645 13.4491 984 132.249 1085.8 445.836
359 0 76.3074 13.4325 1025 131.386 1085.76 444.95
360 0 76.2116 14.6566 1117 129.579 1085.89 444.473
361 0 79.1144 18.9852 1502 123.413 1086.88 442.72
362 0 81.3163 14.9048 1212 131.417 1087.24 441.639
363 0 85.1646 17.519 1492 127.737 1089.45 438.208
364 0 87.1927 16.6528 1452 126.475 1090.43 438.402
365 0 89.2385 22.8041 2035 118.169 1092.8 433.859
366 1 51.4269 12.6782 652 127.014 1095.23 454.712
367 0 51.4269 12.5615 646 135.726 1096.27 454.625
368 0 52.1325 13.8877 724 129.646 1100.06 454.535
369 0 58.8663 12.2991 724 127.591 1102.13 458.414
370 0 56.0606 14.3951 807 129.595 1102.35 453.834
371 0 56.1409 10.2955 578 135.683 1100.74 455.26
372 0 56.1409 10.2599 576 128.715 1101.78 455.344
373 0 62.1681 15.5868 969 128.376 1100.48 454.444
374 0 61.2637 14.1356 866 134.439 1100.09 456.779
375 0 61.0856 11.5576 706 140.758 1100.19 457.282
376 0 63.1194 12.2466 773 141.906 1100.05 459.351
377 0 66.0682 13.1077 866 140.271 1099.92 457.617
378 0 70.256 15.1589 1065 134.377 1099.44 457.665
379 0 69.1142 16.2919 1126 134.992 1098.48 456.137
380 0 74.0824 18.0475 1337 130.847 1097.63 456.613
381 0 75.0628 15.6402 1174 136.101 1097.12 455.842
382 0 76.2056 15.0252 1145 139.653 1095.98 451.84
383 1 41.2287 11.1815 461 142.328 1094.26 470.705
384 0 44.1534 9.21786 407 146.582 1092.45 469.44
385 0 45.2109 12.0989 547 141.163 1092.23 467.861
386 0 48.4451 15.4814 750 132.191 1091.63 466.204
387 0 50.565 12.6768 641 136.248 1091.62 462.129
388 0 49.2088 12.701 625 132.379 1091.44 464.605
389 0 50.0771 14.298 716 129.888 1090.89 461.299
390 0 50.0504 12.0279 602 135.09 1089.88 460.43
391 0 52.0463 15.4093 802 129.281 1088.93 457.781
392 0 52.0463 15.3325 798 140.174 1086.93 457.84
393 0 52.0463 15.3133 797 139.78 1084.94 457.844
394 0 58.1483 12.4509 724 133.03 1089.39 454.566
395 0 60.1424 14.8481 893 130.162 1089.64 450.863
396 0 60.142 12.9527 779 133.379 1090.57 449.915
397 0 66.3797 17.0986 1135 121.895 1092.27 449.398
398 0 67.0481 14.2584 956 126.412 1093.44 449.046
399 0 69.2428 13.9942 969 125.254 1095.31 449.662
400 0 73.1806 16.5754 1213 120.121 1097.15 450.732
401 0 77.2257 16.3935 1266 121.555 1098.81 448.245
