time division length width area intensity CMx CMy
0 0 60.19 19.7375 1188 114.987 1340.82 440.285
1 0 62.3953 20.915 1305 109.525 1342.06 444.162
2 0 67.2629 22.3749 1505 110.051 1342.35 442.579
3 0 62.0813 13.4823 837 116.485 1341.83 445.403
4 0 62.0724 12.3565 767 141.802 1341.79 446.729
5 0 66.1118 15.7461 1041 115.11 1343.1 443.049
6 0 71.3357 21.9806 1568 109.397 1342.45 439.644
7 0 72.321 14.8643 1075 116.649 1341.53 441.147
8 0 77.3126 23.2692 1799 109.971 1340.19 444.442
9 0 78.3397 18.1389 1421 118.77 1339.31 435.463
10 0 78.2842 14.128 1106 126.593 1338.41 441.555
11 0 82.219 15.1425 1245 128.382 1337.6 436.634
12 0 84.5544 13.4351 1136 134.851 1336.5 436.21
13 0 87.5432 15.341 1343 134.43 1336.16 435.892
14 0 89.2895 14.3466 1281 136.673 1334.99 435.92
15 1 47.0771 11.4705 540 131.737 1336.3 455.593
16 0 46.2125 11.6635 539 129.798 1334.21 458.564
17 0 51.1811 12.446 637 136.824 1333.21 452.48
18 0 52.1449 14.9391 779 135.82 1331.57 452.837
19 0 52.0802 11.9623 623 140.926 1328.45 451.316
20 0 54.0929 15.1776 821 132.519 1327.52 449.945
21 0 54.204 12.619 684 138.133 1327.26 446.851
22 1 113.317 14.0844 1596 136.115 1327.09 426.821
23 0 113.304 12.1179 1373 144.385 1326.62 418.801
24 0 118.34 14.7541 1746 137.75 1326.12 414.753
25 1 64.2635 14.5495 935 128.465 1326.44 442.971
26 0 63.1487 13.0644 825 133.21 1326.96 438.124
27 0 64.2009 19.4545 1249 121.492 1328 437.498
28 0 66.1118 12.6452 836 130.81 1327.91 438.38
29 0 67.2015 12.7081 854 133.098 1329.63 436.349
30 0 71.1217 10.8968 775 128.426 1330.79 437.787
31 0 74.2133 13.2995 987 123.744 1333.81 433.034
32 0 76.333 16.4804 1258 118.118 1335.16 434.817
33 0 81.0865 16.3776 1328 118.112 1336.85 428.728
34 0 82.3428 17.33 1427 115.151 1338.57 435.726
35 0 90.5069 15.5016 1403 116.12 1341.12 431.475
36 0 88.603 14.1079 1250 115.971 1341.15 436.443
37 1 48.4891 12.7451 618 115.214 1342.04 449.827
38 0 48.5031 9.42207 457 118.221 1343.01 448.09
39 0 50.5404 12.7621 645 114.045 1342.5 450.721
40 0 53.5179 13.6403 730 115.27 1342.01 449.393
41 0 53.5179 13.6403 730 129.052 1341.95 449.61
42 0 56.1966 13.5595 762 124.429 1339.29 453.472
43 0 56.2602 14.0241 789 131.553 1338.54 452.042
44 0 58.2286 14.0137 816 130.385 1338.04 451.733
45 0 59.3179 17.2629 1024 128.6 1337.07 453.604
46 0 62.3155 14.1377 881 127.762 1335.82 455.393
47 0 64.2391 14.1658 910 130.951 1334.62 450.645
48 0 64.2367 14.2286 914 128.91 1333.62 450.683
49 0 67.2675 14.0633 946 131.899 1331.73 451.493
50 0 69.1464 14.8959 1030 129.007 1330.44 449.376
51 0 73.2729 15.6947 1150 129.601 1329.54 446.066
52 0 75.4334 18.1617 1370 121.067 1328.78 446.267
53 0 72.0924 13.9266 1004 134.442 1328.05 438.643
54 0 77.5118 13.5721 1052 132.032 1327.36 439.225
55 0 78.2342 14.9934 1173 131.91 1326.84 435.588
56 0 82.4255 15.9174 1312 126.806 1326.28 433.139
57 0 82.4255 15.7839 1301 142.79 1326.24 433.025
58 1 46.3261 12.2825 569 127.591 1327.21 450.084
59 0 46.4709 10.9961 511 128.544 1326.76 451.333
60 0 45.5849 11.5609 527 127.985 1327.13 449.013
61 0 51.3791 11.9698 615 129.818 1326.96 448.746
62 0 55.1946 13.2441 731 124.672 1327.1 445.13
63 0 62.3553 14.674 915 114.419 1329.19 451.763
64 0 55.0816 15.8674 874 122.388 1329.81 443.944
65 0 55.0816 15.6677 863 144.127 1330.86 443.886
66 0 60.2728 13.2232 797 122.348 1333.06 448.031
67 0 60.1479 14.1817 853 121.042 1336.05 446.998
68 0 61.107 16.7575 1024 117.403 1336.79 448.046
69 0 67.3497 21.9006 1475 107.5 1338.06 449.083
70 0 67.4171 14.1804 956 119.793 1338.64 445.953
71 0 67.218 16.9151 1137 114.489 1340.22 449.951
72 0 67.218 17.049 1146 137.667 1341.14 449.958
73 0 73.1397 18.4031 1346 116.279 1340.96 444.507
74 0 76.208 15.4446 1177 122.732 1339.44 446.542
75 0 78.2702 18.6789 1462 117.585 1339.04 449.235
76 0 85.1724 18.5036 1576 120.548 1338.23 444.332
77 0 85.6897 19.1738 1643 119.308 1337.85 447.683
78 0 84.1398 15.5218 1306 128.893 1337.18 444.249
79 0 87.2442 15.6801 1368 128.848 1336.71 441.825
80 0 87.2442 15.8062 1379 146.856 1335.75 441.858
81 0 93.3666 14.3306 1338 135.338 1334.01 437.697
82 0 96.6573 13.8427 1338 138.342 1332.81 435.262
83 1 52.145 13.6351 711 132.138 1332.7 455.938
84 0 54.1684 10.9658 594 137.279 1331.34 456.707
85 0 55.0915 13.523 745 131.728 1329.47 454.662
86 0 59.099 12.606 745 132.2 1328.55 455.94
87 0 56.0845 11.9284 669 136.963 1327.15 453.635
88 0 60.0748 16.3962 985 124.394 1326.25 454.368
89 0 64.1265 13.7385 881 125.205 1325.41 444.287
90 0 65.1338 14.6161 952 129.28 1325.62 446.086
91 0 67.3033 14.9473 1006 124.841 1326.69 447.41
92 0 70.1851 17.4396 1224 122.828 1325.84 439.675
93 0 71.2237 18.1541 1293 123.145 1325.75 438.552
94 0 73.1911 16.1222 1180 125.928 1324.63 439.574
95 0 75.2267 14.2636 1073 128.651 1324.63 437.194
96 0 78.1869 21.4614 1678 118.3 1325.81 431.142
97 0 81.172 14.4508 1173 128.188 1326.99 434.872
98 0 83.0704 18.3338 1523 124.38 1329.05 434.875
99 0 86.232 13.9623 1204 127.997 1331.36 431.659
100 1 45.0783 9.84952 444 126.342 1332.98 454.306
101 0 45.0733 11.2262 506 125.791 1334.89 454.842
102 0 49.1415 10.4392 513 125.224 1337.5 454.688
103 0 49.4255 14.0413 694 119.386 1337.02 450.483
104 0 49.4255 13.9199 688 129.576 1337.03 450.522
105 0 53.1159 16.4734 875 112.128 1339.61 453.053
106 0 52.1032 11.9762 624 119.728 1339.91 453.287
107 0 55.0573 13.2771 731 116.558 1340.11 458.539
108 0 59.1263 13.3781 791 117.731 1340.41 455.095
109 0 57.0913 9.7563 557 122.935 1340.51 458.689
110 0 55.0923 7.78693 429 135.04 1341.61 457.357
111 0 62.1317 15.0165 933 121.491 1338.97 452.451
112 0 66.1013 18.1691 1201 115.878 1338.05 451.805
113 0 68.1471 18.1519 1237 116.808 1336.85 455.175
114 0 68.1387 14.265 972 128.242 1335.14 453.448
115 0 69.2035 13.8143 956 129.701 1334.74 452.105
116 0 72.4044 15.3996 1115 127.213 1332.74 455.051
117 0 78.4867 18.6911 1467 121.683 1331.19 450.854
118 0 77.0609 15.3385 1182 130.774 1329.43 450.329
119 0 76.0593 13.6341 1037 148.327 1327.53 448.453
120 0 76.0593 13.6735 1040 147.699 1325.55 448.568
121 1 42.0444 12.2252 514 133.039 1325.72 464.019
122 0 43.0738 10.3311 445 137.243 1324.64 462.613
123 0 46.2127 12.6372 584 131.618 1323.85 458.142
124 0 47.0434 12.8605 605 130.324 1322.73 456.988
125 0 49.2068 15.445 760 127.903 1323.49 453.322
126 0 49.2068 15.4653 761 140.223 1324.48 453.301
127 0 50.2509 12.3978 623 148.014 1325.6 454.708
128 0 54.1475 14.2204 770 129.343 1322.06 451.47
129 0 57.1371 15.8216 904 126.972 1323.89 450.618
130 0 57.1371 15.8566 906 137.742 1325.91 450.699
131 0 58.1576 16.4725 958 131.087 1325.65 447.649
132 0 62.3101 16.8673 1051 122.521 1327.77 443.811
133 0 67.0771 17.3681 1165 119.907 1331.02 448.088
134 0 66.2262 15.7491 1043 123.681 1332.54 448.648
135 0 66.2215 15.2065 1007 126.031 1333.55 447.449
136 0 68.2574 16.6136 1134 123.908 1335.3 448.377
137 0 66.5249 14.3706 956 129.202 1335.26 446.122
138 0 70.2816 16.2205 1140 126.668 1337.2 444.556
139 0 73.5108 12.1751 895 130.565 1337.23 446.914
140 0 75.2642 13.8047 1039 131.836 1337.21 444.279
141 0 78.3717 14.8268 1162 135.418 1336.54 445.874
142 0 78.257 16.6886 1306 130.191 1336.68 441.227
143 0 78.257 16.7142 1308 159.846 1336.69 441.255
144 1 47.1104 16.387 772 123.124 1336.31 465.115
145 0 49.3869 14.356 709 124.762 1335.9 465.43
146 0 46.0732 13.9343 642 133.643 1334.01 460.439
147 0 47.1056 12.1642 573 134.674 1333.31 462.307
148 0 47.0686 11.0265 519 136.403 1332.02 464.387
149 0 49.1035 13.0948 643 135.435 1330.75 460.516
150 0 50.0284 14.6317 732 131.758 1328.3 460.88
151 0 51.303 12.8842 661 133.887 1327.6 459.632
152 0 54.2249 15.823 858 127.487 1326.42 460.359
153 0 52.3875 13.0184 682 133.746 1324.86 457.979
154 0 56.3791 14.6686 827 130.428 1323.31 455.576
155 0 57.1671 14.9212 853 125.463 1322.82 458.063
156 0 61.3127 13.9449 855 129.109 1322.04 454.115
157 0 60.3492 15.1949 917 128.261 1321.6 452.045
158 0 62.2271 13.981 870 141.82 1320.34 448.875
159 0 64.1708 13.4173 861 140.257 1320.33 448.122
160 0 66.2949 16.3361 1083 135.771 1320.73 445.305
161 0 68.2916 14.277 975 137.972 1320.78 444.839
162 0 70.2239 14.3826 1010 134.069 1321.44 443.64
163 0 72.4025 13.8669 1004 134.315 1321.53 444.405
164 0 74.1776 17.9973 1335 129.944 1322.31 438.062
165 0 74.1776 17.9973 1335 146.796 1324.33 437.951
166 0 77.2664 16.4625 1272 132.627 1325.75 437.485
167 0 77.2664 16.3331 1262 146.586 1326.74 437.502
168 0 84.3189 19.3788 1634 127.535 1329.25 439.382
169 0 83.3586 19.638 1637 141.314 1331.18 439.145
170 1 53.1259 13.7598 731 130.828 1332.78 456.97
171 0 48.0867 11.5625 556 138.243 1333.74 457.496
172 0 50.0344 13.131 657 137.677 1335.04 456.702
173 0 52.3768 12.4483 652 131.218 1333.71 453.199
174 0 52.0609 13.8492 721 133.538 1336.01 458.097
175 0 53.2289 14.5973 777 133.399 1335.02 457.232
176 0 54.1451 13.3715 724 142.061 1334.04 457.873
177 0 56.3128 11.9511 673 139.999 1333.74 458.584
178 0 59.1719 15.8014 935 138.239 1332.96 456.836
179 0 60.1178 13.9726 840 149.35 1332.4 456.55
180 0 62.1243 14.2939 888 148.123 1331.15 457.419
181 0 63.1163 13.6256 860 148.93 1329.13 456.417
182 0 67.1783 15.0644 1012 143.828 1328.35 455.315
183 0 67.1854 13.3362 896 149.299 1327.21 453.273
184 0 68.1838 13.7569 938 147.955 1326.14 452.741
185 0 68.1814 13.6987 934 147.611 1325.15 452.777
186 0 75.1343 16.1178 1211 144.504 1322.36 447.593
187 1 40.0708 12.5029 501 145.597 1322.52 464.208
188 0 42.0583 12.4351 523 141.65 1321.82 465.258
189 0 40.0364 9.76612 391 151.064 1321.35 464.76
190 0 44.067 11.8456 522 147.54 1319.06 461.768
191 0 45.1373 16.8597 761 134.134 1318.35 462.909
192 0 45.0613 11.2069 505 149.305 1317.34 458.356
193 0 45.0553 12.6067 568 137.514 1317.74 459.639
194 0 47.1208 12.7757 602 135.186 1318.43 457.131
195 0 48.0905 13.9736 672 132.719 1319.53 455.524
196 0 48.0905 13.9321 670 137.072 1318.51 455.533
197 0 53.2032 14.2849 760 133.407 1321.34 454.888
198 0 51.0403 14.6747 749 132.266 1322.89 451.963
199 0 54.1111 15.8193 856 130.561 1323.96 449.784
200 0 58.1647 13.2383 770 134.521 1325.9 450.297
201 0 56.3387 15.5311 875 133.474 1327.08 449.662
202 0 59.259 14.9345 885 133.255 1329.15 450.588
203 0 63.2649 14.5262 919 132.671 1331.46 449.971
204 0 61.2291 15.7115 962 131.465 1332.01 454.219
205 0 64.0845 14.871 953 136.547 1332.19 450.137
206 0 65.1369 14.8303 966 139.214 1332.85 448.33
207 0 67.385 15.3001 1031 141.537 1332.71 449.372
208 0 67.2812 13.7037 922 145.577 1333.12 448.164
209 0 74.3208 16.7382 1244 136.028 1331.59 450.068
210 0 75.1929 16.0919 1210 141.845 1331.43 446.881
211 0 78.8451 16.3612 1290 142.892 1331.1 446.832
212 0 78.8451 17.3758 1370 135.399 1331.14 448.031
213 1 41.0812 10.0289 412 149.701 1329.08 462.468
214 0 47.1589 10.3692 489 144.556 1328.31 463.065
215 0 44.1198 9.79153 432 148.185 1326.95 461.241
216 0 49.2852 10.7943 532 144.814 1326.09 459.004
217 0 51.0202 14.7981 755 138.326 1325.29 460.277
218 0 51.1514 12.2186 625 146.386 1323.4 455.478
219 0 53.1757 13.8221 735 138.423 1321.32 459.709
220 0 54.0475 14.7463 797 139.488 1321.04 459.774
221 0 57.124 14.7048 840 137.327 1319.59 459.075
222 0 55.0763 13.1454 724 143.347 1318.64 455.613
223 0 60.0931 14.0782 846 137.17 1318.84 455.391
224 0 60.0794 11.4349 687 141.035 1318.81 457.997
225 0 61.1528 12.6241 772 142.032 1317.55 451.206
226 0 66.155 16.1439 1068 133.884 1317.56 449.328
227 0 68.0388 15.3148 1042 135.375 1317.82 446.19
228 0 72.2877 17.9975 1301 129.779 1318.4 444.928
229 0 72.2725 15.912 1150 132.491 1319.02 446.946
230 0 73.1109 13.0076 951 139.983 1319.46 443.662
231 0 78.0878 16.7888 1311 128.557 1320.02 441.568
232 0 81.048 15.5463 1260 129.874 1322.53 440.208
233 0 82.0816 11.9759 983 139.504 1323.19 440.41
234 1 46.0763 13.2606 611 130.097 1326.39 459.311
235 0 48.1083 10.6634 513 136.38 1325.94 458.632
236 0 48.0994 10.603 510 151.363 1325.93 458.612
237 0 50.1434 11.9258 598 134.987 1329.16 457.615
238 0 52.2621 12.4756 652 135.992 1330.1 456.589
239 0 51.1969 12.5594 643 138.849 1331.77 457.123
240 0 51.1969 12.5203 641 164.076 1333.79 457.072
241 0 54.1414 13.2985 720 137.274 1331.92 461.131
242 0 56.1751 14.9354 839 136.082 1332.09 459.384
243 0 61.1843 15.7066 961 131.75 1331.68 459.657
244 0 62.1746 15.4404 960 135.858 1331 459.058
245 0 61.1841 12.7974 783 139.729 1330.65 458.294
246 0 64.095 15.1338 970 138.014 1328.97 456.771
247 0 68.2138 13.3111 908 140.798 1328.56 456.674
248 0 68.0766 13.4554 916 142.462 1327.43 453.582
249 0 72.258 15.3339 1108 137.143 1327.8 452.305
250 0 77.2575 15.416 1191 136.044 1326.58 451.049
251 0 77.2731 16.5129 1276 137.288 1324.2 448.447
252 0 77.2592 11.9986 927 145.078 1323.32 449.959
253 0 79.2279 13.7073 1086 140.619 1322.5 446.297
254 0 81.1366 14.9131 1210 138.529 1321.12 445.467
255 1 45.0445 11.8328 533 133.919 1320.59 463.523
256 0 45.055 11.83 533 161.083 1319.58 463.458
257 0 46.0552 11.5731 533 160.598 1318.56 463.46
258 0 48.1833 11.8506 571 134.352 1318.25 459.884
259 0 52.1536 14.8216 773 128.096 1318.02 457.278
260 0 51.1554 14.7785 756 134.917 1318.05 457.618
261 0 53.1765 15.2699 812 131.116 1317.94 457.936
262 0 57.1544 14.0847 805 123.409 1316.68 456.015
263 0 57.0447 14.3747 820 124.221 1317.23 449.833
264 0 58.1435 14.1374 822 122.769 1318.65 452.099
265 0 62.1497 14.4329 897 120.721 1319.87 453.054
266 0 63.1062 18.9363 1195 114.997 1322.57 447.389
267 0 65.0769 21.805 1419 112.28 1324.18 448.682
268 0 66.2893 14.6178 969 123.18 1326.25 445.744
269 0 69.1335 14.8987 1030 121.212 1327.91 446.023
270 0 71.2759 15.1945 1083 120.932 1329.16 446.522
271 0 73.2987 14.3795 1054 122.81 1330.2 447.798
272 0 74.3187 12.6751 942 126.419 1330.84 448.49
273 0 79.2065 17.789 1409 118.793 1330.66 447.384
274 0 81.1013 17.7309 1438 118.866 1331.06 445.227
275 0 81.1013 17.7432 1439 118.719 1331.04 445.074
276 0 86.1472 18.3755 1583 119.207 1330.23 445.469
277 0 88.3022 15.6168 1379 126.595 1330.2 443.151
278 0 90.1796 15.4913 1397 127.88 1328.8 441.912
279 1 47.1 9.9363 468 136.066 1327.9 465.156
280 0 48.0276 11.3477 545 134.332 1327.33 464.251
281 0 49.0233 9.99524 490 134.141 1326.45 465.502
282 0 50.1211 13.5472 679 131.227 1324.5 459.707
283 0 53.1859 13.1802 701 131.074 1324.49 461.11
284 0 54.2363 10.5649 573 129.098 1323.55 461.852
285 0 60.151 16.5084 993 117.613 1322.51 457.036
286 0 62.0958 18.7936 1167 112.77 1320.75 457.682
287 0 61.092 13.4224 820 122.891 1319.75 461.083
288 0 65.1468 13.0474 850 119.979 1319.61 457.615
289 0 68.1319 14.1344 963 122.463 1318.8 451.343
290 0 69.0622 12.2209 844 126.167 1318.39 451.714
291 0 70.0794 16.039 1124 122.096 1317.34 447.18
292 0 74.1172 12.1429 900 125.307 1317.12 445.123
293 0 77.0715 15.5959 1202 121.375 1317.17 444.253
294 0 85.1401 19.5443 1664 113.178 1317.48 441.776
295 0 86.1973 19.7454 1702 112.89 1317.99 440.351
296 0 89.2225 19.0423 1699 112.623 1318.5 443.353
297 0 90.4805 16.3571 1480 118.495 1319.65 436.968
298 0 96.5671 17.8736 1726 114.974 1321.46 437.662
299 0 102.279 16.6114 1699 116.601 1322.67 435.132
300 1 48.0328 10.6177 510 122.09 1325.74 456.88
301 0 50.0542 12.4865 625 119.488 1327.21 455.994
302 0 51.0616 12.3968 633 146.269 1329.19 456.017
303 0 62.5408 14.1188 883 114.198 1330.74 454.597
304 0 58.3678 12.7296 743 117.567 1331.73 456.736
305 0 62.3012 17.3993 1084 112.349 1333.11 460.065
306 0 62.3012 17.3833 1083 140.158 1334.08 460.016
307 0 61.2592 13.6959 839 122.453 1334.07 456.316
308 0 65.2023 13.3738 872 125.452 1333.14 453.971
309 0 65.2023 13.3584 871 144.502 1333.13 453.989
310 0 69.3368 14.7829 1025 123.178 1332.46 454.54
311 0 70.0536 16.1876 1134 123.172 1332.41 456.479
312 0 72.0923 13.3024 959 132.201 1331 454.241
313 0 74.0699 13.2712 983 132.017 1329.46 452.742
314 0 77.0561 15.2097 1172 129.327 1328.48 451.724
315 0 83.1697 15.5706 1295 125.726 1327.41 453.867
316 0 83.1697 15.5585 1294 143.412 1326.38 453.774
317 0 84.06 20.188 1697 120.725 1324.66 451.722
318 1 43.0966 11.8803 512 133.936 1324.19 468.252
319 0 48.0487 14.2564 685 131.996 1322.72 465.143
320 0 48.0487 14.3188 688 129.032 1321.73 465.17
321 0 50.1348 14.0421 704 128.355 1320.82 462.21
322 0 51.078 13.3521 682 131.199 1319.29 460.657
323 0 52.0949 12.8803 671 130.332 1319.37 458.341
324 0 53.1388 12.7026 675 129.11 1318.38 458.452
325 0 56.057 14.3247 803 124.894 1318.72 452.959
326 0 58.1879 13.2502 771 124.137 1318.46 455.748
327 0 59.1511 16.8044 994 120.026 1317.94 452.089
328 0 57.1069 11.96 683 128.918 1317.7 451.984
329 0 61.2769 12.3048 754 123.809 1318.73 451.911
330 0 64.2155 16.2577 1044 117.839 1320.09 451.31
331 0 66.2073 14.8473 983 121.536 1321.92 450.069
332 0 66.2073 14.8624 984 139.681 1323.96 450.303
333 0 70.2231 14.1976 997 120.402 1324 446.417
334 0 75.2178 16.286 1225 116.278 1326.45 446.704
335 0 77.5197 17.8793 1386 115.327 1328.02 445.003
336 0 81.2797 17.1384 1393 117.119 1329.02 444.628
337 1 44.038 10.2639 452 124.989 1330.31 465.321
338 0 44.061 12.4373 548 121.631 1331.95 464.29
339 0 48.047 17.6077 846 113.747 1331.93 464.76
340 0 48.2099 12.0929 583 126.892 1331.9 465.338
341 0 49.1217 19.4008 953 114.504 1331.22 462.388
342 0 49.2214 14.77 727 125.164 1330.09 462.226
343 0 51.039 15.3216 782 125.505 1329.47 464.563
344 0 50.0898 14.6137 732 130.331 1329.03 463.082
345 0 52.0542 13.8702 722 130.935 1327.75 466.126
346 0 54.2426 16.8133 912 127.896 1327.37 463.664
347 0 55.106 13.3561 736 133.644 1326.1 463.083
348 0 55.115 14.2067 783 132.6 1324.38 461.052
349 0 55.115 14.2429 785 138.828 1322.38 461.074
350 0 59.1334 15.947 943 127.051 1322.2 465.414
351 0 61.1249 14.1841 867 131.636 1320.78 461.588
352 0 63.1671 14.9287 943 129.94 1319.21 460.614
353 0 65.1657 13.6728 891 131.865 1317.85 458.7
354 0 67.0377 13.0673 876 132.34 1316.97 456.507
355 0 68.0723 15.3366 1044 127.816 1317.26 451.789
356 0 76.4466 17.5809 1344 120.006 1317.32 456.423
357 0 73.1225 13.7167 1003 133.341 1316.46 448.503
358 0 77.2304 15.266 1179 127.519 1316.47 449.271
359 1 39.0131 12.2523 478 129.527 1316.61 464.174
360 0 41.0218 15.1627 622 123.461 1315.97 462.352
361 0 45.2479 15.8681 718 121.435 1316.83 462.961
362 0 42.1063 12.7297 536 130.791 1315.7 457.808
363 0 49.0809 12.9582 636 126.45 1318.64 460.852
364 0 50.2843 18.0573 908 115.996 1319.46 460.617
365 0 50.2393 17.9342 901 118.216 1321.61 455.784
366 0 51.4443 12.9655 667 124.576 1322.17 457.67
367 0 52.1554 14.8211 773 126.516 1324.65 456.565
368 0 54.273 15.9011 863 126.337 1326.13 457.556
369 0 58.7113 15.738 924 128.927 1328.68 458.028
370 0 55.177 11.6715 644 138.095 1328.92 458.63
371 0 59.238 13.2347 784 135.629 1330.98 457.103
372 0 59.238 13.3529 791 150.93 1333.01 457.345
373 0 60.1296 11.2923 679 140.432 1332.22 457.165
374 0 64.0352 12.3214 789 139.427 1331.8 458.208
375 0 64.0258 11.2298 719 143.327 1331.86 456.556
376 0 66.0831 12.8323 848 143.059 1331.17 457.183
377 0 71.0639 13.6638 971 139.234 1330.74 457.919
378 0 73.1997 13.1011 959 139.885 1330.03 456.358
379 1 41.4272 12.3349 511 135.599 1328.93 471.986
380 0 40.319 12.6491 510 130.916 1327.91 471.947
381 0 43.2862 9.79527 424 141.507 1327.59 470.203
382 0 42.2628 10.9079 461 138.072 1326.87 467.664
383 0 45.4136 13.4321 610 134.728 1325.02 466.002
384 0 44.4927 11.6199 517 136.298 1322.77 464.544
385 0 49.477 13.7438 680 128.826 1322.22 466.279
386 0 48.1077 12.3057 592 133.546 1320.08 465.38
387 0 50.2218 12.5244 629 129.585 1319.96 464.34
388 0 54.3182 14.5991 793 122.364 1319.77 465.409
389 0 53.2621 13.7434 732 125.627 1318.65 461.682
390 0 56.1077 15.9871 897 123.028 1318.32 458.087
391 0 54.2194 11.0108 597 133.977 1317.28 457.295
392 0 54.2125 11.0122 597 147.246 1316.27 457.362
393 0 54.2164 11.0299 598 146.644 1314.28 457.338
394 0 54.2164 11.1037 602 146.13 1312.28 457.224
395 0 64.3381 15.776 1015 123.214 1316.89 452.06
396 0 63.316 10.803 684 132.338 1317.75 450.238
397 0 67.254 11.9993 807 127.497 1319.54 450.405
398 0 69.2622 12.9219 895 125.225 1320.64 447.808
399 0 72.3608 12.493 904 124.549 1322.28 446.761
400 0 74.2816 13.0988 973 123.608 1323.94 445.653
401 1 42.2117 10.7553 454 121.174 1326.81 464.015
402 0 39.1438 9.22241 361 127.23 1328.7 462.584
