time division length width area intensity CMx CMy
0 0 83.4814 38.9548 3252 98.6092 1339.7 444.546
1 0 85.2821 23.7447 2025 106.297 1341.14 444.484
2 1 168.267 20.2772 3412 115.673 1342.98 397.924
3 0 167.129 21.4923 3592 111.662 1342.37 413.788
4 1 271.777 27.7544 7543 111.807 1341.71 363.669
5 1 95.3548 24.8965 2374 102.636 1343.1 444.318
6 0 101.445 30.0754 3051 102.488 1342.65 439.325
7 1 50.3321 16.0931 810 105.537 1341.15 461.09
8 0 51.3252 15.9181 817 109.442 1339.17 456.483
9 0 55.4692 14.5306 806 111.684 1337.53 453.643
10 0 53.5852 12.7274 682 117.044 1337.24 451.089
11 0 56.2866 24.624 1386 107.426 1336.71 459.643
12 0 58.1979 14.3304 834 128.753 1335.54 454.754
13 0 58.1791 15.7273 915 119.098 1334.55 460.557
14 0 61.3704 12.0579 740 137.384 1332.75 455.574
15 0 59.3587 11.2368 667 138.126 1331.82 454.547
16 0 64.2745 14.5781 937 130.225 1329.99 452.044
17 0 68.2465 15.869 1083 127.898 1328.98 454.562
18 0 73.5649 15.7956 1162 131.666 1327.49 449.398
19 0 71.3178 15.2556 1088 135.512 1326.64 446.585
20 0 74.1677 12.2156 906 139.04 1324.73 448.038
21 0 74.2262 14.5097 1077 136.941 1324.82 443.55
22 1 43.2261 12.8395 555 135.791 1323.02 457.596
23 0 46.6325 11.7086 546 126.022 1321.34 463.403
24 0 45.1712 11.3125 511 135.622 1323.06 456.939
25 0 45.3196 13.5703 615 130.011 1324.01 455.976
26 0 48.3854 15.7072 760 127.801 1324.85 451.35
27 0 50.4817 12.7373 643 126.816 1324.36 451.661
28 0 49.1267 14.656 720 121.544 1325.33 450.019
29 0 51.3061 13.0004 667 117.517 1326.91 453.577
30 0 51.3801 15.181 780 116.841 1328.76 448.663
31 0 58.0576 15.2779 887 112.469 1331.5 450.559
32 0 61.9147 17.1526 1062 106.819 1333.1 450.827
33 0 56.4605 32.0932 1812 98.2196 1334.17 454.428
34 0 57.1644 23.5461 1346 101.467 1336.36 456.531
35 0 64.1664 15.304 982 105.552 1338 455.155
36 0 62.338 31.5698 1968 98.9014 1338.07 449.378
37 0 61.2196 16.9064 1035 107.141 1338.54 450.454
38 0 61.2196 16.6613 1020 130.875 1338.56 450.436
39 0 65.3956 14.1294 924 122.323 1338.84 450.799
40 0 68.2014 16.7739 1144 122.036 1338.71 450.755
41 0 66.4986 13.5792 903 126.846 1338.62 450.963
42 0 70.2448 15.389 1081 127.34 1338.14 449.974
43 0 70.2448 15.3606 1079 132.378 1337.11 450.081
44 0 74.1954 16.5509 1228 132.807 1335.71 447.387
45 0 76.302 15.3731 1173 136.048 1334.51 446.682
46 1 39.0219 11.7883 460 135.62 1333.01 467.35
47 0 43.0899 11.6037 500 138.63 1331.59 466.352
48 0 42.0704 13.4774 567 137.4 1330.65 465.608
49 0 44.1549 13.9962 618 134.874 1329.53 465.673
50 0 46.044 13.7911 635 139.896 1326.94 463.129
51 0 46.5158 14.0383 653 141.493 1326.39 462.283
52 0 47.2339 12.1311 573 141.127 1325.03 463.225
53 0 47.0908 14.8224 698 135.166 1324.49 458.109
54 0 48.0972 15.0528 724 121.436 1324.29 460.78
55 0 52.1005 13.0901 682 135.523 1323.74 457.499
56 0 52.1683 13.5715 708 135.662 1322.78 455.232
57 0 52.1709 15.6026 814 122.2 1322.88 455.725
58 0 52.1709 15.6601 817 121.584 1322.91 455.695
59 0 57.1566 14.3291 819 127.607 1322.95 452.94
60 0 60.0938 13.4789 810 128.159 1323.41 448.972
61 0 60.0898 12.914 776 130.265 1323.62 448.37
62 0 63.2568 14.7494 933 126.387 1324.49 446.772
63 0 70.7479 19.1808 1357 116.822 1325.82 450.303
64 0 73.2458 25.5441 1871 114.049 1326.53 447.738
65 0 73.3577 17.1897 1261 122.891 1331.08 446.594
66 0 73.3577 17.1761 1260 125.244 1335.05 446.532
67 0 76.2041 12.7815 974 128.522 1334.08 445.778
68 0 77.0674 13.1184 1011 132.023 1334.58 443.506
69 1 44.1765 10.2317 452 126.018 1336.98 462.969
70 0 46.2375 11.6356 538 123.361 1337.1 462.381
71 0 44.1228 11.0374 487 125.885 1338.11 463.45
72 0 44.1228 10.9467 483 133.71 1339.14 463.553
73 0 49.3847 12.838 634 129.194 1337.09 464.308
74 0 48.1594 12.5417 604 130.871 1337.28 464.079
75 0 57.637 16.2396 936 122.806 1336.32 465.245
76 0 55.2553 14.8945 823 129.987 1334.9 462.208
77 0 55.3727 15.2422 844 134.911 1334.65 462.396
78 0 55.3727 15.188 841 133.641 1333.67 462.31
79 0 59.2333 15.5825 923 138.377 1333.5 461.961
80 0 61.4492 14.5323 893 142.244 1332.33 460.297
81 0 62.2203 14.754 918 142.071 1330.83 461.354
82 0 65.3944 15.4294 1009 142.367 1329.08 457.42
83 0 66.4755 16.3068 1084 140.061 1328.17 458.105
84 0 68.3262 16.1139 1101 140.87 1326.61 456.52
85 0 71.2689 13.3579 952 146.197 1325.29 455.421
86 0 75.2463 17.8613 1344 136.653 1324.14 451.14
87 1 39.1116 11.6589 456 141.77 1321.91 466.833
88 0 42.0338 10.777 453 137.3 1321.4 468.797
89 0 41.2042 11.3581 468 135.887 1321.34 467.632
90 0 45.068 11.5825 522 135.552 1321.2 464.985
91 0 46.1224 9.62656 444 137.455 1321.21 463.764
92 0 46.0718 11.5689 533 137.863 1320.65 459.856
93 0 49.2423 13.3828 659 134.628 1321.64 456.85
94 0 50.2484 11.8014 593 144.007 1321.78 457.845
95 0 56.5079 23.9082 1351 112.497 1323.54 457.905
96 0 53.2043 14.0214 746 131.182 1322.81 455.491
97 0 53.1845 14.1207 751 137.497 1323.87 455.707
98 0 61.4354 16.3098 1002 125.872 1326.57 452.889
99 0 59.2033 16.6207 984 127.158 1329.15 454.967
100 0 60.1666 15.374 925 125.715 1329.82 452.462
101 0 63.2147 12.6553 800 119.762 1331.43 453.702
102 0 68.2966 17.5704 1200 112.188 1334.4 452.538
103 0 65.4391 11.3693 744 117.246 1334.92 455.496
104 0 73.3045 22.5361 1652 107.676 1335.63 450.473
105 0 75.4817 13.4072 1012 112.809 1336.97 453.999
106 0 72.4007 18.5772 1345 112.495 1336.79 457.045
107 0 82.2489 21.1553 1740 104.187 1336.99 460.378
108 0 80.4472 15.8862 1278 114.682 1336.62 447.951
109 1 42.1509 10.4861 442 118.133 1335.45 468.1
110 0 44.1898 12.0616 533 122.208 1334.53 468.009
111 0 45.0684 9.67418 436 137.089 1334.21 470.202
112 0 43.1081 9.95173 429 143.315 1333.66 468.117
113 0 49.0578 10.9667 538 142.262 1332.2 467.214
114 0 49.0997 12.8514 631 141.195 1330.33 467.702
115 0 50.1938 12.9498 650 145.077 1329.11 463.078
116 0 51.2373 11.8078 605 148.519 1328.76 462.782
117 0 53.3054 12.0063 640 145.083 1330.54 461.186
118 0 54.3569 13.2642 721 144.583 1328.62 462.81
119 0 55.2757 12.9171 714 146.766 1327.15 461.948
120 0 55.2757 12.9171 714 139.958 1325.15 462.08
121 0 60.2632 14.138 852 141.188 1323.56 458.236
122 0 60.2441 12.6319 761 142.536 1322.62 457.171
123 0 63.2311 13.1739 833 136.396 1321.79 454.825
124 0 65.4336 14.5644 953 130.213 1321.56 456.756
125 0 69.4845 13.9456 969 130.163 1321.11 451.779
126 0 71.2348 13.6731 974 132.758 1321.32 449.399
127 0 70.3577 13.7583 968 132.038 1321.11 445.561
128 0 74.2457 12.8627 955 128.717 1320.58 446.511
129 0 76.4379 13.6058 1040 129.09 1322.3 448.596
130 0 79.43 14.4656 1149 124.82 1323.52 444.049
131 0 85.7806 20.2144 1734 112.828 1324.79 448.592
132 1 45.0567 9.63231 434 128.456 1328.09 459.442
133 0 47.0454 9.26765 436 129.034 1330.72 459.284
134 0 49.0483 14.0474 689 123.792 1332.27 458.341
135 0 51.1516 12.1795 623 132.634 1332.97 456.963
136 0 51.0923 11.3324 579 134.634 1334.95 459.511
137 0 55.0548 14.313 788 131.358 1335.28 457.586
138 0 59.199 14.4428 855 130.919 1336.89 457.035
139 0 58.4837 13.1319 768 125.499 1335.9 459.626
140 0 57.1938 12.6937 726 137.168 1335.94 459.674
141 0 58.2784 14.242 830 132.512 1335.28 457.794
142 0 59.4293 12.6369 751 138.885 1335.55 459.218
143 0 63.2234 10.6922 676 129.351 1334.7 460.527
144 0 62.3591 11.1131 693 131.524 1333.75 458.709
145 0 69.4421 14.4725 1005 126.236 1332.68 459.856
146 0 70.2241 14.0692 988 127.329 1331.05 457.856
147 0 72.3205 13.3987 969 131.78 1330.49 454.031
148 0 74.297 14.2401 1058 131.373 1328.97 453.595
149 0 75.3641 10.9734 827 142.058 1327.76 453.799
150 0 83.6197 18.4645 1544 123.291 1326.57 450.092
151 0 82.5201 11.5729 955 135.775 1325.43 453.195
152 0 85.4412 17.6496 1508 125.964 1323.75 446.2
153 0 87.3555 14.9161 1303 128.503 1321.73 443.294
154 0 87.3555 15.1336 1322 130.505 1319.75 442.949
155 1 48.1359 11.3429 546 130.52 1320.67 462.837
156 0 50.1467 10.7285 538 130.266 1320.2 463.442
157 0 53.1718 14.519 772 119.817 1317.92 460.359
158 0 53.1651 14.5772 775 127.415 1317.88 460.341
159 0 55.1068 16.5497 912 117.357 1318.95 458.474
160 0 56.2835 14.6757 826 120.408 1319.12 455.493
161 0 61.1389 20.2162 1236 110.13 1318.77 453.381
162 0 57.1387 12.4434 711 119.291 1320.53 453.049
163 0 63.6262 13.4221 854 109.874 1322.49 461.937
164 0 68.1167 15.9432 1086 110.39 1322.84 457.597
165 0 66.2326 18.586 1231 105.67 1323.91 458.781
166 0 71.2866 15.1641 1081 117.126 1326.42 452.389
167 0 64.4849 11.9563 771 118.886 1327.55 448.056
168 0 70.2622 13.7912 969 125.086 1328.85 447.994
169 0 72.37 12.7954 926 126.322 1330.63 448.744
170 0 76.6407 17.0406 1306 117.792 1330.79 444.898
171 0 80.0182 17.7959 1424 114.32 1331.78 450.124
172 0 79.1923 12.2865 973 121.894 1332.31 453.729
173 0 82.2419 18.9928 1562 115.933 1333.17 451.495
174 0 84.2865 14.9134 1257 123.549 1332.81 444.815
175 0 91.3287 15.373 1404 121.59 1332.52 448.543
176 0 97.2176 15.6145 1518 117.649 1331.74 452.776
177 0 92.1497 14.6284 1348 128.691 1331.13 443.047
178 1 47.17 11.4691 541 128.545 1331.06 470.013
179 0 49.092 8.45352 415 132.494 1326.61 470.183
180 0 52.1558 11.7916 615 130.179 1328.47 467.35
181 0 54.1854 11.3315 614 131.223 1325.39 462.544
182 0 52.2254 11.2397 587 133.761 1324.26 461.278
183 0 55.086 12.8345 707 131.873 1322.57 461.006
184 0 56.0409 13.0084 729 136.44 1321.91 461.309
185 0 61.1035 12.4543 761 133.645 1319.8 460.564
186 0 62.0907 13.8185 858 129.39 1318.3 461.909
187 0 66.187 15.8641 1050 125.48 1317.84 459.91
188 0 65.0793 15.8883 1034 127.768 1316.71 456.885
189 0 66.1853 13.6435 903 130.966 1316.01 454.327
190 0 69.131 17.5609 1214 128.188 1315.52 451.669
191 0 72.0926 13.982 1008 131.26 1314.22 452.384
192 0 75.2603 12.6096 949 131.114 1313.84 451.13
193 0 74.082 14.5919 1081 128.771 1314.47 446.275
194 0 81.434 15.8902 1294 124.369 1315.11 446.092
195 0 80.1718 13.2341 1061 129.872 1315.31 442.882
196 0 86.8405 21.1307 1835 115.414 1315.9 444.322
197 0 85.2792 14.0949 1202 129.667 1316.71 437.61
198 0 87.3248 12.6883 1108 135.032 1318.84 435.268
199 0 89.3828 15.607 1395 126.958 1320.07 440.358
200 0 92.2371 12.5112 1154 132.606 1321.93 437.386
201 0 98.5503 16.0324 1580 128.309 1324.3 437.289
202 1 54.1172 12.7132 688 126.779 1326.13 457.065
203 0 51.1307 8.03823 411 133.056 1328.04 458.577
204 0 55.2148 10.3414 571 129.37 1329.08 459.762
205 0 55.1234 14.2045 783 124.206 1329.39 458.433
206 0 60.2251 17.5508 1057 117.446 1332.52 455.328
207 0 60.208 15.1807 914 119.388 1330.24 456.477
208 0 63.2591 15.8712 1004 119.639 1330.11 457.164
209 0 65.1519 17.3901 1133 117.614 1330 452.678
210 0 66.2293 15.8238 1048 122.737 1330.03 455.84
211 0 66.2295 13.0908 867 127.573 1329.19 455.717
212 0 66.2295 13.121 869 136.478 1328.24 455.56
213 0 71.3252 13.9922 998 130.091 1326.53 453.017
214 0 74.3068 13.377 994 128.884 1325.4 456.101
215 0 76.1343 13.161 1002 131.04 1324.15 453.981
216 0 76.1226 14.0169 1067 130.635 1323.16 454.943
217 0 79.2739 14.6328 1160 129.938 1321.35 451.715
218 0 84.2964 16.5013 1391 125.712 1320.78 448.074
219 0 86.3477 14.9512 1291 130.54 1319.26 443.895
220 0 86.1683 13.0442 1124 132.149 1318.38 446.156
221 0 90.4068 15.4413 1396 126.731 1317.29 442.712
222 0 90.3812 15.5563 1406 129.424 1317.28 442.762
223 1 49.1036 8.14605 400 130.295 1314.08 466.508
224 0 53.1852 7.5397 401 133.125 1314.13 462.853
225 0 56.2746 12.1191 682 130.548 1317.29 459.635
226 0 53.2755 10.1172 539 132.905 1316.68 460.147
227 0 59.1093 14.1094 834 126.29 1317.15 455.341
228 0 60.6963 11.6152 705 129.645 1315.18 451.773
229 0 61.7876 12.5592 776 130.226 1314.98 452.961
230 0 63.0832 10.5733 667 130.276 1318.52 453.631
231 0 66.1458 13.2435 876 125.032 1319.89 449.749
232 0 69.2025 14.985 1037 125.841 1321.55 448.583
233 0 68.1468 12.6932 865 129.132 1323.58 450.163
234 0 73.2665 13.9354 1021 123.772 1324.91 448.174
235 0 75.1408 16.5423 1243 123.012 1326.26 443.405
236 0 81.4018 16.3633 1332 118.237 1330.3 443.774
237 0 81.2673 12.6127 1025 124.064 1330.16 445.814
238 0 86.1621 17.235 1485 114.847 1331.32 448.942
239 0 89.3803 17.7332 1585 117.96 1331.05 444.613
240 0 89.4961 12.9391 1158 128.622 1332.41 445.813
241 0 89.4961 12.9615 1160 142.769 1334.4 445.814
242 0 97.6508 14.1525 1382 132.305 1331.06 444.876
243 0 100.57 17.4804 1758 121.639 1330.71 448.783
244 0 99.608 12.0573 1201 133.795 1329.31 439.776
245 0 102.504 12.3019 1261 137.251 1329.34 438.22
246 1 54.2883 8.06803 438 139.185 1330.28 465.087
247 0 60.5753 10.5323 638 126.707 1324.86 463.397
248 0 61.406 10.2922 632 128.699 1323.92 459.486
249 0 63.2302 14.8505 939 118.805 1322.23 460.537
250 0 65.2178 14.9192 973 118.337 1321.29 459.31
251 0 65.1223 9.59733 625 125.496 1319.59 460.013
252 0 71.3228 11.8335 844 123.069 1319.14 456.572
253 0 73.0958 14.8025 1082 118.116 1317.73 452.758
254 0 74.2008 14.0295 1041 119.529 1316.64 451.225
255 0 73.2125 12.211 894 115.989 1314.35 453.089
256 1 153.549 15.6172 2398 122.943 1314.82 415.133
257 0 157.467 13.2282 2083 130.266 1314.38 407.361
258 1 43.1359 11.5217 497 120.396 1312.66 466.915
259 0 48.1515 13.5406 652 118.712 1312.2 462.92
260 0 47.0906 14.2279 670 117.358 1311.72 462.294
261 0 50.3085 11.8469 596 121.154 1317.04 458.403
262 0 52.1373 15.2674 796 112.612 1317.19 457.006
263 0 53.1984 14.9253 794 114.834 1318.23 460.654
264 0 54.1136 14.6913 795 116.916 1318.86 455.454
265 0 51.2985 9.43497 484 125.378 1321.06 455.738
266 0 56.2466 13.7075 771 118.339 1322.82 453.842
267 0 60.3472 15.7588 951 114.286 1325.06 454.465
268 0 63.1762 20.1183 1271 107.758 1325.95 453.29
269 0 65.2399 12.7376 831 120.468 1328.88 455.339
270 0 65.1353 13.6332 888 123.628 1329.71 455.876
271 0 66.2195 15.3882 1019 121.65 1330.93 454.26
272 0 67.1486 13.3435 896 123.588 1332.09 455.577
273 0 70.15 15.0249 1054 121.307 1331.39 452.552
274 0 77.3797 14.3836 1113 123.969 1332.56 455.944
275 0 74.323 13.5893 1010 126.414 1331.72 451.25
276 0 75.2149 12.7501 959 130.006 1331.89 453.05
277 0 80.2302 13.2494 1063 129.819 1330.79 454.139
278 0 81.2519 13.0212 1058 133.075 1329.1 455.331
279 1 41.0329 11.6979 480 128.956 1329.1 473.719
280 0 40.0307 9.86743 395 133.109 1328.77 474.785
281 0 43.0641 12.3537 532 127.511 1327.5 474.421
282 0 45.0589 12.872 580 127.867 1325.29 474.634
283 0 43.623 12.6997 554 126.655 1320.47 469.401
284 0 46.0998 13.4708 621 122.451 1318.89 467.911
285 0 48.22 11.0328 532 132.714 1317.37 470.69
286 0 52.0841 13.9006 724 128.363 1316 470.068
287 0 47.0851 11.9358 562 135.5 1315.27 468.151
288 0 51.1642 12.3133 630 132.5 1314.45 467.538
289 0 52.0676 10.3519 539 136.506 1315.25 468.473
290 0 54.0919 13.6989 741 128.232 1312.45 466.143
291 0 54.1222 9.38617 508 133.179 1312.09 466.344
292 0 55.0939 12.1611 670 129.193 1311.74 459.613
293 0 55.0939 12.2337 674 144.745 1310.7 459.767
294 0 62.1356 17.3331 1077 117.71 1312.3 460.657
295 0 64.2559 13.6641 878 126.411 1312.65 455.147
296 0 66.1876 15.0028 993 123.446 1313.39 455.348
297 0 67.1401 13.1069 880 127.705 1314.38 454.248
298 0 68.0788 12.9262 880 127.627 1315.72 453.947
299 0 69.2545 12.4757 864 130.297 1317.09 451.512
300 0 73.1884 18.7188 1370 120.238 1319.64 451.575
301 0 76.1369 14.3032 1089 128.495 1321.13 452.857
302 0 79.103 14.0829 1114 130.864 1323.2 447.434
303 0 83.4226 14.8161 1236 128.464 1324.55 452.381
304 0 83.1288 15.3376 1275 130.096 1326.35 448.355
305 1 42.0642 13.4081 564 132.681 1326.41 465.28
306 0 45.0128 13.7294 618 132.155 1326.89 467.879
307 0 48.0486 10.1356 487 135.762 1332.26 471.345
308 0 47.1814 13.6283 643 132.813 1331.73 468.3
309 0 48.1041 12.2859 591 136.87 1331.34 468.912
310 0 58.4881 15.1655 887 123.918 1330.97 471.23
311 0 53.0847 14.8254 787 132.367 1329.63 469.525
312 0 54.1718 15.5432 842 132.922 1328.51 468.474
313 0 54.2802 14.9042 809 135.737 1327.43 468.168
314 0 57.0382 14.2711 814 135.564 1325.95 470.566
315 0 59.1145 17.39 1028 129.684 1325.52 465.448
316 0 56.1192 16.162 907 134.508 1324.17 465.064
317 0 61.2545 15.4111 944 133.719 1322.3 466.649
318 0 61.2438 15.4138 944 144.542 1320.3 466.659
319 0 67.2253 16.8092 1130 126.324 1319.63 463.87
320 0 68.2473 16.9677 1158 128.041 1318.9 463.168
321 0 69.2962 13.1609 912 135.18 1317.45 461.923
322 0 70.274 13.3051 935 134.667 1316.52 458.801
323 0 72.3351 13.1333 950 135.483 1316.47 457.059
324 0 76.2691 15.1175 1153 129.752 1315.35 453.072
325 0 77.3424 13.6406 1055 131.136 1315.2 451.649
326 0 81.4149 19.0751 1553 120.647 1315.28 450.379
327 0 86.4503 14.1353 1222 128.784 1314.72 449.058
328 0 90.9045 16.2038 1473 123.29 1315.48 449.673
329 1 44.2435 12.047 533 127.889 1316.79 466.647
330 0 46.2654 13.9845 647 126.008 1317.4 463.74
331 0 51.1065 16.2015 828 120.35 1316.43 462.628
332 0 51.4366 11.9565 615 131.995 1317.64 459.138
333 0 51.217 14.7412 755 131.087 1318.92 458.54
334 0 56.1236 15.7153 882 128.285 1320.63 456.338
335 0 54.048 11.7118 633 141.485 1322.94 461.706
336 0 56.1731 14.4731 813 138.156 1325.04 459.592
337 0 56.2155 14.4978 815 138.777 1325.3 457.217
338 0 61.11 15.5294 949 134.453 1326.95 460.063
339 0 60.0533 13.7878 828 140.33 1327.22 460.8
340 0 63.0738 15.3471 968 136.227 1327.94 459.669
341 0 66.0876 15.8275 1046 135.176 1327.59 459.013
342 0 67.1146 14.438 969 138.438 1326.75 459.521
343 0 68.1899 14.1956 968 139.99 1326.29 457.436
344 0 74.1817 18.0368 1338 130.689 1326.02 458.934
345 0 74.1924 13.9233 1033 140.316 1324.99 459.936
346 0 76.1814 15.8175 1205 138.851 1324.18 457.795
347 0 78.2127 15.4578 1209 141.935 1323.16 453.615
348 0 82.15 17.2368 1416 137.727 1322.63 453.99
349 0 88.2626 15.0687 1330 133.67 1322.29 455.356
350 1 48.0677 13.1481 632 131.53 1319.63 473.055
351 0 52.1819 10.655 556 133.912 1318.36 473.406
352 0 51.1214 13.419 686 133.765 1316.65 468.638
353 0 52.1003 13.5124 704 130.624 1315.81 467.668
354 0 51.0962 13.0538 667 137.501 1315.6 465.229
355 0 54.1655 11.7418 636 136.858 1317.58 466.542
356 0 57.0821 13.9974 799 135.419 1314.13 461.713
357 0 60.0454 18.9523 1138 124.237 1313 461.878
358 0 61.1551 16.6789 1020 129.492 1312.35 455.985
359 0 66.3491 16.2625 1079 125.286 1312.19 460.322
360 0 66.0767 15.2096 1005 129.588 1312.21 453.727
361 0 69.1092 15.0486 1040 131.034 1312.36 453.018
362 0 72.1781 13.1342 948 130.879 1312.9 455.105
363 0 76.2506 19.3179 1473 122.185 1315.02 453.709
364 0 76.1179 24.4621 1862 116.033 1315.39 451.74
365 0 78.0835 16.5208 1290 126.866 1318.38 450.812
366 0 82.1594 16.5167 1357 126.117 1318.58 450.272
367 0 84.1602 18.9401 1594 126.252 1321.86 445.145
368 0 88.2663 17.0393 1504 129.704 1322.86 444.904
369 0 91.8907 16.1714 1486 128.645 1324.24 448.82
370 1 51.626 13.2685 685 124.108 1325.44 469.382
371 0 50.1369 11.5683 580 133.891 1326.96 467.743
372 0 48.1692 14.0339 676 127.794 1326.58 470.675
373 0 52.3734 13.9957 733 135.911 1327.22 464.141
374 0 51.3534 14.001 719 132.604 1327.75 466.31
375 0 54.1585 14.5683 789 132.123 1326.17 466.821
376 0 55.1526 14.0882 777 137.179 1326.44 469.342
377 0 56.0385 16.0426 899 135.339 1325.25 465.02
378 0 59.2267 17.3233 1026 132.393 1325.04 465.35
379 0 62.1974 15.7241 978 134.826 1323.7 466.981
380 0 62.1745 13.5747 844 140.998 1322.6 465.448
381 0 64.1476 15.324 983 137.39 1322.13 466.42
382 0 66.0687 14.5303 960 140.064 1321.19 465.271
383 0 66.1839 13.3114 881 143.003 1319.39 463.645
384 0 70.1685 15.8618 1113 137.168 1318.15 461.604
385 0 72.1433 15.5662 1123 136.625 1317.66 459.878
386 0 74.1871 16.2562 1206 133.047 1316.71 458.297
387 0 76.1128 14.1632 1078 138.289 1315.62 458.71
388 0 80.1862 14.9278 1197 133.723 1315.05 457.006
389 0 80.2951 12.9522 1040 136.792 1314.4 453.698
390 0 84.1124 14.7897 1244 135.122 1313.67 448.8
391 1 49.0479 14.9446 733 129.173 1312.28 467.419
392 0 49.032 12.2777 602 133.465 1311.46 467.483
393 0 51.1885 16.3318 836 128.057 1312.06 464.062
394 0 52.2632 13.2598 693 130.485 1312.78 463.918
395 0 50.137 11.329 568 135.593 1313.22 462.137
396 0 55.2274 18.288 1010 119.142 1314.41 465.513
397 0 57.1586 12.6315 722 128.065 1314.77 458.508
398 0 56.0751 12.3406 692 129.814 1315.99 454.708
399 0 59.1644 13.1329 777 128.225 1317.6 454.129
400 0 58.1672 14.1661 824 128.064 1320.62 455.072
401 0 63.1563 14.0287 886 127.754 1322.16 456.821
