time division length width area intensity CMx CMy
0 0 107.464 16.0984 1730 112.428 961.032 432.094
1 0 105.591 18.3633 1939 113.847 961.355 420.691
2 0 109.566 20.3439 2229 109.238 962.26 425.561
3 0 108.474 17.1285 1858 112.639 962.119 425.07
4 0 115.716 21.6046 2500 108.554 961.704 426.193
5 0 122.794 18.1035 2223 110.034 962.292 421.754
6 0 123.719 15.8343 1959 112.59 961.661 421.607
7 0 374.248 38.2634 14320 113.377 960.286 280.951
8 1 127.947 29.2934 3748 106.543 958.083 424.732
9 0 134.707 28.2539 3806 108.21 957.326 417.061
10 1 69.1025 15.2672 1055 115.555 958.539 444.239
11 0 69.4041 15.6331 1085 119.865 956.942 444.14
12 0 70.2563 13.3511 938 129.235 955.989 444.615
13 0 77.4267 16.5705 1283 119.362 955.794 444.855
14 0 77.2385 15.4975 1197 129.663 954.572 444.176
15 0 76.335 15.6547 1195 121.354 953.536 444.106
16 0 80.572 13.1808 1062 130.975 952.101 439.365
17 0 85.6256 14.9838 1283 129.155 950.528 440.36
18 0 84.2696 10.3715 874 139.817 949.138 439.833
19 1 51.0751 9.73077 497 137.213 948.378 452.489
20 0 50.2075 10.9745 551 135.16 946.341 453.247
21 0 54.3243 11.2657 612 133.193 945.423 453.021
22 0 54.1108 10.3306 559 130.177 943.483 451.27
23 0 58.0972 15.0093 872 123.203 945.206 449.389
24 0 57.0879 11.8589 677 128.793 944.267 449.341
25 0 58.1732 11.1392 648 133.08 942.213 448.653
26 0 61.1906 11.5541 707 133.72 941.89 443.74
27 0 66.3439 15.7362 1044 124.352 942.669 443.519
28 0 62.1238 11.5093 715 127.638 942.372 441.501
29 0 64.0965 14.0725 902 121.681 945.131 440.001
30 0 68.0897 15.4943 1055 118.8 946.988 441.393
31 0 70.109 14.5345 1019 117.062 949.673 439.642
32 0 75.8767 23.4986 1783 107.153 951.377 438.121
33 0 76.1419 21.1579 1611 108.112 952.632 440.606
34 0 78.2355 24.2984 1901 106.315 954.345 440.847
35 0 79.3198 8.38378 665 118.131 955.391 443.841
36 0 85.6845 24.03 2059 104.912 956.183 445.401
37 0 88.1374 20.8311 1836 109.201 957.155 439.441
38 0 88.1374 20.5361 1810 135.106 957.149 439.431
39 1 48.1085 11.578 557 124.381 956.452 461.314
40 0 50.3713 13.0034 655 122.156 957.009 464.403
41 0 52.2225 15.7786 824 121.775 956.001 461.374
42 0 51.0404 15.8502 809 123.728 955.471 460.99
43 0 51.0404 15.8894 811 130.699 954.459 461.044
44 0 55.1945 15.3457 847 134.293 952.792 458.864
45 0 55.1161 14.533 801 141.015 952.228 456.829
46 0 57.1049 15.9356 910 136.993 951.375 458.211
47 0 57.0603 12.9687 740 149.503 949.761 455.443
48 0 59.0768 15.5729 920 144.403 949.002 452.882
49 0 60.1277 15.8829 955 143.208 947.91 455.064
50 0 62.2508 15.4697 963 143.198 945.25 454.664
51 0 64.0703 14.7026 942 145.08 944.259 452.055
52 0 65.2358 14.8845 971 145.513 943.274 449.196
53 0 67.1415 14.3726 965 145.226 942.348 449.041
54 0 67.1415 14.4173 968 149.684 942.338 449.081
55 0 73.1435 15.7088 1149 139.023 941.683 446.289
56 0 74.3011 14.2663 1060 142.125 940.491 445.702
57 0 72.279 14.1396 1022 150.774 938.523 445.304
58 0 72.2717 14.0857 1018 150.442 936.511 445.314
59 0 85.549 13.9452 1193 137.951 940.745 441.052
60 0 84.2027 17.3629 1462 133.368 941.323 434.619
61 1 45.1895 11.9276 539 136.827 940.944 455.545
62 0 43.2112 9.07173 392 133.985 941.403 460.587
63 0 42.0795 11.1456 469 140.755 942.765 454.478
64 0 48.0927 12.5383 603 138.381 944.726 454.066
65 0 49.0484 13.7823 676 131.714 949.18 457.549
66 0 50.0451 12.8684 644 137.275 949.036 451.654
67 0 53.2591 13.5564 722 134.558 951.413 454.141
68 0 53.2481 16.4325 875 130.985 953.32 457.237
69 0 60.2122 18.2189 1097 121.054 954.907 459.002
70 0 57.1738 12.3833 708 136.277 954.513 453.871
71 0 59.2181 15.1474 897 132.311 955.776 453.551
72 0 61.0479 14.3002 873 138.198 955.921 454.985
73 0 63.1595 15.7221 993 131.216 955.223 454.981
74 0 63.1256 16.2058 1023 129.567 955.806 456.059
75 0 65.119 14.7576 961 136.691 953.853 451.961
76 0 66.1415 13.3653 884 140.48 952.825 453.387
77 0 67.383 13.6384 919 144.847 951.88 451.826
78 0 69.3803 13.2747 921 149.726 950.873 451.819
79 0 76.0787 14.9188 1135 143.239 950.972 452.048
80 0 75.0762 15.0247 1128 144.208 949.93 451.63
81 0 77.0669 16.4143 1265 143.164 948.477 451.516
82 0 80.0837 13.9229 1115 148.544 946.667 448.864
83 0 84.5576 15.5752 1317 144.544 946.364 448.115
84 0 85.2292 17.4001 1483 142.229 945.291 443.686
85 0 89.2329 15.5548 1388 145.684 943.949 440.484
86 1 48.1257 12.2596 590 145.203 941.98 463.275
87 0 49.0588 15.0839 740 136.082 940.439 462.212
88 0 47.0622 12.9403 609 142.246 939.765 459.148
89 0 52.132 13.0246 679 137.221 943.127 458.317
90 0 52.104 13.3195 694 135.707 942.411 458.618
91 0 53.1596 15.35 816 131.717 940.962 455.462
92 0 56.1725 12.7821 718 134.266 942.15 453.396
93 0 56.11 12.2082 685 135.806 942.75 452.051
94 0 56.11 12.2438 687 144.971 943.769 452.086
95 0 61.2143 13.5589 830 129.113 943.487 449.111
96 0 61.1046 17.1346 1047 125.181 944.568 444.614
97 0 61.1046 17.1182 1046 119.738 946.544 444.718
98 0 64.3665 14.464 931 130.551 947.699 446.588
99 0 68.2256 15.0237 1025 129.662 950.343 446.322
100 1 135.648 11.9206 1617 138.07 950.386 415.208
101 0 143.53 13.2167 1897 125.281 952.584 413.992
102 0 146.749 12.1909 1789 125.78 954.721 412.109
103 0 157.309 23.3299 3670 113.035 955.777 410.148
104 1 81.1841 28.7248 2332 104.306 956.147 442.653
105 0 78.2276 11.735 918 118.205 958.087 445.694
106 0 84.3842 14.908 1258 119.842 957.877 447.126
107 0 90.4012 15.0551 1361 116.32 957.72 444.2
108 0 94.2157 23.7646 2239 107.848 957.514 448.709
109 0 93.3166 22.2576 2077 113.274 957.166 442.704
110 0 96.3336 19.5986 1888 123.489 954.742 442.524
111 0 99.175 16.8087 1667 134.656 955.25 438.38
112 0 99.2062 15.0394 1492 141.299 954.021 438.894
113 1 52.0482 12.0465 627 143.217 954.279 464.702
114 0 53.268 9.34895 498 150.526 952.837 461.215
115 0 56.105 10.9794 616 143.773 951.774 460.722
116 0 59.1215 9.82722 581 147.241 950.373 460.694
117 0 59.2876 12.4309 737 144.324 948.476 455.29
118 0 63.1903 13.7521 869 139.581 947.015 456.257
119 0 62.1712 12.2565 762 144.833 945.949 457.651
120 0 62.1659 12.5149 778 135.171 944.96 457.258
121 0 68.2798 19.3762 1323 128.074 942.19 453.988
122 0 71.2514 15.6348 1114 134.885 941.222 450.396
123 0 72.4069 11.7945 854 138.972 940.748 449.286
124 0 74.3963 14.5034 1079 132.115 940.141 448.737
125 0 77.3136 12.7145 983 134.495 939.811 444.037
126 0 80.5887 12.5824 1014 137.803 939.942 439.403
127 0 84.3528 18.8968 1594 123.961 940.048 439.208
128 0 86.3701 12.8864 1113 130.631 939.304 436.093
129 1 52.1876 14.0072 731 121.503 941.674 458.934
130 0 50.2515 13.8503 696 122.099 942.612 453.29
131 0 58.1063 12.6492 735 112.541 942.467 461.554
132 0 55.2083 13.0596 721 118.399 945.209 454.32
133 0 55.1623 9.57175 528 123.1 945.104 456.754
134 0 54.3457 11.8133 642 122.643 947.299 454.824
135 0 54.1461 9.75139 528 128.839 948.557 455.547
136 0 60.4189 17.5442 1060 118.088 950.446 452.169
137 0 60.4415 10.7542 650 131.52 950.792 448.182
138 0 63.2421 15.417 975 120.211 952.011 456.865
139 0 62.306 12.1176 755 128.538 951.744 453.503
140 0 66.2263 12.8801 853 132.89 951.291 453.256
141 0 67.0735 13.1945 885 132.063 950.836 452.306
142 0 69.2073 12.2819 850 136.933 951.195 453.535
143 0 73.1873 15.1119 1106 122.652 950.264 452.731
144 0 72.3759 12.3522 894 130.909 949.368 451.009
145 0 75.2198 11.5262 867 134.115 948.4 454.345
146 0 79.3422 16.12 1279 126.252 947.235 452.69
147 0 84.3409 17.2277 1453 127.185 946.763 450.679
148 1 44.416 10.1315 450 134.456 945.273 471.236
149 0 45.166 11.978 541 135.708 943.675 470.327
150 0 48.3938 12.9975 629 132.496 942.576 465.873
151 0 47.0818 11.7455 553 137.201 941.085 464.673
152 0 48.0881 11.7909 567 133.772 939.965 465.608
153 0 53.1375 12.797 680 125.378 939.284 465.413
154 0 53.1375 12.6276 671 132.185 939.289 465.44
155 0 54.184 16.3332 885 119.74 936.444 459.025
156 0 52.0826 10.5985 552 130.391 935.937 459.08
157 0 56.3371 12.514 705 126.567 935.677 455.657
158 0 56.3371 12.6205 711 141.179 933.691 455.471
159 0 61.0998 12.1932 745 125.334 934.66 455.518
160 0 64.3221 15.3136 985 120.907 935.227 451.607
161 0 66.3695 14.7357 978 116.704 934.664 455.034
162 0 64.1461 11.6453 747 124.303 936.021 449.855
163 0 66.2413 14.2207 942 120.996 937.638 448.165
164 0 70.4131 19.1016 1345 111.453 939.483 454.264
165 0 69.3195 12.5939 873 120.732 940.788 445.353
166 0 71.2169 11.9213 849 127.773 943.158 447.172
167 0 74.3002 12.3149 915 122.403 944.778 443.62
168 0 80.3235 15.948 1281 125.03 946.155 446.007
169 0 84.4051 16.0061 1351 123.529 947.996 446.978
170 0 83.3749 13.937 1162 125.888 949.004 442.614
171 0 90.8594 18.5562 1686 116.701 949.899 445.807
172 0 88.4504 14.2114 1257 122.558 950.646 445.56
173 1 47.0952 13.4409 633 125.145 952.532 460.867
174 0 49.1087 9.93715 488 129.533 951.217 465.084
175 0 50.0884 13.017 652 126.359 950.172 463.064
176 0 54.1557 13.4981 731 122.115 949.617 464.358
177 0 54.464 12.265 668 129.219 948.662 464.183
178 0 54.1506 13.7764 746 130.165 947.958 465.741
179 0 58.1999 16.2543 946 126.242 947.216 462.716
180 0 58.2871 19.6441 1145 119.724 946.574 466.144
181 0 58.3929 15.978 933 127.912 946.996 460.416
182 0 60.2257 12.7188 766 135.91 944.403 463.15
183 0 62.2144 12.6498 787 136.95 943.023 459.089
184 0 66.1841 16.711 1106 126.91 942.41 461.847
185 0 67.1539 15.6655 1052 129.233 940.721 457.264
186 0 69.1771 16.3204 1129 126.798 939.192 457.97
187 0 70.1963 13.9893 982 132.251 938.484 453.538
188 0 72.209 14.0287 1013 132.342 937.443 450.571
189 0 76.2087 17.6358 1344 124.387 937.045 450.959
190 0 80.1673 15.1558 1215 129.313 936.4 451.915
191 0 80.2592 13.7056 1100 132.777 935.029 443.721
192 0 82.4072 12.9964 1071 130.446 934.936 444.648
193 0 86.3961 15.9266 1376 124.295 935.811 440.887
194 1 48.0342 14.3856 691 118.268 937.148 462.389
195 0 47.0687 13.9796 658 120.894 937.772 457.058
196 0 50.1877 10.3013 517 122.694 938.046 457.83
197 0 50.1537 11.1657 560 118.266 938.025 459.854
198 0 50.1894 10.5401 529 123.97 941.208 457.775
199 0 57.1761 16.4579 941 111.838 941.495 458.504
200 0 49.0229 8.83261 433 126.457 943.647 456.594
201 0 53.0745 11.1541 592 124.503 945.657 457.551
202 0 57.1927 12.8163 733 119.906 947.6 458.276
203 0 60.4748 14.6838 888 117.706 949.401 453.855
204 0 60.2627 12.9101 778 121.811 950.496 457.053
205 0 61.1053 13.1576 804 122.743 950.622 456.331
206 0 65.3276 14.9707 978 118.89 950.956 455.888
207 0 68.1397 18.4474 1257 112.878 951.391 458.428
208 0 72.134 12.9897 937 121.663 951.333 457.113
209 0 71.3199 13.8391 987 120.522 951.362 456.32
210 0 74.2529 15.6762 1164 122.473 951.219 452.376
211 0 76.1891 17.0628 1300 118.485 950.64 457.713
212 0 76.1891 17.2334 1313 128.27 950.728 457.778
213 0 78.2318 12.0667 944 132.379 948.163 454.629
214 0 83.1932 14.893 1239 126.408 947.053 451.615
215 0 85.1756 14.8282 1263 128.417 945.382 448.551
216 0 86.2039 14.0945 1215 131.131 944.207 447.04
217 0 90.3046 15.0712 1361 128.735 942.548 444.565
218 0 95.4035 19.9993 1908 119.342 941.455 443.198
219 0 95.4035 19.9678 1905 127.671 940.48 443.217
220 0 99.3077 16.5445 1643 122.215 938.795 447.301
221 0 102.268 11.8414 1211 130.799 937.813 439.357
222 0 102.268 11.7828 1205 136.744 935.822 439.082
223 0 114.457 17.0894 1956 124 935.967 433.524
224 1 60.1416 15.2972 920 123.386 936.826 455.999
225 0 61.213 13.6082 833 124.202 936.382 454.367
226 0 62.2118 20.9124 1301 113.924 935.57 451.855
227 0 65.31 16.1078 1052 118.758 936.076 454.108
228 0 64.1676 12.857 825 126.201 936.364 451.628
229 0 64.1802 12.9479 831 132.893 936.361 451.523
230 0 68.2068 11.4651 782 126.936 937.446 449.393
231 0 72.2976 14.634 1058 119.522 939.173 449.112
232 0 74.3496 14.5394 1081 124.947 940.752 446.127
233 0 77.1913 15.2867 1180 123.78 942.572 442.91
234 0 78.2418 15.0431 1177 121.413 944.165 445.338
235 0 82.1547 17.0775 1403 121.162 945.506 444.034
236 0 83.379 14.56 1214 123.564 948.376 441.565
237 0 85.286 12.5929 1074 127.076 948.645 441.604
238 1 45.0677 13.0692 589 122.581 950.613 463.922
239 0 50.0797 11.0624 554 125.058 950.957 462.202
240 0 52.0102 11.7862 613 127.357 952.375 462.561
241 0 53.032 12.2568 650 126.612 950.675 466.185
242 0 51.0939 10.9211 558 134.884 950.131 463.122
243 0 55.052 11.698 644 131.666 946.039 464.295
244 0 57.088 13.4529 768 129.932 945.572 463.797
245 0 56.071 12.074 677 135.613 945.501 464.589
246 0 56.071 12.0205 674 136.577 944.51 464.596
247 0 61.0569 14.4292 881 132.062 943.327 463.571
248 0 62.1355 15.5789 968 131.774 942.118 459.996
249 0 60.0696 13.7008 823 137.235 940.764 459.208
250 0 67.0619 17.2229 1155 127.276 939.763 460.774
251 0 70.1223 15.473 1085 129.329 938.537 458.885
252 0 69.0828 14.2872 987 134.928 937.677 456.958
253 0 73.1981 17.8693 1308 126.944 936.492 454.102
254 0 73.0751 16.1478 1180 131.126 935.1 453.446
255 0 73.0751 16.1204 1178 135.983 934.103 453.491
256 0 79.226 15.6767 1242 130.931 933.571 450.529
257 0 80.1719 17.0633 1368 130.536 933.164 448.782
258 0 82.1311 17.0459 1400 130.281 932.889 443.085
259 0 87.2038 13.9329 1215 136.374 932.346 442.545
260 1 42.0658 10.7451 452 136.721 931.29 464.553
261 0 45.034 12.1464 547 132.574 931.914 464.172
262 0 47.157 12.1721 574 130.714 931.892 462.066
263 0 46.0928 10.8477 500 140.012 932.488 458.65
264 0 49.1787 12.0987 595 131.807 934.071 460.867
265 0 50.1141 12.3917 621 134.752 935.736 457.269
266 0 49.1125 12.1354 596 131.827 938.696 460.485
267 0 51.0909 14.6014 746 127.221 941.603 458.436
268 0 52.1823 12.4947 652 130.632 942.877 458.206
269 0 55.2515 13.6648 755 127.574 943.832 455.253
270 0 57.1855 15.7907 903 126.221 945.003 457.741
271 0 58.174 13.5971 791 130.231 946.346 455.587
272 0 62.0993 13.4784 837 126.565 947.114 459.423
273 0 63.1552 17.9083 1131 120.759 947.179 456.849
274 0 65.2574 12.5503 819 133.22 947.672 459.49
275 0 67.2145 14.5951 981 129.25 947.141 456.013
276 0 67.1207 13.8109 927 134.058 947.523 452.318
277 0 71.2828 14.0847 1004 134.75 946.167 455.897
278 0 75.2833 16.139 1215 133.38 944.93 454.877
279 0 77.3685 14.1918 1098 137.325 944.113 455.566
280 0 82.244 19.4665 1601 126.042 943.595 456.165
281 0 82.1473 14.8879 1223 136.204 942.355 452.011
282 1 39.1741 12.5593 492 136.614 941.244 473.205
283 0 46.0485 12.0308 554 136.188 939.796 472.46
284 0 44.0673 11.959 527 134.455 938.065 470.34
285 0 47.084 12.3609 582 139.366 936.918 466.921
286 0 48.0827 12.6865 610 139.587 937.015 468.495
287 0 49.1482 11.6179 571 141.424 936.774 466.664
288 0 50.0407 13.7088 686 137.134 934.383 465.56
289 0 52.1079 14.873 775 133.248 933.102 464.843
290 0 52.0389 13.9895 728 135.655 932.464 462.216
291 0 56.048 14.4162 808 131.683 932.181 461.108
292 0 59.0637 16.2536 960 124.668 931.742 459.202
293 0 59.059 16.3565 966 120.126 930.704 459.28
294 0 62.0765 16.979 1054 127.936 931.026 454.885
295 0 60.0707 11.5198 692 139.247 931.332 453.487
296 0 67.0487 16.9727 1138 127.433 932.17 450.008
297 0 66.171 13.6616 904 132.004 933.587 452.759
298 0 69.0692 13.9136 961 131.561 934.829 449.242
299 0 70.1893 10.8706 763 137.767 935.92 448.477
300 0 72.1149 14.9622 1079 132.044 938.486 443.393
301 0 76.1203 15.2784 1163 131.043 940.179 444.129
302 0 79.0938 15.0581 1191 129.056 942.087 446.897
303 0 80.0538 11.5547 925 136.311 943.444 448.817
304 0 82.2819 12.7367 1048 135.872 945.11 443.417
305 1 47.3977 11.8149 560 127.338 945.575 467.877
306 0 47.1304 11.012 519 134.368 945.788 462.73
307 0 51.5274 11.7607 606 127.756 947.295 469.046
308 0 49.0797 12.5918 618 127.822 946.948 465.927
309 0 51.039 13.8521 707 127.112 948.969 463.934
310 0 52.1851 12.0916 631 128.856 948.867 465.206
311 0 53.1905 14.6455 779 125.095 948.258 466.001
312 0 55.125 12.0453 664 130.443 947.123 463.009
313 0 55.2184 14.7777 816 127.058 945.962 465.575
314 0 60.2145 12.4057 747 130.003 944.25 464.185
315 0 60.2936 13.7826 831 128.681 944.013 462.906
316 0 63.2354 14.5804 922 127.572 942.585 460.066
317 0 65.3831 13.5968 889 129.168 940.917 461.559
318 0 64.2076 12.958 832 131.954 939.561 457
319 0 66.3984 11.7925 783 130.458 938.317 458.015
320 0 70.1231 14.5031 1017 127.792 937.343 456.9
321 0 74.393 12.891 959 129.979 935.923 453.337
322 0 75.2216 12.0577 907 132.67 935.259 450.749
323 0 80.294 14.1106 1133 128.243 935.029 449.043
324 0 78.3115 9.61545 753 134.851 934.304 447.961
325 1 41.1849 7.38135 304 132.352 934.727 465.072
326 0 44.3957 10.4515 464 125.869 935.196 465.015
327 0 48.2005 12.6555 610 122.008 934.384 464.454
328 0 49.0464 15.6383 767 117.426 934.934 462.297
329 0 48.1291 13.5677 653 119.698 934.858 462.305
330 0 51.053 12.869 657 120.167 934.866 459.37
331 0 52.4737 13.8736 728 117.4 934.652 457.431
332 0 55.1176 13.8976 766 125.419 936.82 459.014
333 0 54.237 13.0907 710 129.787 937.575 457.846
334 0 55.303 14.3211 792 128.064 939.559 457.601
335 0 56.2856 14.9239 840 127.631 941.604 456.257
336 0 58.1401 14.2759 830 130.189 943.205 456.62
337 0 60.2847 14.8462 895 128.253 943.705 455.828
338 0 60.2335 14.3276 863 131.017 945.161 457.134
339 0 62.1455 12.0524 749 136.093 945.14 455.515
340 0 64.0407 13.226 847 134.764 945.955 457.335
341 0 67.2147 13.3602 898 136.601 945.617 455.086
342 0 70.1811 15.0183 1054 134.334 945.085 456.491
343 0 71.1145 15.6649 1114 133.897 944.675 456.119
344 0 73.2312 13.6008 996 140.298 944.568 454.422
345 0 74.2028 13.4901 1001 141.636 943.26 455.888
346 0 76.1957 12.586 959 146.635 942.509 453.152
347 0 83.2599 15.0733 1255 140.633 941.423 454.865
348 1 39.1976 10.3323 405 148.983 941.072 472.6
349 0 39.2992 8.90604 350 149.811 940.677 471.071
350 0 47.2153 13.2796 627 137.981 938.962 471.14
351 0 48.1427 14.0831 678 137.729 937.115 468.335
352 0 47.1526 12.5762 593 141.32 935.496 468.535
353 0 50.6031 13.6158 689 135.938 935.446 464.949
354 0 50.517 11.9366 603 138.31 935.526 467.275
355 0 53.1918 15.2655 812 130.144 932.696 464.821
356 0 54.1002 16.0997 871 129.23 932.336 463.824
357 0 54.2243 14.772 801 131.566 931.533 461.62
358 0 58.2304 16.5206 962 128.183 931.418 459.384
359 0 58.0905 12.6354 734 134.181 930.749 459.041
360 0 62.1734 16.3897 1019 125.992 931.135 457.168
361 0 63.1358 14.651 925 131.545 931.131 455.597
362 0 64.201 15.8097 1015 127.319 931.784 456.717
363 0 66.2042 16.8569 1116 127.186 934.015 453.403
364 0 70.4683 14.5314 1024 125.407 934.803 460.186
365 0 72.2755 15.3441 1109 127.95 936.873 452.266
366 0 72.2331 15.0208 1085 130.469 937.759 450.163
367 0 74.2102 12.6802 941 134.187 940.738 453.925
368 0 79.1594 12.9738 1027 134.659 942.158 451.107
369 0 83.3115 14.7999 1233 132.131 943.817 448.001
370 0 82.3732 13.1839 1086 136.465 944.865 448.129
371 0 88.375 17.1655 1517 130.259 946.485 446.236
372 0 91.2374 15.8926 1450 130.067 945.961 448.463
373 1 51.1591 12.3536 632 135.149 946.712 470.62
374 0 53.2306 11.2905 601 137.531 946.677 469.715
375 0 51.1428 11.0084 563 141.645 944.972 467.49
376 0 53.1532 13.2259 703 137.807 944.307 467.915
377 0 55.0666 16.1804 891 132.232 943.696 465.54
378 0 60.1954 19.4533 1171 124.12 943.835 465.575
379 0 55.0524 12.5698 692 143.957 942.033 464.601
380 0 60.0842 15.5448 934 135.302 940.915 466.051
381 0 60.0934 12.5638 755 142.89 940.372 465.109
382 0 66.0536 16.6229 1098 132.496 939.48 465.658
383 0 63.1689 14.0417 887 139.083 937.634 463.834
384 0 68.1698 15.256 1040 134.965 936.606 463.527
385 0 69.0718 15.6938 1084 134.435 936.096 460.156
386 0 72.081 13.6652 985 135.717 934.928 458.271
387 0 76.1267 15.9734 1216 132.026 934.181 456.897
388 0 75.1006 16.884 1268 129.784 933.748 454.755
389 0 81.2155 19.7622 1605 122.012 933.328 452.096
390 0 80.316 15.4639 1242 131.283 932.3 454.158
391 0 81.2677 14.1508 1150 131.767 931.529 450.873
392 0 86.5539 16.1864 1401 128.475 931.15 444.396
393 0 88.1402 14.6925 1295 130.642 930.973 445.12
394 0 94.3781 19.3901 1830 120.974 931.79 440.215
395 0 98.5131 17.2769 1702 122.079 932.783 442.801
396 1 49.0288 14.9504 733 122.166 933.256 464.508
397 0 49.1001 11.5682 568 128.049 934.63 462.345
398 0 50.1885 11.2974 567 127.914 936.247 460.118
399 0 54.1712 14.3434 777 121.941 938.398 460.335
400 0 57.5553 14.6815 845 119.492 940.869 456.927
401 0 59.1197 16.475 974 117.211 943.221 459.699
