time division length width area intensity CMx CMy
0 0 55.2541 15.7273 869 122.316 1278.32 457.856
1 0 52.1999 18.7548 979 118.562 1279.15 457.521
2 0 53.3653 12.48 666 127.357 1278.82 459.446
3 0 60.2802 19.6914 1187 117.457 1278.99 457.797
4 0 59.4186 25.1436 1494 110.056 1278.79 461.177
5 0 58.4847 19.3555 1132 119.703 1279.12 457.707
6 0 59.2565 17.5846 1042 120.943 1278.41 459.382
7 0 58.1729 14.0615 818 131.203 1277.65 458.883
8 0 60.2409 16.6166 1001 134.343 1276.1 457.747
9 0 60.1396 14.1504 851 141.508 1275.6 458.922
10 0 66.3604 16.772 1113 135.641 1274.67 458.642
11 0 66.2568 15.4248 1022 140.611 1272.96 458.249
12 0 67.1533 12.9852 872 149.123 1272.79 458.936
13 0 71.2171 14.3505 1022 151.499 1272.5 456.83
14 0 73.1833 14.6618 1073 153.308 1270.9 458.102
15 0 76.1963 16.195 1234 151.323 1268.95 454.062
16 1 41.3583 11.7268 485 157.909 1267.82 469.282
17 0 38.2726 9.5891 367 160.986 1265.18 472.256
18 0 41.0813 12.317 506 152.255 1263.94 469.698
19 0 45.15 13.6877 618 148.362 1261.02 467.175
20 0 43.0793 11.8851 512 155.539 1259.6 464.955
21 0 43.0793 11.8618 511 135.65 1257.61 464.969
22 0 47.2825 13.3876 633 154.888 1259.02 462.275
23 0 49.4663 15.9705 790 148.986 1259.28 460.746
24 0 49.2919 11.7464 579 152.066 1259.3 459.306
25 0 52.2394 13.3041 695 148.63 1259.44 457.564
26 0 53.1399 13.7185 729 146.984 1260.01 455.989
27 0 54.2472 13.3094 722 147.445 1260.72 455.086
28 0 56.1813 13.5988 764 144.208 1261.4 452.946
29 0 58.252 14.4373 841 139.99 1263.91 453.629
30 0 55.3859 12.2775 680 144.624 1265.15 451.856
31 0 61.2966 14.2749 875 135.464 1267.71 452.821
32 0 62.3099 15.8402 987 130.328 1269.28 453.375
33 0 67.4638 15.2823 1031 128.764 1270.89 450.367
34 0 67.2342 19.0231 1279 123.213 1273.17 450.047
35 0 68.2306 15.9752 1090 128.762 1273.94 450.659
36 0 71.2335 14.7262 1049 125.632 1274.3 454.258
37 0 75.6632 15.5558 1177 124.101 1274.78 453.618
38 0 78.2475 14.6458 1146 127.214 1275.64 450.594
39 0 79.2909 13.0784 1037 130.251 1275.27 449.446
40 1 46.6406 14.0007 653 123.611 1277.28 473.801
41 0 41.0294 12.0158 493 136.611 1277.14 470.097
42 0 45.1353 13.6479 616 141.469 1275.07 471.357
43 0 47.409 12.8667 610 140.321 1273.84 470.466
44 0 46.4019 11.3573 527 147.057 1272.18 465.038
45 0 49.441 14.1987 702 144.61 1271.26 466.258
46 0 52.2272 14.4752 756 146.917 1271.77 470.562
47 0 51.3179 18.7264 961 138.652 1270.04 467.529
48 0 53.2501 15.4554 823 148.293 1268.33 468.637
49 0 53.3199 16.7104 891 147.541 1266.98 466.593
50 0 57.0978 15.9376 910 147.78 1265.35 467.157
51 0 59.0601 17.152 1013 147.081 1264.17 464.971
52 0 61.1671 15.94 975 150.916 1262.27 463.952
53 0 62.3265 16.1889 1009 148.995 1261.48 462.238
54 0 62.4258 13.6642 853 157.788 1260.38 460.667
55 0 69.2261 15.3121 1060 149.871 1260.19 459.332
56 0 67.1979 15.0451 1011 153.56 1259.91 457.065
57 0 69.2167 13.176 912 157.238 1259.53 456.09
58 0 73.352 14.8735 1091 153.73 1258.82 451.371
59 0 75.2893 15.5002 1167 152.661 1259.57 449.768
60 0 78.6134 15.0229 1181 151.858 1259.6 448.306
61 1 39.0339 11.6053 453 154.272 1259.86 467.391
62 0 40.0403 10.0149 401 155.476 1260.33 467.546
63 0 44.1789 16.1842 715 141.236 1262.43 463.799
64 0 45.2511 12.8616 582 144.906 1263.57 463.715
65 0 45.1964 13.6958 619 139.577 1266.16 462.305
66 0 45.3028 13.4208 608 141.523 1266.55 463.155
67 0 48.2761 14.4171 696 137.608 1268.39 465.136
68 0 50.1134 13.5293 678 140.611 1269.23 461.476
69 0 53.2475 12.9959 692 139.368 1270.37 464.195
70 0 57.0893 12.9446 739 136.503 1270.66 464.716
71 0 57.2726 13.7762 789 137.286 1272.19 463.066
72 0 59.5265 14.5818 868 137.152 1271.81 465
73 0 61.1974 15.5235 950 136.278 1271.82 462.968
74 0 63.2793 15.2814 967 141.098 1271.69 464.478
75 0 66.264 15.1062 1001 142.657 1270.33 461.956
76 0 67.2284 12.6732 852 153.919 1270.08 460.021
77 0 72.3349 16.4236 1188 144.92 1270.28 460.608
78 0 72.3037 14.5774 1054 151.615 1268.98 457.777
79 1 35.0267 12.2478 429 151.737 1267.68 476.781
80 0 36.0153 12.4669 449 143.465 1266.66 477.176
81 0 42.1559 10.5798 446 153.895 1266.54 474.791
82 0 44.2478 13.6956 606 147.772 1265.32 472.741
83 0 45.122 11.0146 497 153.046 1264 472.889
84 0 45.1593 12.9541 585 151.157 1261.92 471.696
85 0 48.0342 12.5327 602 151.975 1259.47 473.05
86 0 52.1445 14.0955 735 150.982 1258.28 467.408
87 0 53.1881 15.887 845 145.343 1256.82 465.409
88 0 57.2296 17.0891 978 140.798 1257.19 465.539
89 0 53.191 13.7617 732 151.362 1255.63 463.939
90 0 57.2467 15.7564 902 145.392 1255.77 462.645
91 0 60.1428 15.5131 933 145.745 1255.24 460.015
92 0 61.2289 14.4213 883 146.605 1256.36 458.798
93 0 61.2019 12.0421 737 152.502 1255.25 458.71
94 0 65.2376 15.3286 1000 145.972 1256.51 454.189
95 0 68.2668 14.3554 980 147.417 1257.48 455.586
96 0 69.1614 13.6637 945 150.615 1258.65 450.091
97 0 73.2737 14.2343 1043 146.643 1259.64 452.985
98 0 76.1204 16.0929 1225 145.692 1262.02 449.078
99 1 40.0346 12.3893 496 143.21 1263.63 468.982
100 0 41.1077 11.0928 456 142.408 1264.77 470.601
101 0 44.2579 12.4046 549 145.311 1266.85 465.45
102 0 44.1018 13.2648 585 140.164 1268.76 467.937
103 0 46.172 14.4893 669 136.96 1269.65 468.387
104 0 46.2875 12.1631 563 143.922 1271.06 467.229
105 0 48.6011 11.3578 552 146.966 1272.02 468.707
106 0 51.4685 12.8039 659 146.426 1270.38 467.578
107 0 53.556 14.975 802 142.498 1270.88 464.495
108 0 53.4411 16.0364 857 144.764 1269.84 464.781
109 0 54.2162 13.9995 759 152.167 1268.45 468.826
110 0 60.2831 18.1643 1095 139.534 1267.99 469.245
111 0 58.2775 14.5511 848 151.18 1267.42 468.995
112 0 62.2301 14.8963 927 149.564 1266.85 467.858
113 0 63.164 16.5284 1044 149.122 1265.57 465.923
114 0 68.1798 14.4178 983 152.703 1264.65 466.395
115 0 66.1622 13.4216 888 157.251 1264.13 462.961
116 0 68.2672 13.4179 916 157.856 1263 461.384
117 0 72.2536 16.4974 1192 148.565 1260.4 464.189
118 0 75.2885 16.191 1219 152.214 1259.17 457.627
119 0 77.2807 17.3006 1337 150.993 1257.71 456.446
120 0 77.3384 13.7836 1066 160.129 1256.24 457.959
121 0 81.3515 13.1282 1068 162.782 1255.08 455.401
122 0 86.2498 17.0899 1474 154.269 1254.56 450.171
123 1 47.1247 11.9046 561 157.686 1252.03 469.742
124 0 45.0959 11.7749 531 160.247 1252.27 467.787
125 0 47.0947 11.8909 560 156.955 1251.74 470.041
126 0 46.0493 12.1826 561 162.455 1252.63 464.212
127 0 51.0788 16.4256 839 152.007 1254.95 464.031
128 0 53.2702 12.8402 684 159.193 1255.98 461.399
129 0 54.598 14.1764 774 157.532 1257.43 459.86
130 0 58.1264 15.2427 886 150.701 1259.54 461.158
131 0 59.0716 16.1838 956 149.238 1261.08 459.884
132 0 59.2652 13.448 797 157.92 1261.92 459.651
133 0 60.0262 14.7935 888 154.679 1265.47 459.708
134 0 60.1358 13.4695 810 157.307 1266.24 460.647
135 0 65.1443 16.6093 1082 150.201 1267.55 458.548
136 0 68.0931 16.2131 1104 150.941 1269.41 455.908
137 0 70.0964 15.122 1060 153.071 1269.55 456.643
138 0 72.0935 16.8393 1214 150.742 1270.42 455.986
139 0 76.0808 14.5503 1107 155.43 1270.7 456.928
140 0 79.1207 16.0388 1269 151.293 1270.73 457.452
141 0 78.2882 15.5196 1215 151.616 1269.69 460.765
142 0 82.2191 14.9965 1233 155.994 1270.22 454.873
143 0 82.1511 12.3553 1015 162.487 1269.02 455.737
144 0 87.227 16.3252 1424 152.081 1268.53 457.111
145 1 43.0848 8.81981 380 160.976 1267.97 474.732
146 0 47.0908 12.6776 597 152.809 1267.09 473.136
147 0 48.2056 12.6956 612 148.301 1265.07 476.565
148 0 50.1565 11.2448 564 151.551 1263.62 473.298
149 0 54.1975 13.4324 728 146.295 1262 472.625
150 0 55.2613 11.527 637 149.206 1258.71 471.849
151 0 56.2096 12.3289 693 146.235 1257.08 468.362
152 0 59.2676 14.0211 831 142.779 1256.78 467.301
153 0 62.2266 17.1149 1065 135.77 1255.33 464.9
154 0 64.0735 16.2782 1043 138.613 1254.45 464.484
155 0 66.1392 14.0159 927 142.125 1252.93 464.46
156 0 66.1795 12.9043 854 145.004 1252.53 460.123
157 0 68.0732 12.5747 856 146.446 1251.84 455.66
158 0 71.116 15.4396 1098 140.437 1251.39 454.138
159 0 74.0916 13.4698 998 144.315 1251.15 451.594
160 0 76.1713 11.054 842 147.308 1251 451.297
161 0 80.3001 14.9315 1199 138.315 1253.16 448.882
162 0 82.4078 14.1006 1162 140.884 1254.67 443.704
163 0 84.4966 12.6159 1066 143.434 1255.04 444.76
164 0 87.5829 11.726 1027 143.512 1256.22 446.361
165 1 47.182 13.5857 641 130.755 1258.57 467.321
166 0 46.1951 14.3089 661 135.64 1258.66 465.944
167 0 47.2171 12.5378 592 139.071 1260.67 465.89
168 0 49.0371 15.0498 738 131.435 1262.49 469.168
169 0 51.0885 14.8957 761 135.912 1263.71 465.859
170 0 51.1963 14.1807 726 137.999 1264.73 466.302
171 0 54.2171 15.6962 851 134.49 1264.81 466.099
172 0 52.3476 10.9269 572 143.509 1265.41 468.205
173 0 55.2177 14.47 799 137.751 1266.78 468.153
174 0 55.1603 12.6903 700 142.089 1266.34 465.376
175 0 58.4672 11.6305 680 141.694 1265.31 470.104
176 0 63.4444 17.2119 1092 130.616 1264.6 470.359
177 0 63.2964 15.5459 984 136.862 1264.22 467.396
178 0 64.3058 14.3999 926 139.514 1263.3 467.021
179 0 67.3555 16.8509 1135 135.279 1262.64 466.008
180 0 69.4338 13.4805 936 142.301 1261.7 466.554
181 0 71.3037 17.4044 1241 135.572 1260.94 461.932
182 0 72.1984 15.3604 1109 144.271 1259.37 459.32
183 0 74.3246 12.4589 926 148.198 1258.06 462.673
184 0 75.4 12.8117 966 148.69 1256.93 460.163
185 0 78.5225 14.5691 1144 145.773 1255.66 457.044
186 0 82.5726 12.9825 1072 147.503 1254.98 453.349
187 0 82.4528 12.4314 1025 148.346 1254 456.028
188 0 85.4303 14.0934 1204 145.586 1253.77 451.018
189 0 88.49 13.9225 1232 145.221 1252.45 447.074
190 1 44.1702 9.53131 421 144.01 1252.66 463.143
191 0 49.2671 11.9146 587 135.986 1252.4 463.288
192 0 50.1487 11.0073 552 138.004 1252.06 461.187
193 0 52.1353 13.7143 715 134.076 1252.3 468.19
194 0 52.0968 14.2235 741 136.628 1252.47 462.47
195 0 55.1289 14.33 790 135.671 1253.31 463.628
196 0 58.2276 13.9281 811 136.747 1253.95 459.671
197 0 59.2151 13.375 792 139.087 1255.53 459.773
198 0 59.1988 11.7908 698 142.96 1256.68 459.036
199 0 61.3927 15.8325 972 136.751 1257.97 456.261
200 0 62.1931 13.6832 851 141.018 1260.38 453.597
201 0 65.1809 13.2861 866 140.128 1262.78 455.189
202 0 66.1584 14.5862 965 137.359 1263.62 457.101
203 0 66.1584 14.7525 976 132.185 1264.63 457.112
204 0 78.451 15.9463 1251 129.656 1266.92 460.852
205 0 76.1185 17.1312 1304 131.028 1267.33 458.338
206 0 77.3376 17.2232 1332 132.611 1267.04 455.61
207 0 81.3962 18.539 1509 128.614 1267 458.603
208 1 43.0658 11.7262 505 135.842 1266.66 474.21
209 0 44.0478 14.2572 628 132.787 1267.63 472.791
210 0 45.0633 10.2966 464 139.114 1267.43 474.703
211 0 46.0719 11.8076 544 137.608 1267.08 474.809
212 0 47.0253 9.56931 450 141.264 1265.92 474.747
213 0 50.3846 15.6794 790 130.059 1261.43 473.486
214 0 51.0577 14.3171 731 132.591 1263.33 472.955
215 0 52.1238 14.9644 780 134.265 1258.29 474.885
216 0 54.1374 13.9645 756 136.919 1257.28 474.622
217 0 56.0762 14.9796 840 136.304 1255.49 471.261
218 0 58.0809 15.84 920 135.39 1254.68 470.362
219 0 60.0668 14.7003 883 136.148 1253.15 469.119
220 0 59.1619 14.0969 834 138.502 1252.31 467.576
221 0 61.0999 10.4419 638 146.033 1250.76 467.68
222 0 65.111 12.1485 791 141.785 1250.64 467.31
223 0 69.3064 14.7172 1020 137.953 1252.66 461.87
224 0 69.2108 12.7003 879 143.187 1251.44 461.237
225 0 71.2557 12.2236 871 145.633 1251.73 455.994
226 0 75.3233 14.7099 1108 139.977 1251.29 455.266
227 0 75.3544 13.3901 1009 144.964 1251.62 450.558
228 1 43.0701 11.7251 505 139.061 1253.42 470.014
229 0 45.093 11.2434 507 140.446 1254.05 470.278
230 0 43.1123 9.97395 430 146.967 1255.25 467.67
231 0 48.0778 11.6894 562 138.877 1256.36 469.141
232 0 46.0407 11.9242 549 144.056 1257.89 463.849
233 0 50.0411 13.6887 685 140.044 1260.2 463.705
234 0 52.108 13.2417 690 140.859 1262.01 465.317
235 0 53.0317 13.9728 741 137.058 1263.79 466.097
236 0 54.0227 12.032 650 142.272 1265.69 466.514
237 0 56.1179 13.9884 785 138.875 1266.73 466.136
238 0 57.1466 12.1267 693 145.104 1267.67 464.543
239 0 59.0721 16.099 951 135.53 1267.85 466.902
240 0 60.0712 16.4971 991 140.903 1268.68 464.43
241 0 59.0892 13.6065 804 147.897 1268.03 465.641
242 0 64.3343 14.8443 955 143.942 1267.77 468.184
243 0 61.0972 11.0971 678 153.968 1267.43 464.624
244 0 68.1744 13.6415 930 146.204 1265.91 469.135
245 0 71.1205 17.4492 1241 138.729 1265.58 467.254
246 0 73.2068 11.9388 874 148.796 1263.74 467.446
247 0 74.1561 13.7143 1017 146.573 1263.09 465.415
248 0 77.1105 13.565 1046 147.691 1261.93 464.645
249 1 43.1674 12.3473 533 134.199 1260.9 485.114
250 0 46.1068 11.3649 524 142.96 1260.16 480.252
251 0 45.1827 12.0179 543 142.619 1258.65 480.107
252 0 45.0647 11.8053 532 149.506 1258.45 473.902
253 0 47.0734 13.0222 613 143.703 1256.57 475.718
254 0 49.1719 13.6867 673 145.232 1255.01 474.227
255 0 51.0989 14.3643 734 141.142 1254.17 470.941
256 0 53.3087 16.0199 854 136.807 1253.76 468.64
257 0 55.299 14.2136 786 140.184 1253.24 470.538
258 0 57.1416 21.333 1219 127.516 1252.9 466.931
259 0 60.2832 18.496 1115 133.782 1251.94 463.728
260 0 59.2939 14.3185 849 145.753 1251.81 461.839
261 0 60.2484 15.3199 923 143.215 1251.89 461.351
262 0 64.289 16.2392 1044 138.78 1252.76 462.462
263 0 65.1207 16.5539 1078 140.617 1253.31 457.646
264 0 65.1857 15.2334 993 144.434 1254.36 458.823
265 0 69.239 18.3278 1269 137.127 1256.44 457.095
266 0 73.1851 17.3259 1268 139.898 1258.43 456.524
267 0 73.3874 14.2531 1046 146.782 1259.91 456.478
268 0 76.3536 15.3758 1174 143.63 1261.83 453.9
269 0 81.1368 19.3007 1566 134.211 1263.59 454.912
270 0 82.4821 15.7246 1297 143.201 1264.86 454.2
271 1 48.0794 15.9944 769 139.511 1266.78 471.919
272 0 45.0406 11.4785 517 149.329 1267.59 471.42
273 0 48.0675 10.6309 511 151.002 1267.71 472.292
274 0 52.0674 15.864 826 140.329 1267.51 471.016
275 0 52.0306 14.4915 754 143.944 1267.32 471.2
276 0 55.3833 15.3295 849 141.786 1263.21 469.078
277 0 54.1103 15.9674 864 142.382 1261.86 470.422
278 0 54.1472 12.8169 694 152.736 1260.85 472.102
279 0 57.0562 13.9862 798 147.966 1260.33 474.273
280 0 58.0334 14.2676 828 148.165 1259.51 473.446
281 0 61.0259 16.452 1004 144.259 1257.7 471.722
282 0 63.026 18.1512 1144 143.006 1256.9 470.179
283 0 64.0593 12.1606 779 152.177 1255.32 472.659
284 0 66.0786 16.662 1101 144.755 1254.27 470.113
285 0 68.1298 16.9089 1152 148.099 1252.85 463.847
286 0 68.1298 16.9383 1154 145.641 1251.9 463.944
287 0 74.1223 17.8489 1323 145.595 1250.45 463.76
288 0 76.0931 14.3246 1090 154.436 1248.98 460.616
289 0 78.107 16.3494 1277 148.76 1247.43 462.656
290 0 81.1123 18.4929 1500 147.368 1246.9 457.519
291 0 84.1337 16.9611 1427 151.982 1246.37 453.331
292 1 41.0145 12.2883 504 153.696 1245.83 474.669
293 0 44.0171 14.0627 619 149.309 1245.99 473.633
294 0 48.0566 12.4645 599 152.058 1246.37 473.104
295 0 47.051 13.241 623 152.284 1246.88 469.188
296 0 50.1958 16.854 846 144.742 1248.76 470.76
297 0 50.1232 12.2299 613 160.268 1250.18 466.742
298 0 51.1887 17.289 885 150.602 1251.5 467.024
299 0 53.1121 13.9893 743 157.629 1252.85 466.734
300 0 55.0656 16.5802 913 151.693 1255.5 466.056
301 0 55.0656 16.5621 912 145.409 1258.51 466.068
302 0 58.0906 16.7325 972 153.141 1257.99 463.234
303 0 57.2841 14.6638 840 158.511 1260.98 463.918
304 0 63.076 18.0893 1141 146.641 1261.42 464.517
305 0 63.0901 14.7725 932 156.246 1261.78 463.867
306 0 68.1326 16.4239 1119 151.169 1262.77 463.349
307 0 68.1956 15.8368 1080 153.837 1263.25 463.939
308 0 72.1569 16.6859 1204 151.373 1262.38 463.873
309 0 74.2082 15.9282 1182 154.261 1262.22 463.393
310 0 75.1303 15.706 1180 156.994 1261.71 462.424
311 0 81.1873 18.1309 1472 150.965 1261.26 461.906
312 1 39.0615 9.60025 375 164.245 1260.18 482.048
313 0 42.0569 11.4607 482 155.442 1258.8 484.046
314 0 43.0182 14.8309 638 152.806 1257.5 480.428
315 0 45.0811 16.2596 733 149.012 1256.4 480.917
316 0 46.1152 11.7098 540 159.454 1255.43 479.881
317 0 47.1462 15.9928 754 151.395 1256.45 478.037
318 0 48.1585 11.7529 566 151.097 1255.05 475.943
319 0 46.1502 12.221 564 154.199 1254.25 473.72
320 0 47.0344 11.3959 536 161.739 1250.69 475.989
321 0 50.0184 15.0345 752 152.044 1250.03 473.414
322 0 54.0927 15.0483 814 149.676 1248.61 472.638
323 0 54.0335 15.2498 824 150.155 1248.98 473.235
324 0 55.1228 13.6241 751 152.905 1249.81 470.236
325 0 55.0413 14.3347 789 152.876 1251.03 464.445
326 0 60.1078 15.5886 937 147.564 1251.51 465.057
327 0 61.1052 14.5978 892 151.459 1252.07 462.439
328 0 63.1247 15.81 998 146.487 1251.09 463.729
329 0 64.0849 14.6992 942 149.683 1250.65 460.714
330 0 65.0552 12.3126 801 154.77 1252.78 461.442
331 0 66.1078 12.6763 838 155.51 1253.64 457.436
332 0 71.1462 14.7021 1046 148.875 1255.42 458.559
333 0 74.0598 16.3247 1209 145.767 1257.27 455.351
334 0 76.1791 15.306 1166 148.19 1259.52 456.722
335 0 78.1293 15.1928 1187 148.37 1262.01 454.186
336 0 79.1506 14.1502 1120 151.641 1263.18 452.848
337 1 41.0259 13.9181 571 146.492 1264.08 475.48
338 0 46.0618 14.0029 645 145.567 1265.12 475.057
339 0 44.0794 11.207 494 152.52 1265.42 475.348
340 0 45.0549 11.7856 531 151.9 1266.82 475.286
341 0 45.1296 13.0291 588 149.09 1266.31 476.022
342 0 50.0903 14.7733 740 145.257 1265.3 472.501
343 0 51.0303 13.3254 680 148.166 1264.1 473.49
344 0 54.0255 12.5126 676 146.604 1260.91 477.351
345 0 57.1659 15.7437 900 139.26 1260.4 476.591
346 0 57.1206 16.4214 938 140.842 1261.8 474.081
347 0 58.0972 17.333 1007 139.561 1260.66 472.44
348 0 61.1694 14.2391 871 145.537 1258.7 472.646
349 0 62.2422 13.817 860 146.68 1258.82 470.321
350 0 66.2568 12.527 830 148.486 1257.46 469.007
351 0 68.216 14.9672 1021 144.131 1256.09 466.913
352 0 67.228 15.1871 1021 134.805 1254.1 466.969
353 0 73.251 15.1943 1113 143.694 1253.6 463.949
354 0 71.2555 13.206 941 150.739 1252.65 460.508
355 0 76.2663 13.1251 1001 149.049 1252.26 464.051
356 0 82.2276 16.88 1388 140.708 1252.06 461.324
357 0 83.3352 15.5516 1296 145.405 1250.31 454.358
358 1 43.0405 8.87536 382 152.754 1251.53 476.283
359 0 44.1275 10.8549 479 149.729 1251.22 475.772
360 0 46.066 12.2867 566 149.353 1251.76 472.924
361 0 45.0387 9.70277 437 156.169 1251.9 471.888
362 0 46.0489 13.0513 601 150.201 1252.57 469.268
363 0 47.1398 13.8948 655 148.379 1250.07 466.125
364 0 52.0835 15.2255 793 146.055 1249.7 466.876
365 0 54.0215 15.4568 835 145.818 1251.96 466.988
366 0 53.0565 14.6259 776 149.941 1253.71 465.175
367 0 56.0991 15.5796 874 146.735 1255.86 466.914
368 0 58.0618 15.9485 926 146.571 1258.37 464.087
369 0 60.0281 16.2924 978 145.492 1259.67 463.559
370 0 63.1025 18.2719 1153 140.329 1260.44 464.981
371 0 66.0644 18.1489 1199 140.839 1262.34 464.054
372 0 66.0429 18.6545 1232 139.259 1262.19 467.752
373 0 66.0429 18.5637 1226 132.529 1262.19 467.702
374 0 72.1411 15.4697 1116 149.014 1261.4 462.33
375 0 73.2172 15.5701 1140 149.976 1260.99 461.677
376 0 78.3309 16.558 1297 145.231 1261.27 463.926
377 0 79.1852 15.3564 1216 150.448 1260.87 460.721
378 1 42.0527 11.9612 503 149.167 1259.57 480.626
379 0 43.0997 12.1347 523 144.164 1258.13 483.948
380 0 46.2624 10.7431 497 151.479 1257.73 480.682
381 0 44.0463 11.3971 502 148.936 1256.82 482.028
382 0 46.1861 15.4159 712 143.975 1255.54 477.768
383 0 46.0565 14.2434 656 147.569 1254.55 476.963
384 0 48.0262 13.2428 636 149.914 1253.03 474.013
385 0 51.1244 14.5332 743 146.361 1252.32 475.326
386 0 49.2775 13.9617 688 147.423 1253.12 472.974
387 0 53.3401 13.967 745 144.534 1250.25 474.203
388 0 54.211 13.263 719 146.3 1249.87 471.446
389 0 54.2333 14.2901 775 145.249 1249.56 468.665
390 0 57.2551 13.8328 792 145.247 1248.39 469.13
391 0 60.1924 14.6862 884 142.672 1248.53 468.588
392 0 63.2319 15.6725 991 141.863 1248.03 466.205
393 0 66.1892 13.6578 904 146.177 1247.7 463.262
394 0 67.3135 13.8754 934 146.684 1248.53 463.084
395 0 67.3212 13.8887 935 145.441 1248.53 463.188
396 0 71.168 16.2151 1154 140.782 1250.05 460.505
397 0 73.2794 15.8571 1162 142.388 1251.67 458.327
398 1 40.0941 14.1667 568 138.757 1251.23 475.377
399 0 43.056 10.916 470 145.996 1252.84 474.519
400 0 43.056 10.8696 468 153.229 1253.84 474.374
401 0 44.1958 13.9606 617 139.209 1255.9 475.138
402 0 47.1757 12.6336 596 145.564 1257.47 470.424
