index division length width area intensity CMx CMy
0 0 74.2725 14.2583 1059 144.917 1065.48 469.789
1 0 76.1172 14.5696 1109 151.197 1066.22 469.196
2 0 80.1949 14.1405 1134 152.456 1067.11 466.409
3 0 82.308 14.3607 1182 147.16 1066.17 464.994
4 0 85.3822 14.0779 1202 156.065 1065.77 462.686
5 0 89.221 14.0662 1255 153.077 1065.44 460.317
6 0 91.227 14.2721 1302 152.87 1065.19 459.033
7 0 95.1941 14.024 1335 156.073 1065.2 458.053
8 0 98.1576 14.273 1401 160.06 1065.4 457.058
9 1 52.1567 13.191 688 158.512 1065.92 477.929
10 0 53.0827 13.187 700 159.639 1065.78 477.387
11 0 55.0837 13.6157 750 159.108 1065.67 477.685
12 0 56.1496 13.7312 771 159.313 1066.46 476.15
13 0 60.1165 13.4406 808 160.578 1067.38 474.056
14 0 62.0765 13.5961 844 160.927 1068.2 472.777
15 0 62.0565 13.9067 863 157.968 1068.94 471.1
16 0 66.164 13.4212 888 156.423 1069.45 469.307
17 0 67.0854 13.9077 933 148.144 1070.76 468.815
18 0 70.1025 13.9225 976 151.728 1071.58 467.503
19 0 72.0989 13.7173 989 144.025 1072.36 465.008
20 0 76.2431 13.4963 1029 151.805 1073 463.634
21 0 76.1537 13.9323 1061 151.767 1073.34 462.363
22 0 80.1489 13.6246 1092 148.766 1073.96 461.08
23 0 85.1783 13.2311 1127 152.5 1074.32 458.784
24 0 86.1057 13.8434 1192 150.617 1075.08 457.471
25 0 89.2256 13.4491 1200 151.188 1075.2 456.511
26 0 93.0846 13.5038 1257 146.55 1074.87 454.949
27 0 95.0811 13.8303 1315 152.662 1075 452.536
28 1 51.1558 12.4326 636 147.398 1075.01 473.788
29 0 53.083 12.9985 690 149.509 1074.9 473.197
30 0 55.1105 12.6473 697 150.402 1074.72 472.321
31 0 56.0495 12.6852 711 149.298 1074.64 471.954
32 0 58.3692 13.0034 759 146.735 1073.73 470.008
33 0 60.0601 13.0869 786 145.655 1073.01 469.355
34 0 64.1667 12.9351 830 145.475 1072.61 468.605
35 0 66.0786 13.3629 883 140.719 1072.06 466.625
36 0 68.1053 13.4791 918 137.587 1071.55 465.389
37 0 71.2148 13.4382 957 139.446 1070.99 464.127
38 0 72.2325 13.7473 993 147.496 1070.89 462.17
39 0 75.1063 13.6606 1026 141.137 1070.6 459.848
40 0 78.0981 13.6495 1066 145.402 1069.87 458.726
41 0 82.176 14.043 1154 146.242 1069.42 456.962
42 0 85.0772 13.952 1187 139.077 1069.2 454.897
43 0 88.1621 13.4638 1187 148.905 1069.13 453.615
44 0 91.1659 13.5906 1239 149.361 1069.45 451.988
45 0 94.1453 13.203 1243 140.122 1069.09 450.677
46 0 97.1142 13.6437 1325 142.639 1069.79 448.123
47 1 53.0759 11.964 635 140.835 1069.88 471.995
48 0 54.1384 12.7636 691 143.245 1069.3 470.564
49 0 57.1465 12.3892 708 146.634 1068.54 470.571
50 0 57.1757 12.6277 722 145.109 1069.23 469.92
51 0 57.3325 12.8548 737 145.251 1069.3 469.526
52 0 59.2643 13.5495 803 138.762 1069.7 468.573
53 0 62.4029 13.4609 840 141.724 1069.94 467.604
54 0 64.1799 13.1661 845 143.124 1069.67 466.449
55 0 66.1769 13.3128 881 135.706 1070.27 465.894
56 0 68.1502 13.4409 916 145.894 1070.62 464.925
57 0 70.1907 13.4206 942 142.908 1070.61 463.688
58 0 73.1712 13.1199 960 143.181 1070.64 463.643
59 0 74.1934 13.6131 1010 146.395 1070.06 462.272
60 0 77.1868 13.6552 1054 140.861 1070.66 460.647
61 0 79.1823 13.6268 1079 152.221 1071.41 459.14
62 0 82.1503 13.6335 1120 147.143 1071.5 456.996
63 0 85.3133 13.6907 1168 150.765 1071.38 454.598
64 0 87.0989 13.7774 1200 153.161 1072 453.955
65 0 91.2932 13.5607 1238 151.471 1072.04 452.863
66 0 94.17 13.6243 1283 149.874 1071.92 450.344
67 0 98.2779 13.5432 1331 151.693 1071.96 448.712
68 1 50.1313 11.3103 567 143.942 1072.67 473.887
69 0 51.1764 11.9586 612 150.941 1072.67 472.209
70 0 53.2192 12.1948 649 149.564 1072.87 472.294
71 0 54.1791 12.0711 654 153.353 1072.52 471.869
72 0 58.3256 12.1388 708 150.825 1072.69 470.897
73 0 57.2476 12.7516 730 152.953 1071.63 469.329
74 0 60.251 12.5807 758 140.289 1071.68 467.743
75 0 62.2971 12.5527 782 143.014 1071.96 466.907
76 0 66.2121 12.1579 805 143.576 1071.57 466.409
77 0 67.145 12.7336 855 144.118 1071.2 464.508
78 0 68.1781 12.6727 864 140.381 1071.46 463.645
79 0 71.1209 12.4858 888 146.922 1071 462.416
80 0 74.1257 12.8026 949 138.06 1070.7 462.018
81 0 75.2871 12.9371 974 143.068 1070.43 460.147
82 0 76.2644 13.0205 993 146.515 1069.91 458.684
83 0 81.343 12.9944 1057 147.958 1070.34 457.096
84 0 84.2323 12.7742 1076 150.994 1069.83 456.74
85 1 44.1629 11.2764 498 142.938 1069.67 475.141
86 0 45.0913 11.9535 539 150.455 1069.62 474.327
87 0 47.2367 12.5538 593 153.099 1069.32 474.648
88 0 48.186 12.5763 606 155.609 1069.52 473.601
89 0 50.1713 12.6168 633 158.21 1069.15 472.537
90 0 50.1442 13.4412 674 144.631 1068.89 472.408
91 0 51.1568 13.2338 677 154.823 1068.89 471.561
92 0 54.2299 12.6314 685 156.939 1068.58 470.55
93 0 54.4514 13.6819 745 151.138 1069.57 469.875
94 0 58.4589 12.7953 748 153.824 1069.89 469.469
95 0 58.2463 13.6146 793 146.286 1070.09 468.816
96 0 60.4669 13.2304 800 143.32 1069.84 467.311
97 0 61.5298 13.7494 846 143.278 1069.62 466.636
98 0 64.4552 13.3581 861 149.087 1069.42 465.61
99 0 65.2349 13.7196 895 150.028 1069.94 465.074
100 0 67.5847 13.6125 920 149.876 1069.59 464.273
101 0 70.5807 13.4598 950 150.895 1069.96 463.395
102 0 73.1496 13.9577 1021 150.716 1069.62 462.38
103 0 74.381 13.9014 1034 148.98 1069.78 460.914
104 0 76.6302 13.9893 1072 148.639 1070 457.994
105 0 80.5852 13.6626 1101 143.207 1069.89 457.664
106 0 81.3994 13.5013 1099 147.443 1069.85 456.731
107 0 84.4284 14 1182 147.651 1070.49 455.958
108 0 88.4606 13.8819 1228 145.483 1070.39 454.104
109 1 47.2713 11.635 550 147.136 1070.17 475.942
110 0 50.1798 12.0567 605 149.223 1070.24 474.112
111 0 51.158 12.5103 640 151.375 1069.61 472.748
112 0 51.1028 12.9934 664 145.258 1069.3 472.038
113 0 52.1249 13.0072 678 147.633 1069.42 471.134
114 0 55.0708 13.2738 731 140.369 1068.78 469.728
115 0 56.1349 13.2182 742 140.795 1069.2 469.615
116 0 58.0767 12.8451 746 140.885 1068.97 469.267
117 0 60.1033 12.6782 762 138.82 1068.67 468.377
118 0 62.1563 13.1604 818 144.746 1069.4 467.601
119 0 63.0824 13.3476 842 137.765 1069.27 466.018
120 0 66.248 13.1023 868 139.781 1069.19 465.437
121 0 67.0549 13.3175 893 139.288 1069.27 464.506
122 0 70.1496 13.2859 932 138.45 1070.4 462.406
123 0 72.0657 13.3906 965 139.473 1070.17 460.984
124 0 76.1265 13.2937 1012 143.895 1070.42 460.465
125 0 77.132 13.4445 1037 140.959 1071.07 459.454
126 0 79.1363 13.6726 1082 136.117 1070.99 457.357
127 0 82.0972 13.4718 1106 132.142 1071.03 455.614
128 0 84.197 13.7535 1158 138.611 1071.34 454.1
129 0 88.141 13.7393 1211 143.494 1070.54 452.893
130 1 47.1586 11.6628 550 143.705 1070.28 473.013
131 0 47.2363 11.8976 562 143.667 1070.82 472.568
132 0 50.216 12.4064 623 149.411 1071.01 472.029
133 0 51.3302 13.1696 676 145.692 1070.92 470.343
134 0 50.1754 13.8713 696 147.667 1070.76 469.898
135 0 54.1976 13.2663 719 154.519 1070.99 469.47
136 0 57.2792 13.216 757 154.725 1070.96 469.25
137 0 57.3398 13.6554 783 151.865 1070.54 467.762
138 0 59.2181 13.5769 804 147.257 1071.02 466.637
139 0 60.3484 14.118 852 149.119 1071.4 465.147
140 0 64.3574 13.5027 869 145.703 1071.83 464.161
141 0 65.1619 13.8731 904 152.185 1071.68 462.49
142 0 68.3111 13.702 936 147.012 1072.23 461.739
143 0 71.2829 13.4254 957 155.253 1072.75 461.917
144 0 72.3321 13.5625 981 146.677 1072.65 460.576
145 0 75.4756 13.9913 1056 150.437 1073.11 458.456
146 0 78.3832 13.9443 1093 155.193 1073.61 457.124
147 0 79.3768 14.0343 1114 149.232 1073.62 455.553
148 0 83.4968 14.0724 1175 150.006 1073.48 453.681
149 0 86.3181 14.1222 1219 143.278 1073.5 451.082
150 0 89.1692 13.8613 1236 150.865 1073.72 449.657
151 0 92.2674 14.0786 1299 148.498 1073.92 447.965
152 1 45.1533 12.5794 568 149.754 1074.02 471.912
153 0 46.3018 12.2673 568 147.257 1074.18 470.636
154 0 49.1045 13.0945 643 136.966 1074.38 469.488
155 0 50.218 13.6007 683 149.627 1074.7 468.958
156 0 51.1953 13.7903 706 142.972 1075.17 468.152
157 0 53.2295 13.47 717 151.925 1074.92 467.439
158 0 55.2892 13.3299 737 149.559 1076.17 465.848
159 0 55.1558 13.8698 765 148.515 1076.1 464.587
160 0 56.1987 14.0217 788 151.78 1075.54 463.138
161 0 61.1991 14.1342 865 145.187 1075.3 462.369
162 0 61.3929 14.2525 875 153.499 1075.37 460.352
163 0 64.4679 14.0225 904 149.046 1075.78 459.132
164 0 65.2783 14.262 931 146.74 1075.71 459.638
165 0 68.4622 14.0077 959 154.011 1075.53 457.602
166 0 71.4384 14.306 1022 150.309 1076.07 456.709
167 0 71.4351 14.2787 1020 145.942 1076.32 455.658
168 0 73.3811 14.2952 1049 157.15 1076.86 453.483
169 0 77.3796 14.4095 1115 154.374 1076.79 452.616
170 0 78.5239 14.5433 1142 156.609 1076.89 450.115
171 0 84.3992 14.1115 1191 155.99 1077.02 448.238
172 0 86.5337 14.1448 1224 155.362 1077.14 447.834
173 0 90.6452 14.1431 1282 158.657 1076.72 446.58
174 0 93.4953 14.4927 1355 152.854 1077.02 444.808
175 0 96.3816 14.0898 1358 156.967 1077.3 443.846
176 1 48.3674 13.232 640 166.2 1076.36 466.728
177 0 49.3123 13.8505 683 168.801 1077.13 467.057
178 0 50.3254 13.9691 703 164.257 1077.37 464.943
179 0 52.3095 13.9172 728 161.468 1077.06 464.402
180 0 54.2881 13.981 759 163.339 1077.27 463.231
181 0 57.3941 14.0258 805 168.198 1077.2 461.842
182 0 57.2883 14.2961 819 167.665 1077.63 460.871
183 0 61.4828 13.825 850 167.335 1077.91 459.804
184 0 62.461 14.0568 878 168.714 1077.73 458.899
185 0 66.4402 13.7718 915 164.138 1078.06 457.205
186 0 67.3756 13.8329 932 166.469 1077.65 457.137
187 0 69.5076 13.9697 971 170.738 1077.41 455.492
188 0 72.2174 14.2348 1028 171.879 1077.14 454.489
189 0 75.2446 13.8747 1044 165.301 1077.38 452.72
190 0 77.5621 13.8856 1077 166.09 1077.24 451.987
191 0 80.4019 13.8927 1117 164.201 1077.09 450.324
192 0 83.3705 13.6859 1141 168.59 1076.93 448.773
193 0 87.4889 13.5903 1189 162.887 1076.91 445.993
194 1 40.365 11.8419 478 162.808 1077.26 468.211
195 0 41.3084 12.7577 527 162.228 1076.91 468.184
196 0 43.2413 12.7887 553 165.512 1076.97 466.866
197 0 44.1621 13.2467 585 164.689 1076.51 466.904
198 0 45.3031 12.9792 588 167.76 1076.29 466.129
199 0 46.2572 12.8413 594 161.958 1076.71 465.547
200 0 48.2678 12.9279 624 167.167 1076.17 464.582
201 0 49.424 13.455 665 161.089 1076.08 463.626
202 0 50.5263 13.6365 689 159.524 1076.11 461.028
203 0 53.4386 13.5857 726 159.211 1076.84 459.285
204 0 55.291 13.3837 740 167.18 1076.76 458.12
205 0 55.4759 14.1323 784 158.622 1076.94 457.967
206 0 57.5783 13.6857 788 160.76 1076.3 457.439
207 0 60.4733 13.6093 823 159.622 1076.48 455.196
208 0 63.4856 13.4834 856 165.463 1076.34 455.238
209 0 65.5589 13.5603 889 163.623 1075.58 453.362
210 0 67.434 13.8061 931 159.618 1075.38 452.531
211 0 70.3859 13.7528 968 162.712 1075.41 450.491
212 0 73.6154 13.4347 989 159.74 1075.34 450.319
213 0 75.6366 13.6178 1030 168.066 1075.81 449.303
214 0 75.6088 13.8608 1048 165.331 1075.26 448.961
215 0 79.5357 13.8554 1102 169.353 1075.27 447.331
216 0 83.6008 13.7678 1151 167.236 1074.93 445.745
217 0 86.3885 13.9602 1206 166.304 1074.61 446.725
218 1 44.1435 11.961 528 166.915 1074.29 467.633
219 0 47.1567 12.3206 581 158.997 1074.55 466.923
220 0 49.1487 12.3096 605 162.706 1074.2 465.745
221 0 51.2177 12.0076 615 160.899 1073.98 465.38
222 0 51.1497 12.4341 636 165.314 1074.26 464.739
223 0 54.2044 12.5082 678 160.906 1074.4 463.566
224 0 55.224 12.5489 693 168.046 1074.66 463.137
225 0 57.2066 12.3412 706 163.125 1074.3 462.378
226 0 59.3378 12.4036 736 160.443 1074.73 462.152
227 0 60.2309 12.6181 760 156.9 1074.72 461.271
228 0 62.1666 12.6756 788 160.187 1074.7 460.378
229 0 64.1484 12.627 810 171.168 1074.87 460.02
230 0 66.155 12.7277 842 160.082 1075.4 458.637
231 0 68.1345 12.6808 864 167.347 1074.62 457.522
232 0 68.228 12.9272 882 166.254 1074.63 456.481
233 0 68.228 12.9272 882 168.32 1074.63 456.481
234 0 73.2414 12.6295 925 165.542 1074.97 454.837
235 0 78.2277 12.8727 1007 168.872 1075.08 452.765
236 0 79.2432 12.7077 1007 161.585 1075.24 451.311
237 0 83.151 12.4112 1032 156.957 1076.04 449.762
238 0 85.1922 12.4307 1059 168.331 1075.23 448.257
239 1 45.1409 10.9435 494 159.626 1075.85 469.613
240 0 45.0983 11.9517 539 157.84 1075.66 468.427
241 0 45.0825 11.9337 538 150.636 1075.23 468.037
242 0 47.0817 11.7031 551 151.358 1075.11 467.51
243 0 48.0934 11.8935 572 155.629 1075.39 466.374
244 0 49.0927 12.2421 601 151.694 1075.04 466.151
245 0 50.1488 11.9644 600 154.66 1075 465.202
246 0 53.1076 12.3146 654 153.235 1075.03 464.35
247 0 56.0513 11.6857 655 154.962 1074.84 463.053
248 0 56.1146 12.1181 680 152.918 1075.01 463.541
249 0 57.0778 12.2464 699 150.391 1074.87 462.888
250 0 58.1383 12.7799 743 146.086 1074.48 461.573
251 0 60.2148 12.4222 748 156.574 1075.02 460.968
252 0 64.2793 12.1034 778 152.405 1075.19 459.434
253 0 65.2276 12.4947 815 150.859 1075.31 458.389
254 0 66.0705 12.6683 837 153.95 1075.09 456.515
255 0 68.1202 12.5367 854 152.966 1075.49 456.773
256 0 73.138 12.4969 914 152.298 1075.3 455.067
257 0 75.1748 12.4776 938 149.829 1075.24 452.978
258 0 78.2178 12.4652 975 153.31 1075.75 452.298
259 0 79.1572 12.6584 1002 156.337 1075.98 450.741
260 0 83.2628 12.8028 1066 153.158 1076.45 448.207
261 0 85.2344 12.9877 1107 155.893 1077.01 448.115
262 0 88.2075 13.0261 1149 146.62 1077.11 445.772
263 0 93.2398 12.2802 1145 152.23 1077.48 444.783
264 0 95.1768 12.6501 1204 151.229 1077.25 443.559
265 1 53.0338 11.4078 605 155.01 1076.47 464.648
266 0 56.0791 11.7691 660 153.294 1076.5 462.206
267 0 58.114 11.5979 674 146.282 1075.87 462.031
268 0 59.205 11.7895 698 154.861 1077.36 460.513
269 0 61.2488 12.0982 741 154.777 1077.71 459.788
270 0 62.1417 12.3106 765 153.118 1078.5 459.451
271 0 65.1531 12.0332 784 151.126 1078.42 457.767
272 0 70.197 11.8524 832 145.168 1078.42 456.43
273 0 72.1596 12.2922 887 146.179 1078.43 453.732
274 0 72.3319 12.3459 893 141.719 1078.39 451.394
275 0 76.1145 12.2579 933 147.746 1078.7 451.361
276 0 78.1709 12.639 988 150.777 1077.95 449.496
277 0 81.354 12.4886 1016 148.96 1077.58 447.208
278 0 83.2689 12.6818 1056 152.299 1077.44 446.458
279 0 85.2325 12.8003 1091 146.689 1077.82 444.573
280 0 90.4223 12.4527 1126 158.863 1077.85 442.368
281 0 94.2196 12.11 1141 153.188 1078.56 441.684
282 1 49.0228 11.5252 565 155.66 1079.17 462.434
283 0 53.0879 11.7918 626 155.324 1079.14 461.021
284 0 56.1044 11.7994 662 157.039 1078.35 460.76
285 0 57.238 11.8977 681 150.088 1078.06 461.031
286 0 58.3053 11.9372 696 153.057 1078.3 459.397
287 0 60.1378 11.8561 713 156.832 1077.84 458.464
288 0 61.2617 12.0793 740 152.377 1078.07 457.469
289 0 64.4507 12.0557 777 160.546 1078.03 456.203
290 0 65.2256 12.5871 821 148.421 1077.24 455.343
291 0 68.3751 12.1974 834 156.811 1077.72 454.938
292 0 69.415 12.4181 862 163.582 1077.99 453.204
293 0 72.4559 12.2419 887 162.965 1077.38 452.005
294 0 73.4379 13.0042 955 156.123 1077.82 450.503
295 0 77.4931 12.7495 988 156.61 1077.74 449.593
296 0 79.4606 12.4842 992 161.556 1077.54 447.823
297 0 81.5062 13.0665 1065 162.346 1077.2 446.609
298 0 86.5458 13.022 1127 158.848 1076.9 443.699
299 0 89.3595 13.0484 1166 161.413 1076.57 441.781
300 1 46.4566 11.6022 539 163.831 1076.63 461.234
301 0 48.3046 11.945 577 158.101 1077.82 464.137
302 0 50.1089 12.5527 629 159.024 1077.54 463.693
303 0 53.1753 12.2989 654 162.355 1077.41 461.829
304 0 53.3653 12.6674 676 160.703 1077.32 460.476
305 0 55.1624 12.5267 691 158.216 1077.33 460.508
306 0 57.1418 12.5652 718 152.401 1076.9 459.969
307 0 58.2478 12.67 738 151.94 1076.76 459.47
308 0 60.1284 12.5731 756 151.648 1076.59 458.521
309 0 62.4126 12.4815 779 151.444 1075.97 456.7
310 0 63.2756 12.9434 819 155.433 1075.7 456.332
311 0 64.1338 12.6454 811 148.414 1075.79 457.122
312 0 67.2869 12.8108 862 148.965 1075.75 456.123
313 0 70.2551 12.9386 909 146.637 1075.9 453.87
314 0 70.4669 13.3254 939 150.898 1075.84 453.633
315 0 75.4441 12.7379 961 143.139 1075.19 451.916
316 0 75.739 12.9128 978 139.959 1075.04 452.033
317 0 79.4619 12.9748 1031 150.747 1074.94 449.885
318 0 81.4423 12.8434 1046 149.567 1075.54 448.271
319 0 82.4877 13.3717 1103 80.8024 1075.06 447.23
320 0 85.7027 13.3485 1144 151.715 1075.64 445.792
321 0 88.7406 13.162 1168 142.066 1075.5 446.637
322 0 93.5255 13.0125 1217 141.736 1075.61 445.259
323 0 96.3582 13.0866 1261 149.285 1075.65 443.81
324 0 99.7749 13.1396 1311 150.042 1075.02 440.927
325 0 103.598 13.2049 1368 162.271 1075.2 438.372
326 0 106.276 13.5119 1436 161.383 1075.13 437.124
327 1 57.1493 12.1611 695 157.21 1075.05 461.878
328 0 59.3289 12.6583 751 165.228 1074.53 460.714
329 0 59.1036 12.808 757 162.35 1074.38 459.773
330 0 59.2868 12.8359 761 157.35 1074.22 459.259
331 0 64.1874 12.9309 830 159.541 1074.2 458.633
332 0 65.3087 12.7395 832 155.288 1074.06 456.47
333 0 68.1459 12.8988 879 157.83 1074.16 456.53
334 0 69.1421 13.3059 920 158.364 1074.66 455.538
335 0 72.3034 13.1667 952 161.264 1074.97 453.967
336 0 75.4034 13.0498 984 157.644 1074.93 452.866
337 0 78.3301 12.9069 1011 157.084 1075.61 451.683
338 0 79.2398 13.1121 1039 156.556 1075.55 451.544
339 0 82.2163 13.3915 1101 158.097 1075.64 449.705
340 0 86.5411 12.7916 1107 161.371 1075.51 447.893
341 0 90.6012 12.5826 1140 163.2 1075.01 447.248
342 0 91.4113 12.7884 1169 161.354 1075.26 445.432
343 0 95.4553 13.0218 1243 154.903 1075.55 444.447
344 0 98.4003 13.1199 1291 159.328 1074.23 442.486
345 1 50.4005 11.4483 577 158.562 1073.65 467.062
346 0 53.4563 11.9537 639 152.188 1074.15 465.546
347 0 55.3867 12.0606 668 152.153 1073.95 464.377
348 0 57.2969 11.868 680 156.728 1074.58 463.775
349 0 57.4171 12.4876 717 150.106 1074.38 462.379
350 0 60.2204 12.2716 739 153.095 1074.97 461.927
351 0 61.4771 11.9394 734 158.692 1074.76 461.214
352 0 62.5546 12.1973 763 144.096 1074.84 460.284
353 0 63.3626 12.9256 819 146.315 1074.71 458.971
354 0 66.4847 12.6345 840 153.901 1074.27 457.83
355 0 69.2917 12.7865 886 144.966 1074.46 456.227
356 0 71.5902 12.4738 893 149.013 1074.35 455.274
357 0 74.4266 12.7239 947 150.746 1074.33 454.288
358 0 77.6118 12.7944 993 145.661 1074.62 451.428
359 0 78.2608 12.4583 975 147.348 1074.55 451.442
360 0 82.5751 12.7278 1051 146.08 1074.88 450.837
361 1 42.4563 10.2929 437 144.426 1074.85 469.243
362 0 44.2817 10.7042 474 150.73 1074.73 470.07
363 0 43.265 11.7185 507 146.495 1075 468.836
364 0 47.3562 11.6352 551 150.508 1075.07 468.918
365 0 49.3139 11.6803 576 141.427 1075.17 466.578
366 0 51.4089 11.5933 596 131.794 1074.58 465.428
367 0 51.2994 11.4231 586 139.85 1075.2 465.404
368 0 53.3066 11.3494 605 136.319 1075.09 465.38
369 0 55.343 11.6726 646 144.073 1075.58 464.138
370 0 56.2285 11.5778 651 141.02 1076.07 462.708
371 0 58.2153 11.9213 694 146.916 1075.54 461.981
372 0 60.2759 12.3101 742 139.092 1075.85 460.923
373 0 61.2117 11.8115 723 146.325 1076.38 460.75
374 0 62.2486 12.5465 781 144.223 1076.75 460.146
375 0 64.2181 12.4108 797 147.27 1076.97 458.606
376 0 67.2899 12.5576 845 140.401 1076.94 457.692
377 0 69.1329 12.7436 881 143.087 1076.68 456.597
378 0 69.1913 13.2965 920 143.11 1075.81 456.353
379 0 73.13 12.553 918 146.643 1075.96 455.413
380 0 74.2938 12.8947 958 141.711 1075.97 454.663
381 0 76.2088 12.9513 987 151.713 1076.2 453.197
382 0 80.2264 12.5644 1008 155.13 1076.72 452.185
383 0 83.1832 12.767 1062 151.528 1076.89 450.24
384 0 87.3741 12.7612 1115 152.775 1077.35 448.241
385 1 46.3829 12.0087 557 152.632 1077.76 467.124
386 0 47.261 12.0184 568 149.637 1077.36 467.076
387 0 48.1292 11.6977 563 155.089 1076.8 466.526
388 0 48.1825 12.3489 595 156.474 1076.57 466.487
389 0 50.1755 12.5559 630 163.611 1076.73 465.111
390 0 51.1385 12.9648 663 161.805 1076.95 464.753
391 0 52.1359 13.3114 694 165.527 1076.62 462.432
392 0 53.1181 13.4418 714 168.367 1076.97 462.567
393 0 54.1119 13.1949 714 164.992 1077.26 460.976
394 0 57.1415 13.6328 779 160.866 1077.7 461.202
395 0 57.13 13.6356 779 164.226 1077.55 461.489
396 0 60.0832 13.3149 800 165.685 1077.54 460.675
397 0 60.1445 13.3013 800 173.415 1077.2 458.655
398 0 63.0885 13.6316 860 164.088 1076.98 458.3
399 0 64.1651 13.6679 877 161.669 1076.78 456.465
400 0 66.1772 13.7056 907 166.658 1076.76 456.053
401 0 67.1064 13.6947 919 156.718 1077.11 456.635
402 0 69.1061 14.0074 968 169.744 1076.83 455.476
