index division length width area intensity CMx CMy
0 0 54.0805 12.8882 697 163.56 1038.04 504.217
1 0 56.1716 13.4053 753 168.392 1038.57 503.441
2 0 56.0996 13.1017 735 152.469 1038.67 501.309
3 0 60.1644 12.5988 758 166.35 1038.38 500.81
4 0 61.1169 13.3351 815 164.287 1037.63 499.238
5 0 63.1292 13.6545 862 162.202 1037.68 497.216
6 0 65.1083 13.562 883 155.955 1037.28 495.211
7 0 67.2097 13.7331 923 159.737 1036.42 493.634
8 0 69.1907 13.7013 948 160.186 1037.22 493.313
9 0 74.0884 13.4974 1000 159.917 1037.58 491.361
10 0 75.1908 13.898 1045 158.448 1037.29 489.519
11 0 78.1763 13.8021 1079 153.476 1037.98 488.521
12 0 81.0837 13.8622 1124 155.06 1038.27 487.172
13 0 83.1075 13.9338 1158 155.222 1039.21 485.225
14 0 85.1066 13.959 1188 149.438 1039.9 483.632
15 0 89.1333 13.9791 1246 156.645 1040.8 480.827
16 0 91.1854 13.9386 1271 153.831 1040.97 479.285
17 0 95.256 13.9414 1328 150.751 1043.72 478.474
18 0 97.2203 13.9066 1352 156.126 1044.11 477.821
19 0 100.139 13.8607 1388 149.571 1044.9 474.74
20 0 105.378 13.7789 1452 152.836 1045.49 471.476
21 0 107.234 14.0813 1510 148.146 1045.58 469.987
22 1 55.0955 12.7234 701 151.031 1045.76 494.562
23 0 58.1466 13.0876 761 151.731 1046.07 492.329
24 0 61.1153 13.2209 808 134.991 1046.77 492.083
25 0 60.0791 13.7153 824 147.251 1047.06 491.215
26 0 65.045 13.36 869 145.436 1047.19 490.38
27 0 67.0584 13.7492 922 147.324 1047.67 489.497
28 0 69.0919 13.5906 939 142.801 1047.5 488.245
29 0 69.135 13.8714 959 149.641 1047.87 486.361
30 0 73.1014 13.5702 992 92.8881 1047.9 485.358
31 0 76.087 13.708 1043 144.116 1047.11 484.416
32 0 78.2059 13.912 1088 142.767 1046.43 483.739
33 0 81.0719 13.8889 1126 147.323 1046.02 481.867
34 0 83.1118 13.9691 1161 144.26 1045.35 480.707
35 0 85.0585 14.4841 1232 141.846 1044.85 479.58
36 0 90.0951 13.7854 1242 142.229 1044.24 478.653
37 0 92.1919 13.8082 1273 141.218 1043.56 476.454
38 0 96.0858 14.0083 1346 148.272 1043.47 474.77
39 0 99.1475 14.2414 1412 140.938 1043 472.432
40 1 51.065 12.3372 630 139.63 1042.42 495.711
41 0 53.0698 13.1336 697 137.914 1041.82 493.782
42 0 55.0494 13.061 719 142.584 1041.14 493.12
43 0 58.0966 13.1677 765 143.673 1041.35 492.122
44 0 60.1065 12.977 780 146.058 1041.37 490.717
45 0 60.0364 13.3919 804 146.522 1041.03 490.063
46 0 64.0841 13.2482 849 150.664 1041.99 487.751
47 0 66.0725 13.0009 859 150.15 1041.36 487.374
48 0 68.0691 13.4275 914 153.56 1041.09 486.596
49 0 70.1255 13.3047 933 153.642 1040.81 484.269
50 0 72.1064 14.0348 1012 149.336 1040.94 483.504
51 0 75.0673 13.4013 1006 147.748 1040.96 482.504
52 0 77.1325 13.1721 1016 154.1 1041.3 482.197
53 0 81.1392 13.4953 1095 149.5 1041.34 479.791
54 0 84.2725 13.6106 1147 150.023 1041.45 478.78
55 0 86.1239 13.527 1165 154.577 1042.26 478.189
56 0 90.1519 13.7657 1241 157.82 1042.36 476.382
57 0 92.1515 13.5104 1245 159.287 1042.5 475.333
58 0 96.1218 13.3685 1285 160.684 1042.84 474.69
59 1 50.0638 11.5852 580 157.524 1042.39 497.126
60 0 51.0916 11.9589 611 160.149 1042.65 496.673
61 0 53.1895 12.1264 645 158.177 1043.35 494.941
62 0 55.223 12.6035 696 156.899 1043.55 493.749
63 0 57.2389 12.8933 738 159.076 1043.69 492.144
64 0 60.0652 12.7528 766 145.513 1043.73 491.093
65 0 60.1387 13.2028 794 155.288 1043.67 490.558
66 0 64.3199 12.9043 830 149.822 1044.46 488.927
67 0 66.143 12.6695 838 154.495 1043.89 487.482
68 0 67.1451 12.9421 869 157.158 1044.03 487.446
69 0 69.2009 13.179 912 159.535 1043.84 485.537
70 0 72.1551 13.0829 944 153.796 1044.09 485.673
71 0 73.2301 12.8226 939 156.652 1044.64 484.653
72 0 76.1081 13.2312 1007 155.065 1044.45 482.756
73 0 78.2944 13.1682 1031 157.379 1044 480.831
74 0 81.2828 12.9794 1055 159.571 1044.04 479.546
75 0 83.1727 13.502 1123 155.082 1044.71 478.489
76 0 86.1297 13.2242 1139 165.694 1044.63 477.808
77 0 88.324 13.292 1174 159.807 1043.95 474.646
78 0 90.2847 13.391 1209 157.323 1043.5 473.653
79 0 93.187 13.2851 1238 166.19 1043.37 472.504
80 0 96.1488 13.6455 1312 161.905 1043.25 471.671
81 0 101.295 13.2584 1343 157.071 1042.69 469.884
82 0 104.222 13.548 1412 167.349 1042.28 466.635
83 0 106.265 13.5792 1443 157.834 1042.34 465.141
84 0 110.62 13.9577 1544 162.201 1041.97 464.677
85 0 112.257 13.9145 1562 162.44 1042.22 461.935
86 0 115.25 13.8308 1594 168.19 1042.32 461.19
87 0 119.171 13.9295 1660 164.722 1041.93 459.926
88 0 125.238 14.0293 1757 162.098 1041.71 457.12
89 0 128.231 13.6785 1754 165.385 1041.36 454.692
90 0 133.292 13.8118 1841 164.417 1041.31 453.637
91 0 136.247 14.0627 1916 164.642 1041.55 451.379
92 0 141.171 13.9477 1969 163.855 1040.04 448.775
93 0 146.222 14.1429 2068 162.487 1040.75 446.899
94 0 150.439 14.0788 2118 166.762 1041.37 444.643
95 0 158.301 14.3903 2278 163.257 1042.08 441.917
96 0 161.29 14.3841 2320 156.46 1041.87 438.276
97 0 168.376 14.2063 2392 166.152 1041.89 435.958
98 0 173.484 14.1108 2448 164.596 1041.59 432.301
99 0 181.301 14.065 2550 166.531 1042.22 429.796
100 0 185.288 14.0268 2599 162.216 1042.03 426.1
101 1 112.269 11.9178 1338 154.67 1042.16 466.797
102 0 116.291 12.6751 1474 158.837 1041.87 464.51
103 0 119.353 12.8108 1529 152.851 1041.63 462.232
104 0 119.353 12.8108 1529 158.999 1041.63 462.232
105 0 127.267 12.6348 1608 158.59 1042.1 458.249
106 0 131.286 13.0859 1718 160.595 1041.99 456.215
107 0 134.195 12.9215 1734 159.54 1042.74 454.937
108 0 141.31 12.738 1800 164.561 1042.46 452.333
109 0 144.238 13.2073 1905 160.945 1042.7 449.61
110 0 150.311 12.8999 1939 151.76 1043.42 446.96
111 1 77.2507 10.1747 786 151.013 1043.35 482.649
112 0 81.1704 11.0508 897 151.032 1042.69 481.201
113 0 83.1972 12.0316 1001 147.919 1042.29 478.834
114 0 87.2588 11.8842 1037 151.93 1042.25 477.037
115 0 89.1491 12.3725 1103 156.322 1041.87 475.694
116 0 92.1661 12.4992 1152 149.984 1042.39 474.605
117 0 94.1509 12.5437 1181 157.761 1042.08 473.274
118 0 97.1836 12.8931 1253 152.836 1042.59 472.137
119 0 100.219 12.802 1283 151.885 1042.36 470.227
120 0 103.224 12.8846 1330 154.753 1042.34 468.431
121 0 106.091 12.9794 1377 152.261 1042.77 466.656
122 0 16.0022 9.06124 145 137.331 1041.36 511.621
123 1 56.0673 10.5766 593 145.759 1042.86 492.464
124 0 58.0919 10.8449 630 141.689 1042.61 492.535
125 0 60.2186 11.7239 706 141.592 1043.99 489.707
126 0 63.1522 11.8127 746 148.886 1043.81 488.118
127 0 63.256 11.9198 754 140.806 1044.16 487.297
128 0 65.133 11.5917 755 148.858 1044.14 486.752
129 0 67.1316 11.8871 798 145.862 1043.54 485.967
130 0 70.0893 11.8848 833 139.984 1043.52 484.169
131 0 70.2029 12.1932 856 142.199 1043.77 482.681
132 0 72.2658 11.8867 859 144.169 1043.37 482.766
133 0 74.0883 12.2557 908 140.338 1043.74 480.09
134 0 78.1619 11.9112 931 145.299 1043.79 479.962
135 0 79.1124 11.9197 943 143.173 1044.17 478.573
136 0 82.3004 12.1142 997 142.613 1044.34 477.695
137 0 82.2668 12.9822 1068 141.026 1044.65 474.735
138 0 86.1665 12.9517 1116 143.581 1044.78 473.076
139 0 89.2086 12.6445 1128 142.752 1044.69 472.329
140 0 92.2061 12.5371 1156 143.567 1044.84 471.055
141 0 95.3233 12.893 1229 148.108 1044.74 468.245
142 0 97.2094 12.7354 1238 149.804 1045.28 467.288
143 1 52.0944 9.80911 511 150.229 1044.83 491.798
144 0 53.1531 10.0653 535 146.441 1045.36 491.505
145 0 55.1394 10.8271 597 143.831 1046.22 489.055
146 0 56.1019 11.3187 635 137.983 1046.98 488.183
147 0 57.0957 11.6646 666 137.793 1046.59 486.323
148 0 60.15 11.7373 706 138.484 1046.53 487.419
149 0 61.1892 11.2602 689 140.025 1046.27 485.433
150 0 63.1426 12.0838 763 142.228 1047.06 484.544
151 0 63.1003 11.9809 756 140.599 1047.2 483.583
152 0 66.2208 12.0355 797 140.848 1047.71 483.535
153 0 67.1124 12.3226 827 138.543 1047.67 481.47
154 0 69.1289 12.6286 873 143.526 1047.56 480.817
155 0 73.1467 12.3724 905 146.156 1047.88 479.539
156 0 74.0915 12.714 942 148.503 1048.16 478.152
157 0 78.2034 12.5442 981 150.137 1047.66 476.347
158 0 81.1457 12.2003 990 148.552 1048.97 475.185
159 0 82.1817 12.1682 1000 151.964 1049.58 473.922
160 1 42.1076 10.2119 430 136.714 1049.17 493.593
161 0 43.0431 10.594 456 148.121 1049.25 493.057
162 0 45.0417 10.79 486 138.391 1048.54 491.36
163 0 46.118 11.4489 528 146.511 1049.14 490.797
164 0 48.1144 11.7013 563 144.057 1048.95 489.456
165 0 53.0992 11.6951 621 144.18 1049.58 488.823
166 0 53.1771 11.5651 615 142.72 1049.32 488.442
167 0 54.1231 11.6771 632 142.369 1049.46 487.432
168 0 55.1738 11.6722 644 142.036 1049.72 485.596
169 0 57.3934 11.7087 672 144.244 1049.62 485.571
170 0 58.1427 11.9018 692 140.285 1049.28 484.195
171 0 60.1255 12.1912 733 144.993 1049.55 483.415
172 0 62.1635 12.3545 768 142.337 1049.75 482.307
173 0 63.0686 12.3833 781 133.871 1049.52 481.104
174 0 65.3219 12.2164 798 144.975 1048.86 481.09
175 0 66.2146 12.0064 795 138.377 1050.25 478.387
176 0 69.2643 12.8926 893 55.5935 1049.18 477.786
177 0 71.2881 12.7511 909 144.352 1049.88 477.721
178 0 74.2801 12.5202 930 142.935 1050.29 475.444
179 0 77.2336 12.637 976 149.495 1049.61 474.351
180 0 79.3851 12.9369 1027 141.763 1050.13 473.011
181 0 80.4209 13.1309 1056 149.829 1050.04 471.539
182 0 84.4465 12.7063 1073 146.243 1050.45 470.411
183 1 41.1846 11.0721 456 155.417 1051.21 490.118
184 0 45.1473 11.1856 505 153.533 1050.86 489.248
185 0 47.2948 11.2275 531 155.951 1050.75 488.563
186 0 48.249 12.166 587 149.317 1049.65 488.63
187 0 49.1787 12.2817 604 150.823 1050.51 487.056
188 0 51.2161 12.2227 626 153.633 1050.06 486.359
189 0 54.1408 12.486 676 151.895 1050.86 484.559
190 0 53.1161 12.6892 674 152.754 1051.05 486.214
191 0 55.0404 12.8814 709 156.814 1050.78 485.386
192 0 58.0938 12.8413 746 151.349 1050.87 483.835
193 0 59.1504 12.9331 765 153.658 1050.63 482.871
194 0 60.1102 13.5085 812 155.728 1050.61 481.403
195 0 62.0508 13.3923 831 160.972 1050.5 481.504
196 0 64.1558 13.2802 852 159.798 1050.21 481.041
197 0 64.1033 13.8838 890 158.188 1050.06 480.224
198 0 66.092 13.4963 892 160.044 1049.46 478.371
199 0 69.2206 13.6665 946 159.093 1049.73 477.829
200 0 71.151 13.6892 974 165.986 1049.15 477.302
201 0 75.1388 13.9608 1049 156.166 1049.23 475.107
202 0 76.3763 13.6953 1046 163.025 1048.88 473.691
203 0 78.1833 14.1846 1109 158.142 1049.5 472.617
204 0 81.3097 13.8114 1123 164.436 1049.97 472.394
205 0 82.3502 14.5233 1196 157.542 1050.09 470.73
206 0 86.2682 13.5508 1169 162.77 1049.56 469.792
207 0 89.1608 14.3785 1282 154.441 1049.41 467.52
208 0 94.1776 13.878 1307 162.477 1049.12 466.954
209 0 96.3055 14.236 1371 158.467 1048.5 464.457
210 0 100.355 13.821 1387 159.978 1048.38 463.177
211 0 102.338 14.286 1462 161.764 1048.95 460.589
212 0 106.315 14.1184 1501 155.341 1049 459.671
213 1 57.0348 12.2557 699 158.067 1049.06 484.651
214 0 58.0179 13.1856 765 155.637 1048.25 483.352
215 0 60.1151 12.9252 777 157.898 1048.25 482.601
216 0 62.0928 13.0933 813 148.555 1048.29 481.304
217 0 63.2224 13.3972 847 150.334 1047.97 480.374
218 0 67.1459 13.3441 896 148.798 1048 480.294
219 0 69.0913 12.896 891 150.127 1048.06 479.358
220 0 70.1205 13.4055 940 139.651 1047.63 477.88
221 0 73.2429 13.4621 986 149.612 1047.51 476.881
222 0 74.1391 13.8928 1030 151.21 1047.58 475.41
223 0 79.1712 13.4013 1061 145.057 1047.8 474.679
224 0 80.1588 13.7477 1102 144.9 1047.92 472.808
225 0 83.3133 13.5273 1127 146.887 1047.8 472.326
226 0 86.2323 13.4288 1158 144.027 1047.82 471.102
227 0 88.2142 14.1247 1246 140.829 1047.55 469.521
228 0 92.3314 13.5923 1255 139.965 1047.98 467.907
229 0 95.3175 13.5862 1295 136.952 1047.74 465.944
230 0 99.1214 13.8618 1374 141.069 1048.08 464.654
231 0 102.286 13.6969 1401 137.216 1047.59 462.181
232 1 54.0744 12.5198 677 136.121 1047.73 486.809
233 0 56.1439 12.6817 712 135.937 1047.43 485.838
234 0 58.0966 12.5997 732 131.728 1047.79 484.555
235 0 59.1886 12.7389 754 136.046 1047.83 483.456
236 0 63.213 12.798 809 138.129 1048.02 482.269
237 0 66.0954 12.7392 842 136.099 1048.8 481.172
238 0 67.0907 12.6247 847 139.015 1048.24 479.247
239 0 68.1505 13.2354 902 138.34 1048.48 479.683
240 0 71.1319 12.9056 918 139.376 1048.42 479.16
241 0 73.0456 12.9097 943 138.423 1048.23 476.923
242 0 75.1709 13.1168 986 142.31 1048.56 475.856
243 0 77.1519 13.0651 1008 144.439 1048.9 474.669
244 0 80.2045 13.478 1081 138.112 1048.65 473.722
245 0 82.1392 13.0023 1068 149.535 1048.49 471.598
246 0 85.1909 13.3113 1134 143.597 1048.65 470.817
247 0 86.2909 13.2807 1146 142.61 1048.42 469.051
248 0 89.2907 13.7192 1225 147.993 1048.45 467.349
249 0 93.2449 12.9551 1208 148.518 1048.44 467.664
250 0 95.2863 13.1184 1250 151.342 1048.32 465.032
251 1 52.0903 10.0786 525 144.352 1048.91 487.872
252 0 54.0596 10.9324 591 150.347 1049.7 485.91
253 0 54.0828 11.8892 643 143.337 1049.91 484.961
254 0 56.0779 12.1617 682 143.635 1049.07 484.422
255 0 57.1398 12.0407 688 151.735 1049.05 484.555
256 0 59.0648 11.8852 702 152.443 1048.99 483.87
257 0 63.2082 12.1187 766 151.638 1048.42 482.114
258 0 64.2195 11.959 768 158.309 1049.33 480.579
259 0 65.1258 12.5296 816 155.158 1049.83 479.974
260 0 68.1559 12.2366 834 157.203 1049.9 477.994
261 0 70.1389 12.4752 875 152.797 1050.63 477.622
262 0 72.1039 12.4681 899 157.294 1050.65 476.261
263 0 74.0744 12.4874 925 157.831 1051.14 476.306
264 0 76.118 13.0193 991 156.162 1050.63 474.574
265 0 79.1395 12.9013 1021 159.769 1050.77 472.364
266 0 84.1654 12.321 1037 156.945 1051.05 470.981
267 0 86.1649 12.6618 1091 158.704 1051.31 469.267
268 0 89.1393 12.9573 1155 163.426 1051.31 467.812
269 0 92.0916 12.5201 1153 158.607 1051.41 465.991
270 0 95.1066 12.4492 1184 160.954 1051.65 465.095
271 0 96.1544 12.9895 1249 160.549 1051.61 462.651
272 1 55.073 11.1488 614 157.805 1052.22 485.231
273 0 56.1735 11.3933 640 152.317 1052.32 483.631
274 0 55.0717 11.8391 652 158.532 1050.77 482.241
275 0 58.1792 11.5677 673 152.651 1051.56 482.464
276 0 59.2432 11.8157 700 156.933 1050.88 482.293
277 0 62.1988 11.833 736 150.53 1050.88 480.325
278 0 63.1489 12.0034 758 151.162 1050.73 479.223
279 0 65.113 11.9024 775 159.63 1051.59 478.292
280 0 68.1446 11.7838 803 152.1 1051.52 477.672
281 0 70.1227 12.1929 855 147.02 1051.39 476.442
282 0 73.2635 11.9841 878 158.771 1051.27 475.359
283 0 75.3221 12.4797 940 156.966 1051.08 473.695
284 0 78.1264 12.403 969 157.461 1051.56 472.199
285 0 79.2051 12.7391 1009 158.032 1051.47 470.887
286 0 82.1784 12.7162 1045 157.837 1051.05 469.034
287 0 86.2248 12.5022 1078 156.667 1050.97 467.927
288 0 88.2997 12.7181 1123 154.324 1051.17 466.455
289 0 90.2805 12.9928 1173 153.959 1050.98 465.199
290 0 95.3435 12.9741 1237 152.248 1050.81 463.709
291 0 98.145 13.1132 1287 155.768 1050.62 462.183
292 1 52.1132 10.2661 535 153.736 1051.7 485.716
293 0 54.1077 11.1629 604 144.608 1051.38 485.043
294 0 54.1142 11.8084 639 144.897 1051.6 483.438
295 0 56.2142 11.9543 672 155.094 1051.39 482.795
296 0 57.2078 12.5857 720 155.185 1051.42 482.003
297 0 60.1644 12.1168 729 152.364 1050.95 481.269
298 0 62.0954 12.352 767 154.892 1050.57 480.312
299 0 63.144 12.5903 795 154.575 1050.4 479.663
300 0 65.1701 11.9227 777 152.333 1050.83 478.335
301 0 68.0647 12.018 818 148.675 1050.75 477.539
302 0 68.1799 12.291 838 151.915 1050.37 477.432
303 0 71.1651 12.5764 895 153.573 1050.37 475.365
304 0 73.224 12.5505 919 150.768 1049.99 474.395
305 0 74.1767 12.5646 932 157.633 1050.15 474.056
306 0 77.322 12.7389 985 162.107 1049.62 473.827
307 0 78.2633 12.8924 1009 154.028 1049.2 471.616
308 0 80.3087 13.0123 1045 158.664 1049.02 471.1
309 0 85.2363 13.1751 1123 159.155 1048.66 468.259
310 0 88.3817 12.4121 1097 157.951 1048.67 468.162
311 0 88.4273 13.1973 1167 157.826 1048.53 466.25
312 0 93.4079 12.9218 1207 156.513 1048.52 465.074
313 0 96.4283 12.7867 1233 153.208 1049.37 463.483
314 0 99.4639 13.0299 1296 151.332 1048.99 462.053
315 1 51.1328 10.6194 543 151.112 1048.87 485.878
316 0 52.1045 11.1699 582 158.034 1049.15 485.576
317 0 54.0978 11.5347 624 151.87 1049.06 484.026
318 0 57.1413 11.8128 675 148.631 1048.48 482.387
319 0 59.3003 12.1247 719 150.051 1048.41 481.149
320 0 61.0991 12.4552 761 148.352 1048.66 480.74
321 0 63.1285 12.6567 799 147.7 1048.38 480.743
322 0 64.1553 12.5633 806 147.867 1048.47 480.385
323 0 66.1329 12.3993 820 143.138 1048.25 479.248
324 0 67.1148 12.8735 864 149.932 1047.78 477.859
325 0 69.1058 12.517 865 150.822 1047.97 477.846
326 0 72.1434 12.6553 913 150.043 1048.13 475.852
327 0 74.25 13.3603 992 148.925 1048.08 475.941
328 0 75.3002 13.2669 999 151.738 1047.57 474.306
329 0 76.1247 13.4385 1023 149.932 1047.09 473.045
330 0 79.1395 13.293 1052 146.702 1046.57 471.029
331 0 82.2973 13.269 1092 148.1 1046.95 471.144
332 0 82.268 13.4925 1110 152.776 1046.62 468.767
333 0 84.2368 13.1415 1107 149.233 1046.7 466.848
334 0 88.3437 12.8928 1139 152.255 1047 464.879
335 0 91.2119 13.1671 1201 151.231 1047.69 464.648
336 0 97.272 13.0253 1267 146.965 1047.53 462.308
337 1 50.0958 10.8792 545 141.998 1047.95 485.358
338 0 53.2178 11.2744 600 149.825 1048.45 485.255
339 0 55.0658 11.4227 629 143.585 1048.89 485.176
340 0 56.0684 11.8962 667 148.012 1049.13 483.244
341 0 58.176 12.2903 715 147.355 1047.92 484.973
342 0 59.0712 12.3072 727 139.964 1047.68 484.301
343 0 63.1762 12.3148 778 152.486 1048.43 483.77
344 0 64.1215 12.6167 809 149.936 1047.45 482.63
345 0 67.1431 12.5702 844 157.361 1047.09 481.65
346 0 68.147 12.9426 882 147.159 1047.35 480.053
347 0 69.1806 13.0239 901 152.911 1047.42 479.123
348 0 74.0547 12.9904 962 150.213 1047.93 478.148
349 0 76.1691 12.6692 965 146.839 1047.66 476.817
350 0 78.1239 13.2866 1038 151.27 1048.19 475.336
351 0 79.1298 13.2188 1046 155.432 1047.75 473.805
352 0 84.091 13.093 1101 151.288 1047.6 472.183
353 0 87.2969 12.9443 1130 151.6 1047.69 471.511
354 0 89.0993 13.614 1213 147.249 1047.06 469.518
355 0 93.1985 13.1118 1222 150.496 1046.77 468.048
356 0 96.1671 13.4661 1295 152.649 1046.67 465.754
357 1 52.0798 11.252 586 144.741 1048.18 488.532
358 0 55.1968 12.0478 665 152.171 1047.98 488.263
359 0 56.1748 12.2119 686 147.899 1047.79 487.229
360 0 57.0145 12.6459 721 144.993 1048.32 487.161
361 0 59.0966 12.4204 734 143.446 1048.08 485.939
362 0 59.1244 12.6851 750 152.721 1048.09 485.68
363 0 63.0286 12.5975 794 155.409 1047.96 483.85
364 0 65.0248 12.9489 842 152.297 1048.7 482.951
365 0 68.0573 12.7393 867 148.73 1048.5 481.55
366 0 70.0528 12.3906 868 152.488 1048.18 480.379
367 0 73.1138 12.419 908 150.624 1048.57 479.351
368 0 74.0767 12.6491 937 156.61 1048.78 477.642
369 0 76.1686 12.538 955 158.924 1049.22 476.783
370 0 78.1403 12.7335 995 145.497 1049.64 476.391
371 0 80.3025 12.4529 1000 152.499 1049.3 475.595
372 0 83.2437 12.9379 1077 156.288 1049.26 472.704
373 0 86.2099 12.7364 1098 152.107 1049.69 472.964
374 0 89.1762 12.694 1132 154.659 1049.84 471.01
375 0 91.1513 12.6603 1154 151.471 1050.12 468.373
376 0 94.2456 12.9873 1224 154.882 1050.2 467.136
377 0 97.1895 12.7997 1244 156.939 1049.77 466.229
378 0 100.179 13.396 1342 155.093 1049.51 462.604
379 1 53.1552 11.3253 602 152.689 1050.04 487.228
380 0 54.0609 12.1529 657 147.489 1049.76 486.164
381 0 57.0626 12.1971 696 153.131 1050.49 484.917
382 0 58.015 12.3761 718 150.604 1050.49 484.93
383 0 61.0626 12.217 746 148.806 1050.4 483.799
384 0 63.1738 12.521 791 149.842 1049.9 482.327
385 0 64.2215 13.0953 841 150.458 1049.38 480.226
386 0 67.1639 12.7152 854 141.643 1049.22 479.852
387 0 67.1129 12.9185 867 143.879 1049.63 478.848
388 0 70.2362 12.5576 882 148.977 1049.46 478.461
389 0 72.1167 12.7848 922 151.427 1049.93 477.312
390 0 74.2542 12.8747 956 153.105 1049.93 475.824
391 0 77.179 13.1901 1018 145.566 1049.92 473.643
392 0 78.1538 13.0512 1020 152.363 1050 473.083
393 0 82.1828 13.0684 1074 146.187 1050.9 471.29
394 0 83.3932 13.1066 1093 156.456 1051.01 470.623
395 0 87.1721 13.2611 1156 156.373 1050.69 469.123
396 0 91.2116 12.6738 1156 151.029 1050.74 467.009
397 0 93.1519 13.1935 1229 148.959 1050.22 465.157
398 0 95.1922 12.8477 1223 164.053 1050.05 464.393
399 0 98.2096 13.0537 1282 163.422 1050.19 463.132
400 0 103.383 13.1647 1361 159.83 1049.48 461.109
401 1 54.0378 11.5845 626 162.201 1049.06 486.054
