index division length width area intensity CMx CMy
2609 0 113.036 18.41 2081 99.0519 1018.77 381.584
2610 0 111.323 18.3879 2047 101.86 1018.53 384.484
2611 0 112.407 17.8725 2009 102.975 1017.76 382.247
2612 1 56.1797 11.392 640 122.458 1017.58 414.809
2613 0 58.2337 12.1064 705 119.841 1017.6 412.736
2614 0 60.0808 11.8673 713 123.669 1017.89 413.889
2615 0 62.2474 12.5949 784 120.643 1017.94 415.159
2616 0 62.2474 12.5949 784 171.557 1017.94 415.159
2617 0 66.34 12.7977 849 118.895 1017.79 419.08
2618 0 70.3412 12.809 901 120.145 1017.63 420.73
2619 0 71.2739 12.936 922 118.503 1017.72 425.889
2620 0 71.4327 13.4112 958 114.663 1017.39 432.9
2621 0 75.2248 12.6953 955 120.097 1017.54 436.867
2622 0 76.1913 13.1511 1002 115.906 1017.02 441.106
2623 0 79.2274 13.6695 1083 116.394 1016.99 442.074
2624 0 83.3754 12.8215 1069 121.193 1017.22 447.179
2625 0 83.5014 13.4369 1122 114.777 1016.82 452.77
2626 0 88.4087 12.8155 1133 117.214 1016.85 451.132
2627 0 90.3584 13.2472 1197 117.863 1016.89 449.599
2628 0 93.2878 12.917 1205 117.48 1016.6 448.27
2629 0 97.3292 13.2951 1294 114.098 1017 446.587
2630 1 49.293 10.7318 529 113.028 1016.04 471.42
2631 0 52.1784 10.215 533 112.379 1015.24 470.259
2632 0 56.1053 10.9794 616 108.125 1015.81 471.203
2633 0 57.0905 11.2453 642 107.801 1016.44 469.843
2634 0 59.0904 11.7786 696 117.009 1016.58 468.057
2635 0 60.0979 11.8141 710 111.714 1015.66 468.475
2636 0 62.0625 11.6818 725 111.928 1015.43 467.374
2637 0 63.0922 12.1093 764 110.834 1016.03 465.483
2638 0 65.1443 11.8353 771 115.143 1016.57 465.061
2639 0 65.1037 10.7982 703 121.528 1016.97 462.834
2640 0 68.1004 11.2334 765 119.458 1016.67 462.012
2641 0 71.154 11.8054 840 115.752 1016.39 463.476
2642 0 73.2142 12.0332 881 111.911 1016.4 461.628
2643 0 76.1557 12.3037 937 114.746 1016.45 460.03
2644 0 77.3106 12.2752 949 111.465 1015.97 458.669
2645 0 81.2682 12.5633 1021 111.772 1015.8 458.248
2646 0 83.1905 12.3572 1028 114.788 1015.96 456.934
2647 0 86.3525 12.0784 1043 112.156 1016.33 455.879
2648 0 88.2432 12.3862 1093 116.644 1016.31 454.439
2649 0 91.1025 12.0963 1102 118.837 1015.82 453.292
2650 0 94.2903 12.7373 1201 116.72 1016.26 451.414
2651 1 51.2484 10.2637 526 115.418 1015.82 473.751
2652 0 50.1842 10.043 504 121.234 1015.63 471.46
2653 0 54.3123 11.3602 617 115.35 1015.66 472.107
2654 0 54.1825 11.5351 625 116.04 1015.71 471.618
2655 0 57.1082 11.6621 666 114.671 1015.63 470.982
2656 0 58.1332 11.422 664 114.654 1015.54 470.319
2657 0 59.1227 12.0089 710 113.914 1015.41 469.344
2658 0 60.0365 11.8761 713 117.457 1016.39 469.136
2659 0 63.0753 11.8906 750 111.567 1016.63 468.027
2660 0 63.078 11.9059 751 113.312 1016.47 467.232
2661 0 66.051 12.1573 803 121.051 1016.52 465.996
2662 0 68.174 11.9254 813 121.103 1016.18 465.038
2663 0 71.1666 12.3091 876 122.479 1016.45 464.111
2664 0 72.1309 12.6298 911 127.844 1016.46 463.108
2665 0 74.1505 13.1354 974 117.431 1016.44 461.207
2666 0 76.1688 13.0368 993 123.406 1016.16 460.231
2667 0 78.2769 13.0562 1022 122.757 1015.98 458.53
2668 0 83.1721 12.7687 1062 125.604 1016.02 458.379
2669 0 85.212 12.5452 1069 129.061 1016.04 457.074
2670 0 86.2802 13.0737 1128 127.87 1015.94 455.906
2671 0 89.2477 13.132 1172 126.548 1016.42 454.45
2672 0 91.2244 13.1982 1204 125.051 1016.03 452.255
2673 1 46.0837 9.46104 436 128.933 1016.35 476.007
2674 0 46.1516 9.79382 452 120.389 1016.54 474.232
2675 0 50.161 10.7653 540 126.033 1016.68 474.3
2676 0 51.1181 11.2485 575 123.703 1016.72 473.397
2677 0 53.1918 11.6371 619 123.998 1015.69 472.628
2678 0 52.155 11.3124 590 133.573 1015.88 472.619
2679 0 54.0965 11.2022 606 126.134 1015.92 471.551
2680 0 56.0899 11.2676 632 124 1015.71 469.986
2681 0 59.1876 11.5396 683 130.978 1015.97 470.378
2682 0 60.094 12.4804 750 129.92 1015.83 469.743
2683 0 60.0728 12.1852 732 113.896 1015.9 469.84
2684 0 63.1287 12.0231 759 130.677 1016.54 467.269
2685 0 65.0662 12.7409 829 120.074 1015.94 467.169
2686 0 69.0515 12.0779 834 133.878 1015.66 466.906
2687 0 70.1455 12.3885 869 115.719 1015.96 464.218
2688 0 73.1192 12.3634 904 121.573 1015.96 464.112
2689 0 72.23 11.9756 865 119.452 1015.64 462.028
2690 0 76.1244 12.9262 984 112.922 1016.21 461.728
2691 0 79.041 12.9047 1020 123.942 1015.61 460.833
2692 0 80.1058 12.6333 1012 131.901 1015.77 459.409
2693 0 83.1181 12.5123 1040 128.8 1015.84 458.997
2694 0 85.3407 12.6434 1079 131.058 1015.46 457.111
2695 0 89.2907 12.2409 1093 127.973 1015.57 455.76
2696 0 90.1392 12.392 1117 124.812 1015.99 453.91
2697 0 95.0685 12.6645 1204 121.504 1015.97 452.186
2698 1 48.0198 10.5165 505 125.428 1016.68 475.469
2699 0 51.0219 10.4857 535 131.963 1016.49 475.329
2700 0 52.0182 11.0346 574 128.24 1016.19 474.645
2701 0 52.0581 12.1595 633 130.626 1016.46 473.518
2702 0 54.1165 12.3807 670 132.049 1016.29 472.831
2703 0 55.1074 11.777 649 133.513 1015.92 471.288
2704 0 57.1001 11.8914 679 136.443 1016 471.65
2705 0 58.2468 12.3097 717 131.551 1015.71 470.794
2706 0 61.0744 12.1982 745 131.705 1016.03 469.867
2707 0 61.0487 12.8258 783 132.58 1016.05 467.978
2708 0 64.0754 13.0939 839 128.875 1016.49 467.404
2709 0 67.0728 12.3299 827 140.333 1016 466.274
2710 0 68.0856 12.5871 857 131.237 1015.92 465.548
2711 0 69.0835 12.6514 874 140.979 1015.81 465.158
2712 0 73.1259 13.128 960 142.881 1015.85 462.971
2713 0 74.124 13.1132 972 141.892 1015.54 461.991
2714 0 77.1432 13.0277 1005 139.779 1015.95 461.743
2715 0 77.1432 13.0277 1005 153.656 1015.95 461.743
2716 0 83.0604 13.2193 1098 139.822 1015.64 458.264
2717 0 84.0862 13.1413 1105 131.7 1015.69 456.653
2718 0 88.1123 13.0061 1146 140.841 1015.68 454.952
2719 0 91.11 13.0611 1190 136.861 1015.67 454.351
2720 0 96.1363 13.2416 1273 136.024 1015.39 452.514
2721 0 96.0926 13.4246 1290 147.726 1015.65 450.89
2722 1 49.0282 10.7489 527 135.968 1016.02 475.565
2723 0 49.0398 11.3785 558 139.471 1015.66 474.862
2724 0 51.0283 12.0521 615 142.306 1016.03 474.72
2725 0 51.0956 12.3298 630 135.676 1015.35 474.421
2726 0 53.0527 12.6478 671 139.317 1015.87 473.225
2727 0 55.0284 12.2846 676 140.158 1015.94 471.859
2728 0 58.1527 12.0889 703 139.067 1015.76 471.812
2729 0 58.0762 12.6902 737 134.345 1015.45 471.465
2730 0 61.112 12.698 776 129.594 1015.59 470.658
2731 0 62.0932 12.7228 790 130.867 1015.46 469.763
2732 0 64.1561 12.9216 829 123.943 1015.28 468.809
2733 0 65.0796 12.7843 832 127.788 1015.63 467.184
2734 0 66.1 12.7232 841 130.971 1015.13 466.634
2735 0 69.1551 13.0721 904 128.508 1015.41 465.414
2736 0 70.1225 13.1342 921 124.172 1015.62 464.953
2737 0 73.1399 13.1392 961 130.632 1016.11 462.684
2738 0 75.2446 12.9312 973 127.584 1015.81 461.523
2739 0 75.2446 12.9312 973 164.741 1014.81 461.523
2740 0 77.305 13.1945 1020 118.113 1015.97 459.526
2741 0 83.4138 13.9665 1165 116.486 1015.48 455.924
2742 0 86.2852 14.2203 1227 123.884 1014.67 454.498
2743 0 86.2852 14.2203 1227 153.464 1013.67 454.498
2744 0 89.3404 13.5549 1211 125.206 1014.89 452.254
2745 0 92.4 13.355 1234 136.697 1014.24 452.876
2746 0 94.2615 13.4838 1271 134.554 1013.89 451.808
2747 1 52.1079 11.7449 612 133.025 1013.26 472.35
2748 0 55.025 11.8492 652 135.678 1013.58 472.294
2749 0 56.0916 12.4083 696 53.0287 1014.04 471.733
2750 0 56.0563 12.5945 706 129.476 1014.5 471.778
2751 0 58.1206 12.6461 735 133.826 1014.79 470.962
2752 0 61.0268 12.7321 777 128.172 1014.89 469.831
2753 0 64.1218 12.8194 822 130.111 1014.34 467.949
2754 0 66.0561 12.7619 843 129.269 1015.22 466.838
2755 0 68.1047 12.7304 867 128.197 1015 465.563
2756 0 70.0802 12.5285 878 131.65 1015.33 465.321
2757 0 72.0765 13.0972 944 129.942 1015.34 465.029
2758 0 75.1184 12.5801 945 134.826 1015.37 464.143
2759 0 77.0949 12.4652 961 129.3 1015.86 461.944
2760 0 79.0481 13.359 1056 127.956 1015.12 460.504
2761 0 81.0841 12.5302 1016 128.346 1014.94 459.797
2762 0 86.115 12.6226 1087 128.024 1015.47 455.896
2763 0 88.1108 12.6886 1118 127.972 1015.1 454.614
2764 0 92.0754 12.859 1184 129.636 1015.06 453.051
2765 1 49.0833 11.0628 543 124.646 1015.92 474.365
2766 0 49.0928 12.1199 595 125.269 1013.84 472.059
2767 0 51.0264 12.2878 627 127.923 1016.04 472.663
2768 0 52.0958 12.0163 626 123.997 1015.2 472.185
2769 0 55.0691 11.7489 647 128.9 1015.14 471.218
2770 0 56.1283 11.7766 661 126.738 1015.64 470.218
2771 0 58.0923 12.6695 736 117.389 1015.08 468.349
2772 0 60.0437 12.5076 751 122.631 1014.77 467.822
2773 0 62.0984 12.6412 785 118.271 1015.49 466.566
2774 0 64.0861 12.3272 790 120.334 1015.13 466.072
2775 0 66.0785 12.3641 817 127.581 1016.37 463.908
2776 0 68.0428 12.5215 852 125.136 1016.4 463.439
2777 0 69.0241 12.6043 870 123.506 1016.28 462.091
2778 0 72.0802 12.7913 922 117.633 1016.33 460.207
2779 0 74.1156 12.6559 938 123.741 1016.48 459.243
2780 0 76.2169 13.0942 998 115.063 1016.22 458.822
2781 0 78.1551 13.115 1025 110.114 1016.68 457.155
2782 0 81.1496 13.2225 1073 113.599 1016.5 456.189
2783 0 85.1538 12.8356 1093 108.417 1016.48 453.285
2784 0 88.1807 12.7012 1120 108.758 1017 452.647
2785 1 48.0599 10.8822 523 113.983 1016.99 471.403
2786 0 50.3822 10.9959 554 110.794 1016.58 471.061
2787 0 53.0816 11.6801 620 108.571 1016.09 470.179
2788 0 54.074 11.3918 616 111.067 1016.71 468.104
2789 0 56.0878 11.4998 645 105.358 1017.16 467.107
2790 0 58.0715 11.3997 662 104.769 1017.51 467.236
2791 0 60.1602 11.8018 710 104.861 1017.32 465.473
2792 0 61.087 11.6882 714 98.3151 1017.61 465.84
2793 0 61.1322 11.9086 728 96.7418 1017.6 464.478
2794 0 63.1018 12.0123 758 94.3153 1018.42 463.615
2795 0 66.1335 12.248 810 94.6111 1018.3 462.341
2796 0 67.1623 12.3135 827 93.8742 1018.6 462.712
2797 0 70.2233 12.3463 867 91.7751 1018.58 460.459
2798 0 70.0698 12.3734 867 93.7843 1018.27 460.074
2799 0 74.1153 12.494 926 89.9816 1018.84 458.179
2800 0 77.1683 12.3367 952 93.5546 1018.71 456.461
2801 0 79.3436 12.3387 979 88.4719 1018.86 454.868
2802 1 39.0501 10.8835 425 95.5553 1018.36 475.205
2803 0 41.0959 11.4123 469 93.6866 1018.55 474.531
2804 0 43.0785 11.746 506 95.5771 1019.21 473.678
2805 0 44.0783 11.9333 526 94.7966 1018.9 472.492
2806 0 44.1395 11.9847 529 92.3346 1018.09 471.448
2807 0 47.1217 12.0114 566 91.0777 1018.37 471.254
2808 0 47.089 12.3808 583 93.0274 1018.11 469.633
2809 0 49.1603 12.5508 617 90.4392 1017.94 469.639
2810 0 49.1029 12.6265 620 91.8661 1018 469.576
2811 0 51.2273 12.2786 629 95.1192 1018.03 469.229
2812 0 53.1364 12.6467 672 98.2009 1018.38 468.287
2813 0 53.0792 12.8676 683 94.7936 1018.22 468.637
2814 0 56.197 12.5807 707 94.5969 1018.3 467.078
2815 0 57.1761 12.6976 726 96.1171 1018.6 466.426
2816 0 58.0516 13.0573 758 102.348 1018.66 465.141
2817 0 58.0958 12.7032 738 101.416 1018.1 465.766
2818 0 60.1255 12.5072 752 104.431 1018.72 465.775
2819 0 61.1155 13.3354 815 93.508 1018.6 463.636
2820 0 62.1186 13.5386 841 94.1534 1018.98 463.396
2821 0 66.1014 13.1313 868 89.8514 1018.83 463.111
2822 0 66.1241 13.8225 914 93.6357 1019.02 461.433
2823 0 69.125 13.2803 918 89.2745 1019.13 461.756
2824 0 72.1198 13.0755 943 88.2492 1018.92 460.584
2825 0 74.0959 13.9009 1030 91.5777 1018.9 457.948
2826 0 76.1155 14.1101 1074 94.3352 1019.6 457.312
2827 0 80.1198 13.5297 1084 86.7989 1019.57 454.845
2828 1 42.1019 11.4484 482 62.0809 1018.99 473.761
2829 0 42.2644 12.0432 509 88.6758 1018.48 473.668
2830 0 43.1144 12.664 546 88.5897 1017.47 472.762
2831 0 46.1623 12.3261 569 88.5308 1017.69 473.16
2832 0 47.1615 12.3406 582 89.2646 1017.43 472.318
2833 0 48.2336 12.2736 592 93.6858 1016.94 472.475
2834 0 50.1497 12.6023 632 90.8687 1017.02 471.813
2835 0 50.1208 12.9687 650 107.642 1017.48 470.435
2836 0 52.0434 12.7778 665 98.2541 1016.86 469.95
2837 0 53.3199 13.1846 703 99.4253 1017.02 469.26
2838 0 55.2254 12.8564 710 100.739 1016.84 469.417
2839 0 55.3095 13.3431 738 101.255 1016.95 468.388
2840 0 55.3095 13.3431 738 166.965 1016.95 468.388
2841 0 59.1724 12.6748 750 111.993 1017.49 467.467
2842 0 60.222 13.334 803 101.838 1017.79 464.928
2843 0 62.1516 13.0487 811 102.583 1017.43 464.425
2844 0 64.2606 13.3363 857 100.7 1017.1 462.628
2845 0 65.2267 13.3841 873 102.532 1017.55 461.84
2846 0 68.4031 12.9819 888 94.4944 1016.97 461.91
2847 0 68.3611 13.063 893 96.2038 1016.54 460.555
2848 0 73.356 13.0051 954 95.4906 1016.21 459.722
2849 0 74.5225 13.3919 998 93.6092 1017.58 457.466
2850 0 76.3909 12.9335 988 94.0202 1017.27 456.127
2851 1 41.2233 10.9647 452 93.6173 1016.98 474.246
2852 0 41.2393 11.2999 466 92.221 1017.34 472.204
2853 0 45.2835 11.6378 527 90.0304 1017.87 473.247
2854 0 46.1568 11.9159 550 93.2982 1016.97 472.155
2855 0 48.1182 11.9705 576 89.2205 1017.97 472.326
2856 0 49.0756 12.2872 603 86.6153 1017.21 471.755
2857 0 51.0475 12.6941 648 89.2191 1016.8 471.122
2858 0 52.205 12.8149 669 88.1315 1016.8 470.3
2859 0 54.1074 13.0112 704 89.2258 1017.11 469.141
2860 0 55.2911 12.823 709 95.2059 1017.34 468.344
2861 0 56.1934 13.4357 755 85.1483 1017.03 466.746
2862 0 60.2799 12.9064 778 86.8458 1017.35 465.149
2863 0 61.2924 12.9054 791 84.3957 1018.06 464.498
2864 0 64.1806 12.6518 812 81.5406 1017.19 463.472
2865 0 67.1807 12.8311 862 82.5835 1017.89 463.254
2866 0 68.1703 13.0115 887 84.1251 1017.92 461.38
2867 0 72.1766 13.1067 946 90.9292 1018.53 460.092
2868 0 75.3381 12.9947 979 81.9786 1018.63 458.77
2869 0 75.1736 12.9035 970 84.9959 1018.62 457.69
2870 0 80.213 12.953 1039 80.8951 1017.82 455.257
2871 1 40.0508 10.7863 432 82.3356 1017.93 475.368
2872 0 43.1025 11.2754 486 88.2675 1017.61 473.708
2873 0 44.0558 11.9167 525 84.9257 1016.71 473.657
2874 0 44.1429 12.2556 541 91.4972 1017.03 473.044
2875 0 47.2292 11.9418 564 91.8245 1017.64 472.541
2876 0 48.142 11.9438 575 81.2852 1017.6 471.741
2877 0 50.1742 12.2374 614 76.8176 1017.24 470.59
2878 0 51.0683 12.3168 629 80.5819 1017.24 469.372
2879 0 52.1721 12.6696 661 83.6082 1017.76 468.613
2880 0 56.167 12.3382 693 86.2121 1017.65 467.481
2881 0 56.2895 12.791 720 81.0778 1017.82 467.203
2882 0 57.2137 13.2486 758 78.2652 1017.9 465.673
2883 0 60.0984 13.012 782 83.8044 1017.86 465.093
2884 0 60.1674 13.4126 807 87.6815 1018.07 463.146
2885 0 65.2288 13.3837 873 83.4433 1018.15 462.36
2886 0 66.204 13.3678 885 76.8599 1017.61 461.287
2887 0 67.3532 13.8523 933 75.8757 1017.97 460.995
2888 0 69.3145 13.6335 945 78.5746 1017.58 459.772
2889 0 70.3926 13.9077 979 78.808 1017.67 458.872
2890 0 74.5124 13.6622 1018 80.8615 1017.89 456.691
2891 0 77.4417 13.6619 1058 83.6484 1018.34 455.001
2892 0 78.6238 13.978 1099 83.2484 1018.29 453.822
2893 0 82.4323 13.6961 1129 83.5952 1018.15 452.862
2894 0 86.4375 13.8366 1196 83.1639 1017.89 451.438
2895 0 88.4739 13.7668 1218 87.0854 1018.27 449.794
2896 0 93.6091 13.7594 1288 80.3734 1018.21 448.938
2897 1 49.2136 12.9233 636 82.3774 1017.95 469.469
2898 0 52.118 12.8746 671 81.5857 1018.72 468.879
2899 0 52.268 13.2969 695 79.3338 1018.78 468.391
2900 0 55.2516 12.8503 710 81.5211 1018.75 467.608
2901 0 57.1514 13.1405 751 79.2663 1019 466.541
2902 0 57.4941 12.9057 742 78.4245 1018.67 465.248
2903 0 58.4046 13.7489 803 82.2005 1018.86 463.93
2904 0 60.415 13.7383 830 82.6277 1019.1 462.072
2905 0 64.5666 13.8152 892 79.5673 1019.17 459.842
2906 0 66.3372 13.6575 906 82.6865 1018.84 458.648
2907 0 70.6741 13.442 950 80.1737 1018.9 457.48
2908 0 71.4721 13.2359 946 83.0529 1018.8 456.798
2909 0 73.4779 13.4326 987 83.4124 1018.85 455.676
2910 0 75.4281 13.4168 1012 84.9704 1019.09 454.176
2911 0 79.6619 13.5447 1079 85.9676 1018.92 453.246
2912 0 82.3833 13.2551 1092 83.8819 1018.95 452.038
2913 0 84.4721 13.6495 1153 86.9757 1019.13 450.811
2914 0 86.5145 13.5584 1173 81.9633 1018.73 449.304
2915 1 48.3947 11.7781 570 82.0912 1019.27 468.018
2916 0 48.5061 12.2665 595 79.7395 1018.62 469.044
2917 0 50.5946 13.0646 661 78.3238 1019.05 467.213
2918 0 52.506 12.8747 676 83.3669 1019.01 466.72
2919 0 52.2623 12.8391 671 86.544 1018.84 466.332
2920 0 53.4922 13.4412 719 86.5661 1019.14 465.726
2921 0 56.603 12.7202 720 87.0472 1018.89 465.243
2922 0 57.3034 13.1406 753 83.1062 1018.59 464.469
2923 0 58.297 13.2597 773 88.7956 1018.33 463.257
2924 0 60.468 13.0151 787 86.8246 1018.7 462.828
2925 0 60.5207 13.8961 841 89.0571 1019.11 461.879
2926 0 63.4904 13.3091 845 88.1444 1018.96 460.906
2927 0 62.4878 13.4746 842 85.0534 1018.34 461.524
2928 0 66.5352 13.6018 905 85.1481 1017.87 461.119
2929 0 67.6245 13.4271 908 85.3866 1018.11 460.099
2930 0 67.6664 13.5518 917 87.0436 1017.58 459.431
2931 0 70.2954 13.742 966 83.9534 1017.83 459.149
2932 0 71.4662 13.6428 975 85.4944 1018.41 456.888
2933 0 75.3758 15.0446 1134 80.5847 1017.58 455.712
2934 0 76.463 13.6929 1047 85.0029 1017.72 455.733
2935 0 79.3923 13.6537 1084 85.2297 1017.93 453.733
2936 0 81.3753 13.7511 1119 82.9553 1017.94 453.029
2937 0 82.4613 14.14 1166 77.0403 1017.87 451.935
2938 0 86.3751 13.9624 1206 77.8566 1018 449.971
2939 0 88.4189 14.3521 1269 78.3656 1018.06 448.147
2940 0 92.3551 13.9895 1292 79.4528 1018.05 447.647
2941 0 94.3435 14.1928 1339 79.6214 1018.24 445.932
2942 0 96.3717 14.0601 1355 82.2089 1018.01 444.173
2943 0 100.293 14.5773 1462 88.3789 1018.14 444.687
2944 0 103.373 14.3074 1479 87.9405 1017.8 442.42
2945 0 108.281 14.6009 1581 98.5155 1017.71 439.984
2946 0 110.442 14.5054 1602 95.3002 1017.72 440.201
2947 0 115.266 14.2974 1648 100.67 1017.86 438.211
2948 1 63.0518 12.4977 788 101.718 1017.69 465.364
2949 0 66.252 12.8147 849 101.226 1017.09 462.783
2950 0 68.1145 12.9781 884 98.8971 1016.65 462.598
2951 0 71.2275 13.2954 947 99.0084 1016.83 460.346
2952 0 73.2762 13.1966 967 98.1768 1017.03 460.502
2953 0 74.2688 12.9933 965 100.466 1017.09 459.158
2954 0 77.1813 12.8399 991 99.8527 1017.35 457.884
2955 0 79.3066 13.6559 1083 95.4478 1017.88 455.062
2956 0 82.1509 13.6213 1119 98.1224 1017.6 454.333
2957 0 84.3653 13.5838 1146 93.075 1017.96 452.1
2958 0 88.2274 13.4425 1186 95.2555 1018.11 450.648
2959 0 89.21 13.5859 1212 91.113 1018.06 448.774
2960 0 94.2073 13.6083 1282 94.4189 1017.82 448.456
2961 0 98.2571 13.7802 1354 92.305 1017.22 447.773
2962 0 100.281 13.7514 1379 99.0986 1017.35 445.457
2963 0 103.173 13.4823 1391 102.185 1016.57 444.53
2964 0 108.208 13.8714 1501 106.981 1017.05 443.774
2965 0 110.399 13.6957 1512 106.087 1016.62 441.073
2966 0 114.32 13.7159 1568 93.8769 1016.59 439.425
2967 0 118.271 13.6635 1616 97.2488 1016.84 438.105
2968 1 64.0307 11.8381 758 93.2823 1016.38 466.396
2969 0 64.2199 12.0212 772 94.7241 1015.63 465.365
2970 0 66.1909 11.9201 789 101.897 1015.49 464.719
2971 0 70.3894 12.7008 894 96.4508 1015.44 463.485
2972 0 72.4191 12.5243 907 94.9724 1015.61 462.27
2973 0 74.3072 12.9328 961 96.7201 1015.11 461.828
2974 0 76.3737 12.6614 967 96.9193 1015.21 460.809
2975 0 77.1623 13.0504 1007 93.6197 1015.19 459.323
2976 0 79.2266 13.1774 1044 90.75 1014.98 458.039
2977 0 82.2011 12.7006 1044 97.1877 1014.9 456.611
2978 0 85.2702 12.9705 1106 101.208 1015.27 453.787
2979 0 88.3926 12.8404 1135 96.9577 1014.97 452.711
2980 0 90.3773 13.167 1190 105.295 1015.31 449.726
2981 0 93.4998 13.0909 1224 100.4 1014.69 448.261
2982 1 48.3214 11.4235 552 100.275 1014.24 471.341
2983 0 50.1925 11.9141 598 99.6906 1013.75 473.14
2984 0 51.1823 12.1917 624 97.0513 1014.16 472.925
2985 0 53.1934 12.2948 654 98.0535 1014.34 472.291
2986 0 53.2064 12.4985 665 98.6361 1014.67 471.796
2987 0 56.2452 12.0544 678 101.605 1014.02 470.766
2988 0 56.1788 12.5848 707 95.4286 1014.36 468.999
2989 0 58.1517 12.347 718 99.7006 1014.45 469.501
2990 0 60.1661 12.881 775 103.443 1014.72 467.623
2991 0 61.1248 12.6299 772 103.434 1014.98 467.328
2992 0 63.1425 12.5747 794 101.691 1014.84 466.681
2993 0 66.2464 12.5441 831 102.949 1015.03 464.8
2994 0 69.2185 12.54 868 97.4666 1014.96 464.985
2995 0 70.2928 12.6613 890 99.609 1014.7 463.06
2996 0 74.5267 12.6129 940 96.1755 1014.81 461.235
2997 0 76.4238 12.7447 974 95.5606 1014.68 459.954
2998 0 77.3668 12.7186 984 94.44 1014.85 458.926
2999 0 81.6942 12.608 1030 98.0835 1014.5 456.807
3000 1 41.2313 10.5745 436 100.225 1014.21 477.037
3001 0 41.3597 11.0252 456 100.763 1014.75 476.265
