index division length width area intensity CMx CMy
0 0 70.0509 14.104 988 174.851 1081.52 359.937
1 0 71.0816 14.2653 1014 169.095 1080.87 361.984
2 0 74.0706 14.1892 1051 169.163 1080.27 363.474
3 0 77.1292 14.3007 1103 166.595 1079.07 365.374
4 0 79.2356 14.2108 1126 169.256 1078.64 367.663
5 0 83.0378 14.1983 1179 167.728 1078.95 370.623
6 0 86.1301 14.362 1237 168.962 1077.96 373.62
7 0 88.041 14.4137 1269 165.724 1077.72 374.829
8 0 92.0639 14.403 1326 168.012 1077.9 376.491
9 0 94.121 14.5876 1373 167.879 1077.46 378.835
10 0 98.1016 14.3015 1403 166.956 1077.55 381.643
11 0 103.132 13.9918 1443 166.654 1077.72 384.429
12 0 104.114 14.4168 1501 164.663 1078.48 388.166
13 1 56.0696 13.0374 731 163.109 1079.07 417.491
14 0 55.0112 13.8154 760 161.136 1080.11 420.849
15 0 59.0435 13.651 806 160.381 1080.55 422.324
16 0 61.0526 13.6603 834 161.962 1081.81 427.26
17 0 64.0429 13.6315 873 161.883 1082.48 432.034
18 0 67.0384 13.5296 907 161.224 1083.11 436.759
19 0 68.0664 14.2508 970 160.499 1083.62 440.501
20 0 70.0779 13.9416 977 158.57 1084.01 445.532
21 0 73.0487 13.8675 1013 157.43 1084.55 450.457
22 0 75.1459 13.9861 1051 162.598 1084.84 455.498
23 0 79.0933 13.8065 1092 166.57 1085.59 461.67
24 0 81.086 14.1332 1146 166.749 1085.63 468.083
25 0 83.065 13.7964 1146 166.229 1085.88 470.12
26 0 85.0969 14.1016 1200 161.62 1086.82 469.416
27 0 87.0489 14.153 1232 163.142 1087 467.977
28 0 91.1423 14.033 1279 162.816 1087.15 466.238
29 0 93.0526 14.3467 1335 174.387 1086.82 464.07
30 0 97.0584 14.1152 1370 174.877 1087.11 462.288
31 0 101.119 13.8648 1402 164.83 1086.86 460.299
32 0 105.091 14.045 1476 172.314 1086.05 458.72
33 1 49.022 13.1369 644 174.922 1085.82 486
34 0 52.0389 13.0864 681 170.62 1085.11 485.477
35 0 55.0523 13.1148 722 176.302 1084.85 483.435
36 0 57.0536 13.3559 762 171.756 1083.93 481.785
37 0 58.0148 13.2035 766 169.601 1083.22 481.513
38 0 61.105 13.7632 841 163.262 1082.63 480.007
39 0 63.0587 13.2416 835 170.098 1082.51 479.966
40 0 64.0366 13.6328 873 160.631 1081.84 477.661
41 0 66.2579 13.5229 896 166.035 1082.5 477.283
42 0 69.1047 13.6894 946 162.43 1082.76 475.514
43 0 72.0296 13.2445 954 167.529 1082.34 473.501
44 0 73.1129 13.3629 977 166.947 1081.66 472.939
45 0 74.1032 13.8995 1030 166.022 1081.3 471.584
46 0 76.0576 13.8053 1050 162.769 1081.52 469.975
47 0 79.0926 13.7434 1087 156.875 1081.27 469.399
48 0 81.0605 14.2363 1154 163.627 1080.36 466.666
49 0 87.1975 13.4293 1171 159.068 1080.06 466.371
50 0 89.0888 13.4473 1198 155.665 1080.45 464.731
51 0 91.1649 13.6785 1247 158.532 1080.53 462.846
52 0 93.1312 13.6582 1272 160.756 1080.52 461.781
53 1 50.0634 12.3244 617 162.092 1080.91 483.93
54 0 50.07 12.882 645 154.428 1080.96 483.214
55 0 53.1312 12.7797 679 155.48 1081 482.536
56 0 55.0528 13.26 730 152.933 1081.16 481.24
57 0 58.0937 12.8069 744 157.836 1081.02 479.918
58 0 60.075 12.8007 769 158.182 1081.61 479.091
59 0 63.0636 13.0345 822 154.859 1081.94 477.809
60 0 65.1248 12.8062 834 156.404 1082.41 476.93
61 0 66.1169 13.0375 862 156.959 1082.82 475.664
62 0 69.0346 13.2108 912 155.046 1083.06 474.455
63 0 70.0733 13.0292 913 158.239 1083.17 473.522
64 0 73.0324 13.1312 959 150.13 1083.34 472.23
65 0 75.058 13.5096 1014 158.981 1083.4 470.995
66 0 78.1329 13.5282 1057 158.935 1083.57 470.053
67 0 80.081 13.9359 1116 162.959 1084.32 468.181
68 0 83.0949 13.635 1133 163.063 1084.51 467.757
69 0 85.1174 13.9807 1190 156.72 1084.14 465.552
70 0 88.1508 13.7605 1213 158.251 1083.87 465.173
71 0 91.0726 13.9559 1271 164.464 1083.96 464.14
72 0 94.0292 13.9531 1312 161.901 1083.9 462.289
73 0 95.0877 14.0502 1336 166.416 1083.8 461.356
74 0 100.302 13.7984 1384 164.151 1083.36 458.853
75 0 104.423 13.905 1452 164.146 1082.88 456.784
76 1 56.2186 12.9317 727 158.484 1082.52 480.216
77 0 58.1448 12.8472 747 162.278 1082.2 479.965
78 0 60.0834 13.0818 786 157.86 1082.21 479.001
79 0 62.0335 13.1703 817 157.968 1082.45 476.989
80 0 64.1151 13.0547 837 161.166 1082.28 476.848
81 0 66.0501 13.1567 869 161.794 1082.12 475.795
82 0 67.0965 13.3986 899 164.969 1082.16 474.537
83 0 70.0531 13.2614 929 160.181 1082.33 472.956
84 0 73.1008 13.584 993 164.744 1082.01 472.607
85 0 75.0992 13.3423 1002 163.679 1082.13 471.062
86 0 78.048 13.5429 1057 161.396 1081.83 470.077
87 0 80.0701 13.4382 1076 172.57 1081.76 469.601
88 0 83.1591 13.5403 1126 170.75 1081.91 467.961
89 0 86.0809 13.6267 1173 169.892 1081.5 466.696
90 0 89.137 13.6307 1215 164.877 1081.82 464.35
91 0 91.118 13.51 1231 167.656 1081.7 463.496
92 1 48.0378 11.9281 573 164.316 1081.99 485.449
93 0 50.0316 12.3122 616 159.782 1081.51 484.417
94 0 50.0955 12.9353 648 165.461 1080.77 483.877
95 0 54.0819 12.6105 682 167.045 1080.96 483.072
96 0 55.0331 12.9195 711 166.252 1080.83 482.752
97 0 57.0772 12.9824 741 160.708 1080.66 481.934
98 0 57.0389 13.0788 746 170.629 1079.9 481.141
99 0 59.0257 13.4518 794 169.941 1080.68 480.139
100 0 63.0537 12.9889 819 167.457 1080.46 479.902
101 0 65.1319 13.1886 859 169.513 1080.06 479.052
102 0 67.0683 13.2701 890 164.16 1080.29 477.793
103 0 68.1414 13.3693 911 171.13 1080.8 476.105
104 0 70.1101 13.8497 971 169.02 1081.07 474.982
105 0 74.2205 13.3117 988 166.818 1081.18 473.442
106 0 78.0718 13.2955 1038 166.719 1081.25 472.168
107 0 79.0704 13.3046 1052 170.016 1080.75 471.243
108 0 83.1275 13.2567 1102 165.064 1080.56 469.172
109 0 84.1767 13.2697 1117 165.253 1080.77 468.75
110 0 90.1662 13.1757 1188 170.58 1080.61 466.309
111 0 92.1418 12.9908 1197 169.304 1080.96 464.595
112 1 50.0373 12.3308 617 166.746 1080.07 485.42
113 0 51.039 12.8529 656 169.517 1080.53 484.529
114 0 53.0621 12.7209 675 167.071 1080.62 483.585
115 0 54.0636 12.9292 699 165.808 1080.44 483.183
116 0 55.0581 13.0226 717 164.052 1080.7 482.34
117 0 56.1522 13.0538 733 164.843 1080.45 481.84
118 0 59.113 12.806 757 172.872 1081.18 480.684
119 0 60.1936 13.5729 817 160.06 1080.87 478.98
120 0 63.0952 13.0121 821 160.048 1080.48 477.943
121 0 63.2269 13.4278 849 167.037 1080.96 477.266
122 0 66.2704 13.5958 901 165.368 1080.54 475.183
123 0 70.1459 13.0585 916 169.139 1080.9 474.549
124 0 71.2202 13.6057 969 164.958 1080.62 473.195
125 0 73.2365 13.5178 990 165.186 1080.52 472.256
126 0 76.2099 13.5809 1035 162.317 1080.65 470.822
127 0 80.2417 13.5964 1091 170.291 1080.93 468.478
128 0 81.2082 13.5454 1100 167.739 1080.9 466.866
129 0 85.2881 13.472 1149 167.272 1081.11 465.793
130 0 87.1753 13.4786 1175 169.943 1081.23 464.405
131 0 90.1582 13.2656 1196 172.125 1081.45 463.227
132 1 49.0735 12.4303 610 172.154 1081.52 483.959
133 0 50.0859 13.0775 655 164.168 1081.72 482.762
134 0 53.0181 12.5995 668 171.031 1082.28 481.74
135 0 53.1176 13.0465 693 172.67 1082.27 480.195
136 0 55.0503 12.752 702 172.269 1082.47 479.578
137 0 57.1056 12.8884 736 164.508 1082.4 478.999
138 0 60.0758 13.15 790 171.776 1082.66 477.465
139 0 61.0488 12.6948 775 164.439 1082.65 476.672
140 0 63.0535 13.0683 824 171.927 1083.07 476.073
141 0 64.1455 13.4538 863 169.611 1083.25 474.689
142 0 65.1662 13.55 883 168.249 1083.38 473.339
143 0 68.0893 13.3795 911 174.109 1083.57 471.717
144 0 71.0771 13.5909 966 165.374 1083.57 469.541
145 0 74.2244 13.3649 992 169.785 1083.74 468.127
146 0 74.2219 13.5135 1003 164.902 1083.94 466.232
147 0 78.1863 13.6597 1068 167.128 1084.33 464.772
148 0 81.282 13.5331 1100 155.165 1085.36 463.878
149 0 85.2138 13.0965 1116 163.046 1085.69 461.415
150 0 88.2626 13.3465 1178 158.067 1085.58 459.974
151 0 91.2074 13.2665 1210 167.542 1085.73 458.673
152 1 48.1091 11.5986 558 161.115 1085.63 480.349
153 0 49.0412 11.8064 579 160.123 1085.55 478.756
154 0 51.1356 12.3984 634 160.834 1085.85 479.062
155 0 53.1254 12.4987 664 164.462 1086.17 478.117
156 0 52.0657 13.0988 682 154.311 1086.05 477.966
157 0 55.0722 12.6561 697 161.786 1086.69 476.082
158 0 58.0875 12.55 729 156.643 1086.76 474.988
159 0 59.1491 12.7982 757 155.554 1086.28 473.762
160 0 61.1788 12.6678 775 153.738 1086.9 472.766
161 0 62.0549 12.8112 795 157.483 1086.77 471.688
162 0 64.0366 12.8208 821 160.124 1087.33 471.301
163 0 64.0419 13.4131 859 153.888 1087.25 470.435
164 0 67.1138 13.261 890 160.488 1087.55 469.633
165 0 70.0599 13.3457 935 156.814 1087.45 468.288
166 0 71.2286 13.3373 950 160.914 1087.39 466.769
167 0 73.1458 13.4799 986 164.124 1087.48 465.27
168 0 79.0794 13.2525 1048 155.688 1087.54 463.35
169 0 81.2244 12.9764 1054 156.842 1087.58 461.871
170 0 82.1683 13.1316 1079 154.23 1087.29 460.399
171 0 86.0798 13.0112 1120 158.563 1087.28 459.411
172 0 88.0767 13.1817 1161 148.463 1087.28 458.127
173 0 93.1101 12.9094 1202 151.824 1087.96 455.724
174 1 47.0153 11.5494 543 148.648 1088.21 476.82
175 0 51.0627 11.7503 600 157.213 1087.84 476.433
176 0 50.0183 12.1755 609 147.217 1088.53 474.762
177 0 53.1162 12.4632 662 149.524 1088.21 473.157
178 0 55.086 12.5259 690 152.874 1088.86 472.194
179 0 57.1019 12.5915 719 155.289 1089.03 472.488
180 0 58.0515 12.575 730 154.91 1088.66 471.263
181 0 60.039 12.5418 753 148.028 1088.74 469.75
182 0 62.0526 12.6022 782 154.207 1088.68 468.506
183 0 63.0574 12.8771 812 146.534 1088.75 467.202
184 0 66.114 12.9171 854 149.715 1088.88 466.323
185 0 66.0642 13.0025 859 150.342 1088.51 465.854
186 0 71.111 12.6 896 151.996 1088.26 465.283
187 0 73.1287 13.0865 957 158.145 1088.47 463.745
188 0 75.1096 13.2739 997 158.139 1088.73 462.382
189 0 78.1913 13.6076 1064 146.369 1088.29 461.006
190 0 81.1184 13.4618 1092 155.455 1088.56 459.637
191 0 84.1966 13.0171 1096 151.533 1088.48 459.059
192 0 88.2212 12.9221 1140 152.586 1088.38 457.246
193 0 91.1101 12.9294 1178 159.37 1088.26 455.683
194 0 95.2259 13.1057 1248 158.701 1088.53 453.853
195 1 52.0551 11.4878 598 158.157 1088.34 475.467
196 0 52.031 11.9929 624 156.176 1087.98 474.245
197 0 54.047 12.7297 688 158.429 1087.95 473.289
198 0 56.1063 12.1911 684 163.333 1087.76 473.265
199 0 57.0589 12.7587 728 160.353 1087.53 472.199
200 0 61.0376 12.5824 768 163.344 1087.62 471.742
201 0 62.0373 12.8632 798 154.352 1087.85 470.99
202 0 63.0675 12.8275 809 164.68 1087.77 470.566
203 0 66.0498 12.5511 829 168.598 1087.19 469.362
204 0 69.0187 12.953 894 167.067 1087.12 467.295
205 0 72.0394 12.5487 904 166.523 1087.34 466.616
206 0 73.072 12.8914 942 160.27 1087.05 464.451
207 0 76.0562 12.5434 954 163.779 1087.46 464.688
208 0 78.066 12.9121 1008 166.778 1086.99 462.952
209 0 81.051 12.8191 1039 152.825 1087 461.54
210 0 83.1179 13.1259 1091 155.371 1086.91 459.827
211 0 85.0704 13.0128 1107 169.472 1086.9 459.794
212 0 87.0686 13.1735 1147 164.054 1086.8 458.126
213 0 93.0657 13.0875 1218 161.34 1086.96 456.314
214 0 95.1254 12.8988 1227 166.765 1086.85 455.5
215 0 98.2262 12.6952 1247 160.143 1086.47 453.747
216 1 51.0685 11.2398 574 151.875 1085.95 476.634
217 0 53.0473 11.3484 602 155.538 1085.71 476.153
218 0 56.2065 11.5645 650 151.114 1085.64 474.948
219 0 57.2132 12.0602 690 148.077 1085.24 474.893
220 0 59.0963 11.862 701 152.999 1085.46 473.78
221 0 61.1431 12.3317 754 149.41 1085.32 472.637
222 0 61.0904 12.1787 744 146.155 1085.49 472.282
223 0 66.1655 12.1665 805 151.309 1085.47 470.578
224 0 66.1422 12.4883 826 144.366 1085.18 469.242
225 0 70.1668 12.4133 871 148.828 1084.72 467.642
226 0 73.1325 12.4705 912 146.921 1085.1 466.128
227 0 75.2058 12.6985 955 144.408 1085.14 464.703
228 0 77.1761 12.9315 998 147.444 1085.09 464.363
229 0 79.1762 13.1479 1041 147.365 1085.27 462.759
230 0 83.1346 13.015 1082 147.34 1084.83 461.764
231 0 87.171 12.573 1096 150.241 1084.69 460.222
232 0 89.2426 12.7966 1142 149.972 1084.91 459.822
233 0 93.2126 12.67 1181 152.601 1085.47 458.112
234 1 46.0836 10.8498 500 156.192 1085.36 482.062
235 0 48.0732 11.4409 550 158.549 1084.97 480.635
236 0 51.0532 12.2617 626 149.347 1084.62 479.133
237 0 53.0477 11.9138 632 149.652 1084.52 477.824
238 0 55.0268 12.2849 676 158.012 1084.18 476.238
239 0 56.0497 12.3283 691 156.375 1084.47 476.171
240 0 57.0306 12.3092 702 149.862 1084.29 475.067
241 0 60.1123 12.4434 748 155.393 1084.38 474.151
242 0 61.0847 12.5072 764 156.551 1084.74 473.065
243 0 63.0765 12.9525 817 153.98 1084.73 472.677
244 0 66.0983 12.7689 844 156.308 1085.44 471.38
245 0 68.125 13.3284 908 162.319 1085.96 470.342
246 0 69.0917 13.359 923 171.718 1086.15 469.545
247 0 73.0709 13.3569 976 167.08 1086.33 468.75
248 0 75.2399 13.1579 990 168.014 1086.12 468.439
249 0 73.2068 13.8102 1011 169.37 1086.25 467.434
250 0 79.2419 13.503 1070 169.893 1086.02 466.29
251 0 80.1246 13.6787 1096 172.411 1086.16 465.029
252 0 83.0784 13.8544 1151 171.256 1086.19 462.692
253 0 86.1139 13.7028 1180 166.105 1086.88 461.462
254 0 90.2121 13.6013 1227 175.997 1087.02 461.079
255 0 92.087 13.7804 1269 163.865 1086.75 459.393
256 0 94.1239 13.9072 1309 173.38 1086.96 457.052
257 0 98.4513 13.6108 1340 165.776 1087.2 454.349
258 1 50.0876 12.8974 646 167.416 1087.29 477.884
259 0 52.2862 13.1584 688 169.888 1087.83 477.257
260 0 53.1366 13.2301 703 166.885 1087.9 476.063
261 0 54.1907 13.6186 738 166.927 1087.97 476.419
262 0 56.1828 13.6163 765 168.848 1088.36 475.095
263 0 59.18 13.366 791 169.043 1088.33 473.671
264 0 60.3583 13.5855 820 169.36 1088.32 472.585
265 0 64.1619 13.2789 852 168.018 1088.08 471.093
266 0 64.2069 13.8926 892 171.127 1088.69 469.622
267 0 66.1995 13.8974 920 170.972 1089.08 468.303
268 0 70.1443 13.4152 941 168.284 1089.2 467.587
269 0 73.2669 13.9354 1021 168.954 1089.51 465.051
270 0 76.4411 13.6707 1045 170.353 1089.68 463.782
271 0 79.3492 13.4343 1066 170.582 1089.75 462.802
272 0 81.2919 13.7406 1117 170.45 1089.66 460.764
273 0 85.4378 13.4133 1146 166.874 1089.81 458.846
274 0 87.3214 13.9599 1219 166.658 1090.24 457.081
275 0 91.433 13.4306 1228 166.343 1090.21 453.929
276 0 94.5555 13.463 1273 166.813 1090.33 452.87
277 1 49.1144 12.5829 618 172.241 1090.89 473.382
278 0 50.3574 12.9673 653 171.322 1090.88 471.988
279 0 53.5482 13.2404 709 168.02 1090.9 471.181
280 0 52.2236 13.6528 713 159.721 1090.31 470.729
281 0 53.327 13.6516 728 167.28 1090.26 470.173
282 0 56.1045 13.8135 775 166.916 1090.24 469.102
283 0 59.3285 13.4842 800 170.599 1090.33 468.501
284 0 60.3678 13.7988 833 172.389 1090.07 466.844
285 0 64.392 13.2315 852 171.285 1090.37 465.236
286 0 66.2276 13.212 875 168.305 1090.3 463.229
287 0 68.407 13.6974 937 167.222 1090.25 461.464
288 0 70.2511 13.5229 950 174.212 1090.38 461.214
289 0 73.4161 13.1034 962 171.065 1090.03 460.491
290 0 74.3378 13.8691 1031 166.812 1090.16 459.818
291 0 79.2089 13.6853 1084 169.516 1089.7 458.335
292 0 82.3507 13.3332 1098 164.75 1090.04 456.676
293 0 85.1943 13.3694 1139 167.291 1089.78 456.177
294 0 85.1976 13.6389 1162 167.35 1089.64 455.785
295 1 46.0954 11.9969 553 170.316 1089.86 475.817
296 0 47.1035 12.4619 587 159.302 1089.43 474.501
297 0 48.2473 12.125 585 172.323 1089.07 474.629
298 0 50.1262 12.8476 644 165.054 1088.78 473.71
299 0 51.0672 13.2375 676 163.068 1089.05 473.732
300 0 52.0923 12.5354 653 170.727 1088.68 473.39
301 0 53.0822 13.6016 722 173.194 1089.12 472.104
302 0 56.0647 13.3774 750 170.911 1089.03 471.083
303 0 57.0184 13.0835 746 166.34 1089.2 469.532
304 0 58.0987 13.2533 770 165.687 1089.37 468.642
305 0 63.1876 13.1197 829 163.248 1089.14 467.049
306 0 64.0646 13.2366 848 169.021 1088.73 466.33
307 0 66.0782 12.7425 842 160.291 1088.51 465.998
308 0 68.061 13.3263 907 169.38 1088.81 465.022
309 0 71.0719 13.1838 937 164.718 1088.68 463.72
310 0 72.2924 12.8782 931 163.251 1088.75 462.756
311 0 76.4458 12.6495 967 164.203 1088.6 462.157
312 1 41.269 11.001 454 160.771 1087.28 479.828
313 0 41.2624 10.615 438 155.605 1087.27 479.587
314 0 42.2281 11.059 467 155.587 1086.96 479.685
315 0 43.2665 10.8167 468 148.895 1086.72 479.532
316 0 44.2601 10.7094 474 153.26 1086.62 478.62
317 0 47.2515 11.0896 524 151.794 1086.16 477.353
318 0 48.1866 11.6007 559 152.549 1086.24 476.805
319 0 49.1476 10.8856 535 144.23 1085.54 476.484
320 0 50.225 11.2295 564 148.867 1085.72 475.777
321 0 51.1787 11.4892 588 150.716 1086.11 475.503
322 0 53.1732 11.3215 602 146.46 1086.06 474.512
323 0 55.0965 11.3619 626 148.323 1085.88 474.086
324 0 55.1537 11.5858 639 142.423 1085.84 472.653
325 0 57.1464 11.4968 657 155.536 1086.07 472.082
326 0 60.1053 11.3301 681 149.059 1086.04 471.189
327 0 63.1153 11.3918 719 147.287 1086.11 470.097
328 0 65.1912 11.3052 737 145.906 1085.3 469.145
329 0 66.1044 11.6029 767 147.627 1085.75 469.068
330 0 68.0673 11.8265 805 148.416 1086.07 467.149
331 0 72.1168 11.7587 848 150.724 1086.69 466.388
332 0 75.0632 11.5503 867 145.443 1086.64 464.931
333 0 77.0821 11.3386 874 149.932 1086.42 463.492
334 0 80.1216 11.7696 943 143.75 1086.17 461.489
335 1 44.0614 10.7123 472 146.422 1086.33 480.489
336 0 47.0973 10.4252 491 139.012 1085.63 478.719
337 0 48.0828 11.3762 547 138.366 1085.29 477.36
338 0 50.1712 11.3611 570 145.005 1085.45 477.346
339 0 52.1734 11.2701 588 146.053 1085.66 476.337
340 0 55.1844 11.4887 634 142.628 1085.88 474.637
341 0 54.1333 11.8781 643 145.961 1085.69 474.631
342 0 56.2294 11.5064 647 140.995 1085.89 473.725
343 0 60.2178 11.5248 694 141.535 1085.16 472.572
344 0 59.1253 12.0591 713 124.994 1085.43 472.087
345 0 63.1471 11.4336 722 138.217 1085.99 471.42
346 0 63.1398 11.8784 750 136.835 1085.43 470.708
347 0 65.0804 12.3232 802 132.854 1085.43 469.162
348 0 66.1289 11.6137 768 131.548 1084.79 469.001
349 0 69.2294 11.8447 820 137.026 1084.39 468.139
350 0 70.1073 12.2669 860 137.797 1085.05 466.824
351 0 72.1124 12.0506 869 137.749 1084.61 465.336
352 1 37.0304 8.69557 322 132.357 1084.89 483.68
353 0 39.0121 9.04847 353 138.765 1085.81 482.807
354 0 38.0906 9.34614 356 135.213 1084.69 483.854
355 0 43.0737 9.23997 398 136.482 1084.88 481.681
356 0 40.0517 10.2118 409 134.885 1084.86 480.888
357 0 42.1538 10.3193 435 140.205 1084.84 480.853
358 0 45.0181 9.72941 438 135.598 1084.62 480.167
359 0 47.0469 10.6915 503 132.66 1085.38 479.338
360 0 48.0211 11.4117 548 132.88 1085.7 477.717
361 0 48.1587 12.002 578 140.439 1085.39 477.815
362 0 51.3694 11.466 589 134.244 1085.22 476.531
363 0 52.2635 11.2698 589 138.98 1085.36 475.954
364 0 54.2357 11.6528 632 143.288 1085.57 475.22
365 0 56.1483 12.3245 692 142.337 1085.9 473.936
366 0 58.1166 12.1824 708 147.845 1085.77 474.034
367 0 60.1958 11.8779 715 142.422 1086.28 472.924
368 0 62.1274 12.4744 775 155.462 1086.26 472.25
369 0 61.2972 12.8064 785 152.55 1086.2 471.206
370 0 64.3114 12.4395 800 152.304 1086.31 470.49
371 0 66.3043 12.9102 856 155.012 1086.1 469.222
372 0 68.4909 12.7462 873 147.743 1086.87 467.181
373 0 71.3467 12.8107 914 155.22 1086.83 466.005
374 0 72.1995 12.6317 912 160.625 1086.88 465.395
375 0 76.3173 12.9722 990 154.006 1087.28 462.999
376 0 80.6067 12.9518 1044 160.131 1086.98 460.966
377 0 82.4447 12.9663 1069 166.055 1086.89 459.125
378 0 85.3314 13.3245 1137 164.087 1087.38 457.159
379 1 43.1836 11.6711 504 161.98 1087.49 479.036
380 0 46.0624 12.3311 568 155.324 1087.88 477.894
381 0 48.0833 11.7712 566 162.152 1087.78 477.981
382 0 48.0879 12.2276 588 159.679 1088.18 476.888
383 0 50.1243 12.1697 610 163.521 1088.29 476.269
384 0 50.1229 13.028 653 161.645 1088.64 474.005
385 0 52.1138 12.6838 661 166.505 1088.5 473.871
386 0 54.126 12.4894 676 159.67 1088.07 473.79
387 0 54.1197 13.3778 724 162.876 1088.24 472.09
388 0 55.1012 13.4298 740 161.854 1088.01 471.231
389 0 58.1528 13.3442 776 164.765 1088.2 470.178
390 0 59.2569 13.1124 777 159.059 1088.06 469.39
391 0 63.352 12.8488 814 155.925 1088.16 468.075
392 0 62.2595 12.9297 805 161.947 1087.46 468.127
393 0 66.5092 12.8403 854 156.602 1087.9 465.071
394 0 66.2531 12.8749 853 160.334 1087.99 465.172
395 0 68.2036 13.0198 888 161.899 1087.97 463.972
396 0 70.4149 13.3352 939 149.682 1088.62 462.159
397 0 73.2886 13.058 957 153.399 1088.5 460.48
398 0 76.4465 12.9895 993 152.136 1088.69 459.727
399 0 79.4438 12.8519 1021 151.596 1088.51 458.699
400 1 42.2437 10.9839 464 154.459 1088.77 476.929
401 0 43.3915 11.2925 490 153.535 1088.28 475.343
402 0 45.0749 11.6916 527 145.425 1087.79 477.915
