index division length width area intensity CMx CMy
3637 0 81.178 14.5729 1183 80.8284 1327.66 286.664
3638 0 82.1762 14.6514 1204 78.7118 1327.46 289.735
3639 0 86.2436 14.5982 1259 75.8618 1327.34 291.766
3640 0 89.1864 14.2062 1267 74.1129 1327.2 294.021
3641 0 93.1787 14.821 1381 77.2744 1327.05 296.145
3642 0 95.161 14.7434 1403 74.1575 1327.46 294.671
3643 0 100.118 14.2931 1431 70.5318 1327.11 295.606
3644 0 102.293 14.1163 1444 79.9044 1326.88 297.812
3645 0 102.293 14.1163 1444 143.039 1325.88 297.812
3646 1 18.0367 3.49288 63 75.8413 1325.22 346.302
3647 0 25.0113 6.71696 168 73.7202 1327.19 348.345
3648 1 61.1027 13.2727 811 74.3231 1326.97 336.538
3649 0 62.1235 13.8273 859 74.1315 1326.87 339.001
3650 0 66.1086 13.614 900 74.0644 1327.24 342.301
3651 0 69.0624 13.6254 941 73.3029 1326.87 344.957
3652 0 70.0751 14.2847 1001 72.041 1326.79 348.21
3653 0 72.1117 13.7287 990 70.4323 1326.71 350.766
3654 0 75.1148 13.4993 1014 74.9418 1326.39 354.803
3655 0 78.0818 13.6396 1065 74.6038 1326.65 358.681
3656 0 81.0427 13.2153 1071 74.0383 1326.86 361.556
3657 0 84.0679 13.7865 1159 78.0104 1326.58 365.274
3658 0 87.0849 13.6878 1192 78.0646 1325.89 366.861
3659 0 90.1298 13.6803 1233 79.472 1326.29 370.864
3660 1 46.0178 11.3869 524 73.3931 1326.98 394.891
3661 0 47.069 12.4073 584 71.6849 1326.47 397.842
3662 0 49.1523 12.8783 633 72.2543 1325.64 401.076
3663 0 50.1779 12.5354 629 63.9825 1325.48 403.868
3664 0 52.1742 12.6691 661 66.2632 1325.67 408.797
3665 0 54.1176 12.5098 677 68.0103 1324.98 412.777
3666 0 56.1403 12.4331 698 68.2622 1325.01 416.295
3667 0 57.0854 13.1557 751 68.6618 1324.31 419.83
3668 0 60.1213 13.4728 810 66.9951 1324.77 423.927
3669 0 63.1489 13.9828 883 69.2242 1324.06 428.399
3670 0 65.196 13.7125 894 67.9038 1323.88 430.309
3671 0 64.1909 13.2573 851 72.2996 1323.69 432.012
3672 0 68.1033 14.0375 956 68.9467 1323.61 435.595
3673 0 71.1524 13.6889 974 69.6961 1323.51 439.388
3674 0 72.1086 13.6045 981 71.2966 1323.93 443.516
3675 0 73.3206 13.3932 982 74.2729 1323.82 448.309
3676 0 76.3102 12.7113 970 69.1577 1324.11 451.522
3677 1 41.1432 8.67702 357 70.3501 1324.04 475.992
3678 0 42.1213 8.54674 360 74.5667 1324.01 482.033
3679 0 41.0508 9.89019 406 75.9409 1324.57 487.404
3680 0 44.2161 9.81543 434 75.4171 1324.14 490.53
3681 0 44.2226 10.7185 474 74.8059 1323.24 495.743
3682 0 43.1234 10.5047 453 71.426 1322.81 494.861
3683 0 46.1081 11.4947 530 73.2321 1323.49 494.747
3684 0 49.1512 10.3558 509 74.9175 1323.11 493.613
3685 0 50.1484 10.9276 548 72.5128 1323.62 492.478
3686 0 47.1709 10.5785 499 75.5611 1323.32 493.004
3687 0 51.2403 11.1436 571 71.4028 1323.74 491.268
3688 0 53.1926 11.9377 635 69.2567 1323.53 489.836
3689 0 55.1216 11.7921 650 75.7508 1323.33 489.757
3690 0 58.2112 11.8362 689 74.1524 1324.11 487.612
3691 0 57.2247 11.7781 674 73.6973 1324.17 487.003
3692 0 62.341 12.3514 770 70.1792 1324.63 485.153
3693 0 60.2857 12.4076 748 71.9532 1324.32 484.481
3694 0 64.2844 12.3358 793 74.3897 1324.5 484.547
3695 0 67.3352 11.7472 791 64.9305 1324.95 483.479
3696 0 68.3513 13.1087 896 63.3404 1325.52 481.989
3697 0 71.3439 12.3486 881 66.2327 1325.36 479.787
3698 0 71.4151 12.6584 904 69.9093 1325.71 479.382
3699 0 75.4493 12.4852 942 62.5223 1326.21 477.193
3700 0 74.4938 12.8467 957 75.7544 1325.78 476.456
3701 0 78.413 12.5107 981 72.8726 1326.3 475.973
3702 0 81.475 13.096 1067 70.6176 1326.83 473.804
3703 0 86.4466 13.0717 1130 75.0398 1327.28 472.89
3704 0 88.4357 13.5805 1201 79.7602 1327.26 471.694
3705 1 49.0761 10.5754 519 80.6378 1326.21 492.882
3706 0 48.03 11.8884 571 49.8529 1326.94 492.336
3707 0 52.025 11.8789 618 78.0874 1326.67 492.01
3708 0 51.0279 12.1894 622 80.8521 1326.99 491.317
3709 0 51.0708 11.5918 592 82.3091 1327.36 490.272
3710 0 56.0706 11.9314 669 78.7459 1327.34 488.871
3711 0 56.0352 12.3851 694 75.8919 1327.22 488.295
3712 0 58.0909 12.8592 747 73.9344 1327.73 487.126
3713 0 59.0748 12.5942 744 73.6909 1327.86 486.29
3714 0 61.091 11.9821 732 77.3183 1327.75 485.254
3715 0 66.0975 13.0262 861 76.3635 1328.01 485.022
3716 0 66.061 12.5793 831 78.1841 1327.94 485.078
3717 0 68.1225 12.7858 871 80.5832 1327.76 483.635
3718 0 70.1369 12.8321 900 82.4322 1327.57 481.687
3719 0 70.2145 12.2055 857 78.5473 1326.8 480.889
3720 0 73.0997 12.1888 891 81.5163 1327.06 478.743
3721 0 74.0746 11.9204 883 81.8448 1327.4 477.442
3722 0 77.1474 12.2233 943 80.7147 1327.7 475.275
3723 0 78.1759 11.7555 919 81.3874 1327.48 473.976
3724 0 84.2327 11.9075 1003 80.4616 1327.81 475.065
3725 0 85.0913 12.1634 1035 81.0676 1328.02 473.688
3726 0 88.1695 12.3512 1089 76.9357 1327.77 472.407
3727 0 90.1486 12.069 1088 82.1857 1328.07 469.82
3728 0 91.2334 11.498 1049 82.8379 1328.09 467.651
3729 0 89.2136 8.4292 752 86.8298 1327.83 467.815
3730 0 99.2436 12.3232 1223 81.0785 1327.36 465.625
3731 0 99.2436 12.3232 1223 129.81 1326.36 465.625
3732 0 107.137 10.4446 1119 80.345 1327.3 460.145
3733 0 108.333 10.8185 1172 76.8498 1326.97 460.837
3734 1 56.0675 11.4683 643 75.7232 1326.84 488.434
3735 0 58.1249 11.1828 650 73.7323 1326.95 486.6
3736 0 61.1121 11.7653 719 72.7149 1326.84 484.298
3737 0 62.1239 12.2336 760 74.5447 1326.5 483.446
3738 0 64.0873 12.0773 774 71.8269 1326.08 483.46
3739 0 67.1187 12.9472 869 74.3038 1325.87 482.745
3740 0 67.1187 12.9472 869 128.57 1325.87 482.745
3741 0 71.0396 12.9364 919 75.8466 1325.75 480.962
3742 0 74.094 12.6461 937 77.7353 1325.9 478.588
3743 0 67.0818 8.69088 583 84.6998 1326.26 483.892
3744 0 80.0687 12.4393 996 77.738 1325.93 476.671
3745 0 83.1126 13.4637 1119 72.773 1326.15 475.366
3746 1 39.0604 9.16528 358 79.9469 1326.04 497.134
3747 0 42.0263 9.51784 400 79.665 1325.9 497.12
3748 0 45.0558 9.74347 439 83.041 1324.92 494.661
3749 0 46.0293 9.60258 442 81.9344 1324.94 495.034
3750 0 48.0433 10.1991 490 79.0061 1324.54 492.653
3751 0 48.0312 10.8888 523 79.086 1324.65 491.853
3752 0 51.0617 9.88999 505 76.1842 1324.83 491.127
3753 0 53.07 11.3623 603 74.4129 1324.76 492.637
3754 0 54.1245 12.0093 650 72.6477 1323.75 490.843
3755 0 55.1836 12.0144 663 71.9487 1324.01 490.659
3756 0 57.231 12.0914 692 74.8353 1323.61 490.357
3757 0 59.3275 11.9843 711 72.4613 1324.21 488.447
3758 0 59.1223 11.8229 699 72.4349 1323.49 488.728
3759 0 63.1194 12.7061 802 68.7007 1323.35 487.283
3760 0 63.1895 11.236 710 74.3577 1323.52 484.511
3761 0 66.1631 11.9402 790 73.5684 1323.65 485.344
3762 0 70.1761 12.0696 847 74.2102 1324.1 483.645
3763 0 71.1941 11.8549 844 76.859 1324.35 482.945
3764 0 75.1916 12.1556 914 74.4158 1323.69 482.441
3765 0 77.0869 11.74 905 75.7735 1323.56 481.101
3766 1 151.3 11.2756 1706 80.381 1324.4 433.509
3767 1 68.0963 4.17057 284 81.662 1323.43 487.768
3768 0 85.2845 12.6752 1081 69.5837 1323.82 475.633
3769 0 87.5917 13.7684 1206 67.9925 1324.25 471.837
3770 0 87.5917 13.7684 1206 126.985 1325.25 471.837
3771 0 89.3032 10.078 900 74.6622 1324.17 471.254
3772 0 88.4738 7.44853 659 83.7071 1324.33 471.707
3773 0 98.6103 11.6824 1152 78.2309 1324.11 468.694
3774 0 101.347 11.4754 1163 75.773 1324.07 466.681
3775 0 104.528 11.5376 1206 79.6658 1323.91 464.262
3776 0 107.46 11.4741 1233 79.9359 1323.83 464.762
3777 0 110.399 11.9204 1316 78.9742 1323.47 462.875
3778 0 113.689 11.4611 1303 75.3062 1323.48 461.007
3779 0 116.456 11.7297 1366 73.6589 1323.22 460.177
3780 0 119.326 12.2605 1463 74.4969 1323.22 456.657
3781 0 123.49 12.3897 1530 69.532 1323.56 456.456
3782 1 60.1025 8.93474 537 79.8939 1322.64 487.469
3783 0 67.0976 12.0571 809 73.3313 1322.46 486.649
3784 0 68.1513 11.7386 800 76.2312 1322.56 485.172
3785 0 72.2234 12.669 915 71.7705 1322.89 483.558
3786 0 73.1001 11.9152 871 76.5178 1322.46 483.312
3787 0 73.1001 11.9152 871 128.905 1320.46 483.312
3788 1 39.1137 8.41137 329 81.9301 1322.23 500.31
3789 0 37.1218 8.10845 301 80.3953 1322.88 499.827
3790 0 41.0505 8.40429 345 81.0493 1321.45 500.246
3791 0 40.1777 9.30864 374 81.6444 1323.09 499.316
3792 0 43.114 9.69524 418 82.4163 1323.01 499.579
3793 0 44.1092 10.1339 447 82.1946 1322.16 498.166
3794 1 27.1404 6.63218 180 85.7889 1323.83 505.589
3795 0 29.154 5.2137 152 88.5395 1323.76 506.066
3796 0 29.0451 7.60885 221 89.095 1324.41 504.751
3797 1 51.2298 11.4582 587 82.4787 1322 495.257
3798 0 53.2971 11.7642 627 81.3126 1322.14 494.534
3799 0 54.1946 12.0492 653 84.2695 1322.44 493.067
3800 0 55.1965 12.3015 679 83.7599 1322.79 493.649
3801 0 57.2117 12.3401 706 84.6856 1322.75 492.045
3802 0 57.2406 12.4387 712 85.8399 1322.75 491.43
3803 0 60.3249 12.2669 740 86.4905 1322.87 490.131
3804 0 61.2171 13.0192 797 83.7478 1323.1 488.573
3805 0 60.3008 13.1342 792 82.2601 1323.23 487.199
3806 0 65.3058 13.2148 863 79.1321 1323.09 487.911
3807 0 66.2268 12.8649 852 81.4894 1322.98 486.413
3808 0 69.2595 12.9513 897 81.7748 1323.16 485.61
3809 0 70.2427 12.77 897 80.5262 1323.24 483.695
3810 0 73.2876 14.0133 1027 78.6816 1322.96 483.566
3811 0 75.3662 13.9054 1048 80.6803 1323.41 481.285
3812 0 74.3373 14.2324 1058 77.0992 1323.84 481.129
3813 0 81.3218 13.8708 1128 80.3138 1323.57 479.605
3814 0 84.3238 14.1004 1189 83.3389 1323.95 476.816
3815 0 84.3238 14.1004 1189 152.053 1324.95 476.816
3816 0 84.3238 14.1004 1189 152.053 1325.95 476.816
3817 0 92.4426 14.2359 1316 89.1672 1324.14 474.057
3818 0 96.5493 13.7028 1323 85.5457 1324.7 471.814
3819 0 98.597 13.6312 1344 95.9062 1324.76 468.999
3820 1 51.3702 11.6994 601 94.3461 1325.36 491.894
3821 0 53.1834 12.5791 669 89.3842 1325.45 491.478
3822 0 55.1986 12.5365 692 89.2124 1325.46 489.61
3823 0 56.126 13.0955 735 83.5673 1326.87 489.373
3824 0 55.0312 13.2834 731 86.4186 1326.69 488.777
3825 0 58.1608 13.3079 774 81.4044 1325.73 488.271
3826 0 60.1141 12.9587 779 83.3042 1326.41 487.578
3827 0 64.1037 13.7746 883 80.1325 1326.08 487.08
3828 0 65.1537 13.8595 903 87.7243 1325.55 485.666
3829 0 68.2626 14.0194 957 84.7994 1326.1 483.473
3830 0 68.2684 13.7838 941 87.1084 1326.87 482.136
3831 0 73.411 13.7581 1010 89.3713 1326.84 481.707
3832 0 75.251 14.0463 1057 88.1779 1326.64 480.958
3833 0 75.2829 13.9474 1050 81.12 1326.84 480.729
3834 0 78.3142 14.3907 1127 76.1739 1326.57 479.241
3835 0 82.2124 14.1585 1164 80.8153 1326.68 477.541
3836 0 85.3502 14.4464 1233 78.6148 1326.59 476.189
3837 0 87.395 15.0695 1317 9.75702 1326.56 474.141
3838 0 91.3903 13.3384 1219 75.781 1326.98 472.251
3839 0 93.2773 13.8941 1296 89.1535 1327 473.164
3840 0 97.2149 13.9176 1353 80.1633 1327.13 471.278
3841 1 51.1167 11.2292 574 82.9303 1327.52 494.2
3842 0 52.0972 11.2674 587 82.8416 1327.47 492.668
3843 0 55.2989 12.3149 681 78.2026 1326.83 490.079
3844 0 54.2225 12.2643 665 80.3729 1327.06 490.698
3845 0 56.0944 12.0333 675 80.0474 1327.18 490.744
3846 0 58.1539 12.3638 719 76.2615 1327.04 489.296
3847 0 60.1441 12.0211 723 79.87 1326.71 487.804
3848 0 63.1675 12.6173 797 75.6713 1326.84 487.483
3849 0 65.2226 13.2163 862 70.4234 1326.88 485.152
3850 0 66.1723 12.271 812 73.5936 1326.86 486.366
3851 0 68.1387 13.1496 896 76.6027 1326.39 483.45
3852 0 70.2358 12.6858 891 77.4007 1326.76 483.169
3853 0 74.2095 12.8959 957 78.4002 1326.12 480.377
3854 0 79.2649 13.0827 1037 80.1311 1326.28 478.145
3855 0 79.2135 13.1669 1043 82.9578 1326.29 477.926
3856 0 82.5184 13.597 1122 80.6408 1326.34 475.825
3857 0 85.255 13.6062 1160 80.8216 1325.99 474.497
3858 0 86.327 12.9855 1121 82.3568 1325.63 474.31
3859 0 91.4111 13.5432 1238 81.0137 1325.37 470.207
3860 1 46.3029 10.7769 499 84.6072 1324.81 492.533
3861 0 49.2397 11.1089 547 80.3309 1325.32 492.011
3862 0 52.1559 11.4656 598 80.9448 1325.3 490.975
3863 0 54.1861 12.7339 690 81.1217 1324.56 491.548
3864 0 56.139 12.5403 704 79.9261 1324.97 491.548
3865 0 55.1532 13.1815 727 81.4415 1324.26 491.669
3866 0 58.1617 12.6888 738 78.1165 1324.34 490.439
3867 0 58.2054 13.2118 769 84.5072 1323.98 489.841
3868 0 60.2311 12.7509 768 77.5612 1323.55 489.363
3869 0 60.1793 13.5262 814 77.7445 1324.16 488.851
3870 0 62.1349 13.2937 826 78.9407 1324.05 488.554
3871 0 65.1304 13.4192 874 75.6659 1323.91 486.101
3872 0 66.1526 13.2875 879 80.1706 1323.55 485.066
3873 0 66.1526 13.2875 879 145.862 1323.55 485.066
3874 0 70.1301 13.7601 965 81.3088 1323.41 484.232
3875 0 72.1543 13.3741 965 84.3907 1323.65 483.863
3876 0 75.1688 13.0373 980 88.9612 1323.59 482.532
3877 0 77.1843 13.6038 1050 97.1943 1323.86 482.231
3878 0 81.1642 13.6883 1111 100.056 1324.13 480.758
3879 0 84.1698 14.043 1182 98.1658 1324.13 479.8
3880 0 86.0798 13.987 1204 81.0548 1324.51 478.103
3881 0 88.1716 13.6325 1202 86.1373 1325.19 478.379
3882 0 91.233 14.3369 1308 102.382 1324.54 475.795
