index division length width area intensity CMx CMy
0 0 132.647 12.3033 1632 133.539 1162.66 398.141
1 0 131.956 12.5497 1656 136.285 1163.54 398.831
2 0 132.315 11.8052 1562 143.153 1162.47 401.858
3 0 138.138 12.4368 1718 137.721 1161.49 398.265
4 0 134.498 13.9407 1875 131.691 1161.35 395.545
5 0 136.001 14.2646 1940 130.064 1161.23 397.573
6 1 51.0596 12.5148 639 168.031 1159.48 433.042
7 0 53.0634 12.7772 678 167.755 1159.25 435.206
8 0 53.0136 13.091 694 173.114 1159.35 435.161
9 0 56.0364 12.8309 719 163.172 1159.03 435.142
10 0 57.0172 13.5573 773 166.342 1159.12 435.948
11 0 58.1 13.6489 793 167.884 1159.58 436.956
12 0 59.0529 13.6657 807 171.773 1160.08 437.799
13 0 62.0309 13.3321 827 171.568 1161.14 439.219
14 0 63.034 13.8655 874 170.754 1161.77 439.818
15 0 66.068 13.925 920 168.443 1162.92 440.903
16 0 68.1204 13.7551 937 164.683 1164.17 441.819
17 0 71.0955 13.4889 959 162.362 1165.23 443.346
18 0 73.0662 14.001 1023 170.905 1165.78 445.34
19 0 76.1015 13.7711 1048 169.172 1166.02 446.781
20 0 81.1251 13.8058 1120 169.197 1166.88 448.203
21 0 83.2581 13.9326 1160 171.827 1167.17 449.848
22 0 85.1992 13.6973 1167 170.478 1167.58 452.071
23 0 90.1322 13.7798 1242 171.056 1168.17 453.648
24 0 92.3132 13.8442 1278 171.251 1167.69 455.925
25 0 95.19 14.1717 1349 169.265 1168.49 459.128
26 0 97.1374 14.0831 1368 167.32 1169.28 461.569
27 0 99.1867 14.4777 1436 161.504 1168.83 463.653
28 1 54.0854 12.3138 666 165.527 1168.86 491.604
29 0 56.117 12.7591 716 164.425 1168.68 493.999
30 0 57.0548 14.0917 804 157.575 1168.9 499.558
31 0 59.1102 12.8066 757 168.082 1167.83 499.808
32 0 61.1228 13.0557 798 168.301 1167.64 499.414
33 0 63.1161 13.1028 827 166.167 1167.55 499.057
34 0 63.1725 13.5185 854 170.496 1166.61 497.883
35 0 67.1565 12.8804 865 160.519 1165.86 497.398
36 0 67.1726 13.9194 935 162.122 1165.31 495.978
37 0 72.0648 13.5572 977 165.171 1164.35 494.582
38 0 74.1114 13.3718 991 174.065 1164.36 493.007
39 0 75.131 13.8159 1038 173.769 1164.14 492.54
40 0 80.1349 13.3275 1068 174.728 1164 490.198
41 0 82.2853 13.6476 1123 170.4 1164.71 488.307
42 0 85.1633 13.4448 1145 170.289 1163.95 487.968
43 0 88.4055 13.6304 1205 175.08 1163.83 485.618
44 0 90.2152 13.8114 1246 173.082 1163.41 484.079
45 0 94.2645 13.3772 1261 162.977 1163.64 482.224
46 0 96.1911 13.7435 1322 171.971 1163.57 480.287
47 0 103.255 13.2971 1373 171.269 1163.02 478.964
48 1 53.227 12.2494 652 170.331 1162.38 502.408
49 0 54.0985 12.3294 667 165.396 1161.95 501.894
50 0 55.0993 12.5954 694 170.755 1162.39 501.402
51 0 58.0502 12.6615 735 168.475 1162.68 499.918
52 0 59.1311 12.6668 749 169.774 1162.73 499.907
53 0 62.1281 12.5708 781 171.581 1163.22 498.777
54 0 64.1179 12.6954 814 159.09 1163.27 496.565
55 0 65.1638 13.351 870 164.909 1163.78 495.93
56 0 69.0507 13.1642 909 166.257 1163.74 495.234
57 0 69.2058 13.5682 939 171.934 1163.8 493.45
58 0 73.1782 12.8317 939 165.622 1164.37 492.535
59 0 77.1197 13.5633 1046 168.349 1164.59 490.761
60 0 78.1435 13.3728 1045 168.286 1164.39 490.003
61 0 81.1245 13.1896 1070 167.719 1165.13 488.71
62 0 83.1262 13.281 1104 171.505 1165.28 487.435
63 0 88.2289 13.0909 1155 167.268 1165.56 486.45
64 0 90.163 12.9543 1168 167.526 1165.78 483.616
65 0 93.2202 13.1409 1225 166.313 1166.18 481.688
66 0 96.0971 13.0285 1252 161.64 1166.41 480.043
67 0 98.3839 13.1424 1293 164.542 1167.17 479.234
68 0 100.138 13.5013 1352 162.451 1167.16 477.196
69 1 51.2444 11.572 593 164.012 1167.4 501.911
70 0 51.149 12.1996 624 160.519 1166.98 502.098
71 0 54.0947 11.942 646 160.3 1166.04 501.707
72 0 54.1028 11.7184 634 159.358 1166.38 501.901
73 0 55.1011 12.2865 677 159.453 1166.34 500.799
74 0 58.1302 12.0419 700 157.923 1166.21 498.74
75 0 58.1562 12.3976 721 155.355 1165.7 498.689
76 0 60.0874 12.382 744 159.512 1165.11 497.382
77 0 64.0474 12.2878 787 160.802 1164.85 496.859
78 0 65.1496 12.2948 801 160.079 1164.62 495.734
79 0 67.1635 12.4919 839 164.436 1165.03 494.7
80 0 69.1317 12.7004 878 164.912 1164.74 493.615
81 0 71.1309 12.47 887 162.772 1164.64 492.563
82 0 71.2375 12.9286 921 161.144 1164.81 491.275
83 0 76.1723 12.4323 947 163.36 1164.75 489.865
84 0 76.2915 12.8586 981 162.128 1164.67 489.243
85 0 80.3797 12.6898 1020 159.118 1164.73 486.976
86 0 83.4517 12.5701 1049 164.155 1164.76 486.415
87 0 85.3842 12.6956 1084 158.069 1164.49 484.95
88 1 45.154 11.5383 521 155.491 1164.11 505.532
89 0 48.1355 11.6754 562 153.979 1164.26 505.109
90 0 49.2019 11.6865 575 155.57 1163.43 504.268
91 0 49.0718 11.4934 564 154.387 1162.8 504.037
92 0 50.0929 12.3171 617 160.616 1162.49 503.502
93 0 52.1567 12.194 636 163.659 1162.73 502.454
94 0 54.1258 12.1753 659 154.024 1161.71 501.983
95 0 55.1644 12.4718 688 160.099 1162.09 501.833
96 0 56.0921 12.5151 702 162.573 1161.98 501.192
97 0 59.2377 12.3908 734 157.738 1161.81 500.232
98 0 61.1307 12.1543 743 164.347 1162.03 500.089
99 0 63.2025 12.6103 797 164.795 1162.55 498.494
100 0 65.1863 12.7021 828 166.106 1162.64 497.781
101 0 68.215 12.6072 860 155.369 1162.54 495.537
102 0 69.2695 12.6318 875 155.161 1162.72 495.429
103 0 71.3513 13.2864 948 157.543 1163.14 494.918
104 0 74.5473 13.0924 976 164.083 1163.51 492.613
105 0 77.3955 12.5589 972 162.695 1163.64 491.698
106 0 78.4652 12.9994 1020 162.55 1163.31 490.703
107 0 83.3518 12.8611 1072 164.04 1163.05 489.785
108 0 85.504 12.6427 1081 162.387 1162.92 488.004
109 1 45.2172 10.8145 489 162.916 1163.5 508.082
110 0 46.0946 11.0859 511 156.986 1163.55 506.781
111 0 46.1411 11.6165 536 161.207 1162.57 506.315
112 0 48.0636 11.7552 565 153.634 1162.97 505.989
113 0 49.1422 12.006 590 156.851 1162.86 505.412
114 0 50.0886 11.879 595 163.287 1162.66 504.402
115 0 53.111 11.8996 632 157.13 1162.27 504.286
116 0 53.0926 11.6589 619 167.701 1162.33 504.094
117 0 56.038 11.7063 656 166.505 1162.13 502.2
118 0 57.2141 12.0949 692 166.171 1162.84 501.49
119 0 59.1058 12.08 714 162.326 1162.69 501.018
120 0 60.1786 12.2801 739 169.835 1162.44 500.263
121 0 62.1392 12.3111 765 175.588 1163.52 499.438
122 0 65.3415 12.1056 791 172.024 1162.62 498.046
123 0 66.2272 12.5628 832 170.119 1163.4 497.236
124 0 66.3266 12.8606 853 172.916 1163.4 495.162
125 0 70.342 12.4961 879 174.111 1163.4 494.769
126 0 72.2457 12.6651 915 172.536 1163.93 492.284
127 0 74.2258 12.5563 932 155.615 1164.27 489.9
128 0 78.2187 12.529 980 170.47 1163.99 489.443
129 0 81.386 12.8155 1043 162.63 1164.3 487.524
130 0 84.4669 12.6795 1071 167.066 1164 485.968
131 0 87.3712 12.7845 1117 159.803 1164.17 484.661
132 1 46.3092 11.3584 526 162.606 1163.89 505.025
133 0 48.1497 11.4019 549 159.37 1164.3 503.501
134 0 50.1611 11.6226 583 158.172 1164.69 502.587
135 0 50.067 12.1837 610 165.444 1163.42 502.011
136 0 51.0313 12.2278 624 159.005 1163.7 501.152
137 0 53.0719 11.8707 630 158.132 1163.78 500.483
138 0 55.0362 12.1556 669 157.426 1163.64 499.456
139 0 54.0428 12.4161 671 164.17 1163.55 498.966
140 0 58.0604 12.4698 724 163.819 1164.1 498.297
141 0 59.0394 12.6187 745 165.307 1164.35 498.047
142 0 61.1054 12.4048 758 156.569 1164.81 496.022
143 0 62.0857 12.4344 772 163.918 1164.82 495.608
144 0 65.0952 12.4894 813 159.036 1165.46 494.755
145 0 66.1058 12.6313 835 160.486 1165.7 492.861
146 0 69.1097 12.6176 872 161.135 1166 492.216
147 0 70.0497 12.9337 906 155.395 1166.79 490.811
148 0 72.0989 13.0376 940 155.407 1167.79 489.713
149 0 72.1884 12.9384 934 154.942 1168.66 489.123
150 0 76.1451 12.8833 981 155.36 1168.72 487.576
151 0 79.0923 13.1618 1041 151.95 1168.78 486.186
152 0 80.2983 13.3004 1068 149.987 1168.97 484.968
153 0 83.2311 13.1081 1091 154.742 1168.71 482.615
154 0 87.2658 12.7198 1110 147.78 1168.97 481.468
155 0 90.2547 12.8414 1159 155.336 1169.11 479.982
156 1 51.1135 11.6212 594 149.995 1169.02 498.588
157 0 50.1097 12.0935 606 147.848 1169.91 497.748
158 0 54.1365 11.5264 624 148.902 1169.26 496.777
159 0 54.1106 11.8831 643 144.439 1169 496.316
160 0 58.2456 11.7949 687 152.748 1169.95 495.029
161 0 59.1715 11.999 710 149.038 1170.28 494.289
162 0 58.1267 12.3695 719 151.113 1170.31 493.812
163 0 62.1438 12.3906 770 143.092 1170.2 492.487
164 0 64.1821 12.1373 779 153.872 1170.25 491.85
165 0 66.2179 12.2021 808 153.571 1170.5 490.34
166 0 67.1144 12.6053 846 150.091 1170.2 487.883
167 0 71.1441 12.6504 900 156.429 1170.57 486.259
168 0 73.1953 12.4735 913 161.918 1170.38 485.403
169 0 76.0741 12.7244 968 163.574 1170.65 484.945
170 0 79.1876 12.6282 1000 152.722 1170.59 482.618
171 0 82.1271 12.5659 1032 160 1170.33 481.811
172 0 86.1131 12.9481 1115 156.031 1170.13 479.752
173 0 88.2832 12.5958 1112 163.274 1169.85 478.506
174 0 91.3577 12.5331 1145 163.343 1170.05 477.679
175 1 46.0752 11.8068 544 160.489 1169.02 498.204
176 0 49.0798 11.6545 572 161.297 1169.46 497.456
177 0 50.3041 11.8678 597 156.965 1170.17 495.789
178 0 52.2018 11.9345 623 159.313 1170.8 494.648
179 0 53.1624 11.9069 633 161.264 1171.27 495.777
180 0 53.1669 12.0376 640 155.948 1170.78 494.111
181 0 56.2559 11.9454 672 157.85 1171.17 492.513
182 0 58.178 11.6711 679 160.884 1170.98 491.838
183 0 58.1658 12.3612 719 155.446 1170.98 490.505
184 0 61.1231 11.665 713 150.369 1170.91 489.964
185 0 62.1638 12.6601 787 152.08 1171.53 488.825
186 0 64.176 12.3411 792 156.138 1171.68 488.534
187 0 67.1069 12.3385 828 151.228 1171.77 487.642
188 0 68.1572 12.5885 858 153.386 1172.36 486.481
189 0 70.208 12.1211 851 154.768 1172.13 485.971
190 0 73.13 11.8009 863 148.479 1172.42 484.328
191 0 76.3083 12.4233 948 155.363 1172.65 483.76
192 0 78.2976 12.3631 968 154.643 1173.01 481.81
193 0 81.3908 12.4953 1017 152.013 1172.06 480.799
194 0 82.1811 12.2048 1003 145.391 1171.94 479.137
195 0 86.2408 12.3028 1061 151.477 1171.82 477.437
196 0 88.4384 12.6868 1122 151.578 1171.3 476.071
197 1 48.2114 10.4125 502 152.719 1171.26 497.255
198 0 48.1503 10.9241 526 154.869 1171.19 497.295
199 0 49.0575 11.4763 563 154.186 1170.94 495.83
200 0 50.1198 11.7319 588 155.507 1170.89 495.248
201 0 51.0353 12.0897 617 140.835 1169.4 494.109
202 0 53.047 11.8574 629 154.698 1168.95 493.75
203 0 54.0762 11.5948 627 151.427 1168.6 494.337
204 0 55.1605 11.9107 657 148.671 1168.78 493.111
205 0 54.2034 12.4162 673 154.108 1168.26 492.629
206 0 59.0576 12.0052 709 152.293 1168.31 491.454
207 0 61.1319 12.1704 744 154.136 1168.89 490.505
208 0 62.1685 12.1927 758 158.557 1168.27 490.239
209 0 62.0497 12.8284 796 151.592 1168.17 487.999
210 0 65.1319 12.4517 811 161.143 1168.77 487.552
211 0 67.1264 12.9606 870 149.821 1169.08 486.99
212 0 69.0835 12.7237 879 152.757 1168.79 485.631
213 0 71.1617 13.0548 929 151.252 1169.15 484.449
214 0 72.2609 13.3959 968 154.507 1168.89 484.16
215 0 76.226 12.9746 989 156.695 1169 482.656
216 0 77.1968 13.0705 1009 157.106 1168.64 481.466
217 0 80.2129 12.8408 1030 152.017 1168.54 480.875
218 0 83.1911 13.1384 1093 154.472 1168.7 478.787
219 0 84.1481 13.4287 1130 148.627 1168.14 477.084
220 0 86.2917 13.9063 1200 148.473 1167.85 475.7
221 0 92.3705 13.0778 1208 153.351 1167.69 475.536
222 0 94.3031 13.4354 1267 141.471 1167.57 473.65
223 0 97.2339 13.2156 1285 147.472 1167.41 473.066
224 0 100.224 13.37 1340 152.152 1167.4 471.434
225 0 103.335 13.5579 1401 159.879 1167.27 469.422
226 1 58.0855 11.4314 664 159.521 1167.53 491.858
227 0 60.0614 12.071 725 164.702 1167.08 491.625
228 0 62.0861 12.4988 776 159.79 1167.2 490.218
229 0 65.1083 12.6098 821 159.65 1168.06 489.246
230 0 65.1408 13.1101 854 160.956 1168.08 488.915
231 0 70.107 12.8803 903 163.709 1167.76 487.529
232 0 71.136 12.8627 915 167.384 1167.78 487.317
233 0 73.1738 13.3791 979 165.554 1168.1 485.572
234 0 75.232 12.9466 974 167.859 1168.49 485.43
235 0 78.1439 13.296 1039 159.944 1168.3 483.946
236 0 79.2171 13.4314 1064 162.07 1168.47 482.958
237 0 84.1168 12.6847 1067 163.835 1168.4 480.746
238 0 86.1208 13.0166 1121 160.488 1168.17 479.267
239 0 88.1273 12.7997 1128 160.571 1168.26 478.765
240 0 91.1134 13.2363 1206 158.536 1168.04 476.502
241 1 49.0886 11.3468 557 157.61 1167.29 497.452
242 0 49.1246 11.766 578 154.363 1167.92 496.723
243 0 51.0653 11.4951 587 155.52 1167.8 496.622
244 0 52.1766 11.5569 603 156.965 1167.92 496.149
245 0 52.268 12.0724 631 155.377 1168.2 496.081
246 0 55.0986 11.8696 654 155.787 1168.54 494.974
247 0 55.1 12.6134 695 155.97 1168.21 494.266
248 0 57.1159 12.5709 718 150.162 1167.73 493.237
249 0 60.2252 11.6728 703 150.381 1167.83 492.068
250 0 62.0994 12.0452 748 159.702 1167.83 491.348
251 0 62.112 12.8317 797 160.989 1167.66 490.606
252 0 66.1487 12.6684 838 158.037 1167.82 489.033
253 0 68.1656 12.8511 876 158.764 1167.96 488.169
254 0 70.0786 12.8713 902 164.169 1168.75 487.557
255 0 71.1603 12.8723 916 164.811 1168.72 486.088
256 0 76.2896 12.3477 942 167.389 1168.69 485.218
257 0 77.2975 12.8594 994 168.217 1169.02 483.217
258 0 80.2116 13.0405 1046 172.669 1169.64 481.75
259 0 84.1728 12.8664 1083 164.585 1169.89 480.779
260 0 86.0767 12.9303 1113 160.044 1170.33 477.814
261 0 87.2376 13.0907 1142 171.241 1170.06 477.906
262 0 91.1584 12.9884 1184 165.185 1170.64 476.738
263 0 93.1694 12.8583 1198 166.922 1170.53 475.746
264 0 96.1312 13.0447 1254 172.134 1170.46 473.23
265 1 50.0601 11.5861 580 160.993 1170.36 496.159
266 0 51.116 12.1293 620 169.981 1171.23 495.719
267 0 54.0922 12.1644 658 172.096 1171.15 494.261
268 0 57.1713 12.1215 693 167.952 1171.38 493.954
269 0 54.1017 12.6798 686 158.292 1171.3 491.927
270 0 59.0676 12.4095 733 154.525 1171.47 490.922
271 0 59.1424 12.5291 741 166.235 1171.53 489.937
272 0 62.2316 12.3249 767 160.01 1171.71 489.643
273 0 65.1428 12.3421 804 161.832 1171.58 488.276
274 0 66.2163 12.9575 858 158.536 1171.57 487.098
275 0 69.1035 12.7345 880 162.666 1171.13 486.058
276 0 71.1617 12.5067 890 165.592 1171 486.049
277 0 73.2308 12.3991 908 163.739 1171.46 483.423
278 0 75.1488 12.7747 960 155.095 1171.64 481.739
279 0 78.1308 12.5303 979 163.783 1171.67 481.168
280 0 81.1241 12.8815 1045 159.034 1172.01 480.385
281 0 83.2032 12.9923 1081 162.169 1171.99 478.555
282 0 86.2118 12.8057 1104 165.439 1172.13 477.437
283 0 89.2086 13.1265 1171 168.759 1172.8 475.39
284 1 43.1566 11.0991 479 157.015 1172.65 497.85
285 0 44.1934 11.4497 506 162.729 1172.97 496.951
286 0 48.2685 11.9747 578 159.227 1172.67 495.958
287 0 49.1674 11.349 558 152.461 1173.05 494.452
288 0 50.248 11.3238 569 156.367 1172.28 494.042
289 0 51.203 11.9134 610 160.177 1172.1 494.323
290 0 53.294 11.8587 632 158.65 1171.85 493.696
291 0 54.1372 12.025 651 159.631 1171.87 492.951
292 0 55.2636 12.0513 666 156.62 1171.25 491.992
293 0 57.1476 12.3015 703 167.747 1171.14 490.386
294 0 58.2181 12.4016 722 159.413 1171.44 490.368
295 0 60.1346 12.6217 759 168.519 1171.35 489.502
296 0 62.3325 12.4814 778 164.586 1170.8 488.616
297 0 62.2258 12.535 780 160.25 1170.42 487.713
298 0 63.2278 12.5419 793 162.965 1170.51 486.793
299 0 66.295 12.9723 860 162.771 1170.43 485.522
300 0 67.2357 12.999 874 167.124 1169.88 485.183
301 0 70.1375 12.9175 906 165.857 1170.13 483.715
302 0 72.1958 12.8678 929 163.36 1170.61 482.859
303 0 74.144 12.8399 952 166.338 1170.33 482.473
304 0 76.1986 12.9661 988 172.747 1170.09 480.729
305 0 78.2316 12.9104 1010 159.198 1169.73 479.905
306 0 81.203 13.263 1077 165.901 1170.06 478.62
307 0 85.1841 13.101 1116 162.573 1170.05 476.999
308 0 87.126 13.2222 1152 168.223 1169.77 475.221
309 0 91.2927 12.8707 1175 161.803 1170.69 474.289
310 1 50.1118 11.4544 574 165.76 1170.78 495.345
311 0 49.2381 12.3279 607 163.725 1170.87 494.107
312 0 52.2267 11.7373 613 168.228 1170.88 493.912
313 0 54.0926 11.887 643 165.277 1170.99 493.036
314 0 53.0609 12.5516 666 156.844 1170.45 493.152
315 0 55.18 12.2327 675 164.8 1170.59 492.938
316 0 57.2219 12.303 704 161.852 1170.62 491.473
317 0 59.0965 12.2004 721 166.391 1170.18 490.7
318 0 61.1817 12.1115 741 164.069 1169.08 489.893
319 0 62.0292 12.6714 786 166.397 1168.9 489.732
320 0 64.127 12.678 813 165.071 1168.57 488.178
321 0 66.1078 12.7973 846 168.875 1169.25 487.897
322 0 67.1182 12.8728 864 166.877 1169.33 486.814
323 0 69.0417 12.9632 895 164.137 1169 486.097
324 0 73.0521 12.9086 943 162.582 1168.58 484.384
325 0 75.0658 12.9353 971 164.442 1168.5 483.79
326 0 78.1379 12.8619 1005 160.396 1168.19 482.375
327 0 80.0913 12.7604 1022 171.674 1169.32 481.38
328 0 82.2682 12.9455 1065 169.469 1169.27 479.77
329 1 42.0994 11.2353 473 160.281 1168.92 499.93
330 0 43.1794 11.5564 499 158.228 1169 499.555
331 0 44.2152 12.2582 542 156.991 1169.57 498.769
332 0 45.1236 12.4768 563 163.05 1169.84 498.17
333 0 49.1913 11.9127 586 161.5 1169.5 497.401
334 0 49.1626 11.8993 585 154.757 1169.62 496.631
335 0 52.1186 11.6849 609 162.658 1169.3 496.603
336 0 52.0986 12.1884 635 154.981 1169.25 495.406
337 0 54.1164 12.0851 654 158.584 1168.32 494.549
338 0 54.0712 12.6685 685 156.263 1168.41 493.704
339 0 56.0688 12.6987 712 162.173 1168.91 493.046
340 0 59.1589 12.3735 732 160.686 1168.54 493.04
341 0 60.0805 12.8161 770 159.892 1168.91 491.978
342 0 62.0957 13.0444 810 159.811 1168.8 491.189
343 0 65.2036 12.8827 840 154.923 1168.3 490.392
344 0 68.1233 12.7269 867 154.661 1168.82 489.151
345 0 67.1904 13.0376 876 151.453 1169.19 488.991
346 0 71.2577 13.0652 931 160.797 1168.05 487.494
347 0 73.1623 12.9438 947 158.596 1168.31 486.659
348 0 75.2247 12.8947 970 153.6 1167.81 485.182
349 0 78.3199 13.049 1022 164.61 1167.38 483.735
350 0 81.218 13.2975 1080 161.655 1167.62 482.733
351 0 84.3322 12.9607 1093 159.698 1167.13 480.803
352 0 86.265 13.018 1123 163.72 1166.96 479.681
353 0 88.1763 13.2689 1170 159.058 1166.72 478.169
354 1 46.0231 11.6463 536 160.903 1166.18 500.595
355 0 46.0333 12.1216 558 153.692 1166.57 499.631
356 0 48.0653 11.9837 576 163.731 1166.11 499.66
357 0 50.0211 11.875 594 163.71 1166.29 498.463
358 0 51.0453 12.1852 622 164.368 1166.5 498.156
359 0 52.0228 11.9178 620 158.185 1166.23 497.687
360 0 54.0215 12.0323 650 157.931 1167.12 496.825
361 0 56.0716 12.163 682 163.733 1167.29 496.496
362 0 57.0508 12.5677 717 163.526 1167.52 494.975
363 0 60.0426 12.4911 750 164.999 1168.02 493.477
364 0 61.0174 12.603 769 156.645 1168.22 493.207
365 0 63.1223 12.6421 798 156.543 1167.85 492.294
366 0 66.1532 12.6827 839 152.888 1169.37 492.187
367 0 68.2162 12.6216 861 152.443 1169.48 490.102
368 0 69.0962 12.3306 852 149.684 1169.3 489.805
369 0 71.2202 12.3139 877 150.962 1168.78 488.642
370 1 39.1429 10.2701 402 159.776 1167.72 504.53
371 0 41.181 10.3203 425 153.513 1167.69 503.767
372 0 42.1191 10.779 454 157.066 1168.28 502.41
373 0 43.1859 11.4621 495 155.271 1168.09 501.842
374 0 45.0649 11.7164 528 143.633 1167.73 500.36
375 0 45.1361 11.986 541 147.412 1169.1 500.355
376 0 47.1864 11.9526 564 144.179 1168.8 499.399
377 0 48.1836 12.3279 594 151.763 1168.84 498.616
378 0 49.0934 12.7105 624 151.418 1169.57 497.729
379 0 51.097 12.2512 626 144.851 1169.92 496.265
380 0 52.1529 12.5017 652 144.04 1169.91 495.661
381 0 54.14 12.4492 674 147.144 1170.3 494.705
382 0 54.1856 12.8447 696 148.128 1170.65 494.27
383 0 58.145 12.6924 738 148.168 1170.59 492.837
384 0 58.1459 12.2794 714 150.742 1170.7 492.475
385 0 60.2036 12.3415 743 148.882 1170.01 491.417
386 0 62.1131 13.1051 814 148.088 1169.91 490.356
387 0 64.1305 12.9424 830 153.123 1169.57 489.349
388 0 63.1125 13.0402 823 165.407 1169.89 488.179
389 0 66.1435 12.9718 858 153.62 1170.21 488.002
390 0 70.11 13.0937 918 159.65 1170.36 486.373
391 0 72.1139 12.8963 930 159.642 1170.95 485.785
392 0 74.1362 12.9087 957 160.209 1169.9 485.077
393 0 78.2766 12.673 992 160.889 1170.34 483.427
394 0 79.1244 12.929 1023 159.36 1170.69 482.274
395 0 82.1217 13.4435 1104 160.105 1170.12 481.459
396 0 84.2809 12.9804 1094 165.09 1170.56 480.213
397 1 45.182 12.2394 553 161.633 1169.92 499.179
398 0 45.1844 12.3715 559 162.088 1170.02 498.719
399 0 48.0709 12.0447 579 159.874 1170.47 496.865
400 0 48.0328 12.6788 609 162.335 1169.36 497.396
401 0 48.0466 13.0914 629 160.178 1168.88 496.517
402 0 52.0917 12.0941 630 144.979 1169.24 495.406
403 0 52.0282 13.2236 688 153.619 1169.03 494.443
