time division length width area intensity CMx CMy
0 0 49.073 11.004 540 58.2463 129.917 506.77
1 0 45.1837 9.42817 426 60.9742 128.54 505.495
2 0 48.133 10.4294 502 59.5438 128.201 504.994
3 0 48.0565 10.3004 495 60.7172 128.762 504.578
4 0 51.1579 9.91048 507 59.8225 128.592 506.87
5 0 50.1357 11.3891 571 57.8441 129.292 508.291
6 0 47.219 8.64059 408 61.5245 129.005 507.24
7 0 51.1589 9.59756 491 59.1263 128.731 508.277
8 0 49.1427 9.17735 451 60.255 127.956 506.497
9 0 52.2105 10.994 574 58.4373 127.267 507.103
10 0 50.0805 9.96396 499 59.3086 127.008 505.884
11 0 52.0622 7.81757 407 56.3292 126.784 504.767
12 0 45.0798 6.6105 298 49.0403 126.272 498.205
13 0 50.0973 13.334 668 76.2994 127.24 313.987
14 0 52.0808 13.0758 681 75.1351 127.276 316.251
15 0 54.0458 13.9511 754 73.3488 126.643 317.826
16 0 55.023 12.9037 710 74.8183 126.339 319.096
17 0 53.028 11.9371 633 78.6588 126.905 318.148
18 0 57.0993 13.9406 796 73.9837 126.476 318.685
19 0 61.0726 12.0021 733 76.5634 126.557 319.465
20 0 61.0674 12.4944 763 76.1664 127.279 320.678
21 0 62.0918 12.4493 773 76.6054 127.473 323.805
22 0 66.0244 12.2228 807 75.855 127.751 326.978
23 0 64.0858 13.1386 842 76.3147 126.958 325.704
24 0 65.0416 12.8379 835 76.9593 127.364 328.632
25 0 71.0959 13.6998 974 74.0267 127.108 332.42
26 0 72.0653 13.3212 960 75.2479 126.968 332.707
27 0 75.1604 13.1319 987 75.696 127.62 332.125
28 0 78.1861 13.826 1081 74.0555 127.326 334.404
29 1 37.1178 10.1568 377 75.4987 127.09 353.411
30 0 39.0615 10.3939 406 74.1158 127.071 355.069
31 0 40.0688 11.031 442 73.6561 127.389 357.188
32 0 43.0618 10.3108 444 74.518 126.669 356.514
33 0 43.0349 11.1305 479 73.5908 126.99 358.194
34 0 45.0223 11.5942 522 72.0038 126.914 360.262
35 0 45.0162 11.6847 526 72.2129 127.219 361.606
36 0 48.0502 13.6316 655 68.8733 127.783 361.713
37 0 48.1301 12.2377 589 71.1426 127.435 363.822
38 0 50.0419 13.149 658 69.7082 127.96 363.556
39 0 52.016 12.5923 655 70.1359 127.945 365.725
40 0 52.0271 12.186 634 71.4259 127.516 365.237
41 0 53.0485 12.3283 654 71.2584 127.87 365.159
42 0 56.0792 13.1421 737 69.8236 127.932 366.191
43 0 54.0667 10.9125 590 73.4356 127.763 368.386
44 0 58.1217 11.9921 697 70.924 127.677 370.504
45 0 61.101 12.3239 753 70.0837 127.331 370.882
46 0 62.1208 11.8801 738 71.0894 126.783 373.854
47 0 65.0614 13.7562 895 67.7006 126.669 375.883
48 0 66.1006 13.1618 870 68.8448 127.147 376.553
49 0 70.0943 13.5674 951 67.8223 126.75 376.305
50 0 73.146 14.2728 1044 66.5623 126.243 375.637
51 0 72.1306 11.8951 858 70.2331 126.709 377.169
52 0 75.1146 13.2065 992 68.5141 126.425 373.539
53 0 77.0762 13.9213 1073 68.0363 126.849 369.095
54 1 42.0683 11.0772 466 65.4077 127.234 390.76
55 0 42.0185 10.8286 455 68.0505 126.787 387.319
56 0 43.0308 12.5724 541 66.2699 126.797 383.752
57 0 46.056 10.9649 505 66.7465 126.531 385.695
58 0 46.0299 13.6216 627 64.7751 126.525 385.04
59 0 47.0343 13.9685 657 64.0974 126.525 384.549
60 0 47.0343 11.0983 522 67.7682 126.73 383.54
61 0 51.0374 11.1095 567 67.6261 126.411 382.989
62 0 51.1079 11.2703 576 67.0174 125.951 382.788
63 0 52.0807 12.423 647 66.6677 125.808 379.903
64 0 53.0381 11.7651 624 67.6074 126.05 379.24
65 0 54.0394 11.8062 638 66.8464 126.251 381.379
66 0 56.025 12.5123 701 66.1555 126.506 379.573
67 0 56.1234 12.0983 679 67.4094 125.839 376.8
68 0 62.0357 14.2337 883 63.1552 125.046 378.541
69 0 64.0965 15.149 971 62.447 126.03 376.23
70 0 63.1443 12.5744 794 64.9572 125.728 379.775
71 0 65.0994 12.1507 791 66.7788 125.647 376.018
72 0 66.0562 11.4751 758 68.0501 125.29 375.551
73 0 69.1912 12.4149 859 67.2747 125.773 372.24
74 0 73.0699 14.5614 1064 64.4295 126.841 370.053
75 1 39.0203 12.1732 475 65.9221 126.396 386.625
76 0 43.0831 12.5107 539 64.603 126.13 386.468
77 0 42.1234 12.3209 519 66.1002 126.266 385.711
78 0 43.053 11.66 502 68.6813 126.388 383.345
79 0 43.0369 10.9673 472 69.8242 126.504 383.574
80 0 47.057 10.9867 517 69.5977 127.311 382.46
81 0 49.0748 12.8172 629 67.0636 126.944 382.906
82 0 49.0563 13.3316 654 67.6147 126.913 382.08
83 0 51.1567 12.667 648 68.5509 126.809 381.981
84 0 52.113 12.4153 647 70.0835 126.184 379.708
85 0 52.074 11.5797 603 72.5439 126.415 378.597
86 0 54.193 12.7138 689 70.5414 126.565 379.713
87 0 56.1495 11.4694 644 72.2997 126.835 379.43
88 0 57.1684 11.8247 676 71.8772 126.036 379.179
89 0 57.0704 12.4583 711 71.4824 126.809 378.813
90 0 61.2171 13.2479 811 69.7756 127.344 378.112
91 0 60.1713 11.6667 702 73.6154 127.261 376.859
92 0 64.1109 11.5425 740 72.6257 127.314 376.404
93 0 66.1923 12.7356 843 71.7117 127.471 373.377
94 0 68.0963 12.732 867 71.4487 127.677 374.758
95 0 71.2367 13.5183 963 69.5992 127.919 374.132
96 0 72.2572 13.6319 985 69.9005 128.405 373.944
97 0 75.1642 11.6412 875 73.048 127.873 371.126
98 1 39.0945 10.5642 413 72.0654 127.886 387.412
99 0 39.0296 11.1198 434 69.3825 126.894 389.445
100 0 42.091 11.6177 489 66.8507 128.004 390.305
101 0 44.0647 11.1654 492 68.7866 127.51 388.553
102 0 43.025 11.6211 500 69.89 128.248 386.504
103 0 44.0144 11.8598 522 70.0498 127.937 384.862
104 0 47.0638 12.0262 566 69.5583 127.436 384.177
105 0 47.0381 11.4163 537 70.0894 127.464 385.609
106 0 47.0718 11.6206 547 71.0804 127.607 382.433
107 0 50.0456 11.1898 560 70.7964 127.123 383.079
108 0 51.0699 12.4731 637 69.1774 126.769 383.19
109 0 51.0438 10.6379 543 72.8232 126.733 382.357
110 0 53.1152 12.3317 655 70.1603 127.435 381.835
111 0 54.1277 11.5652 626 71.5032 127.914 379.059
112 0 57.1053 11.435 653 69.9969 126.602 380.946
113 0 58.0738 12.6563 735 69.2313 126.317 379.284
114 0 61.063 12.0204 734 70.0477 126.523 378.301
115 0 61.0812 12.6717 774 69.2687 126.391 377.752
116 0 62.0976 11.1437 692 72.0173 127.345 376.715
117 0 66.12 14.3224 947 66.8057 127.667 375.645
118 0 66.0794 11.8645 784 70.9184 127.511 374.869
119 0 70.0413 12.2071 855 69.186 127.877 376.208
120 0 69.0995 11.2736 779 71.6573 128.073 372.185
121 0 74.0708 12.8661 953 68.1595 128.274 371.445
122 0 76.1305 13.8578 1055 66.7374 127.19 369.354
123 0 79.1446 12.6983 1005 68.0498 127.486 368.712
124 0 80.0615 12.6278 1011 67.9664 127.832 369.171
125 0 80.075 13.1377 1052 68.5057 128.493 363.024
126 0 82.0699 11.5389 947 70.0623 128.26 366.851
127 1 46.0518 12.1168 558 66.1398 128.797 384.002
128 0 49.0693 10.4342 512 67.3867 128.672 384.826
129 0 48.0302 11.6802 561 67.9715 127.592 380.009
130 0 51.0583 11.8884 607 66.6161 126.903 380.568
131 0 52.035 12.6261 657 66.0244 127.603 379.323
132 0 53.0654 11.7779 625 67.5776 127.267 377.182
133 0 56.0645 12.7532 715 65.6154 127.885 377.841
134 0 59.0535 12.4463 735 65.834 128.226 376.347
135 0 61.0432 14.1703 865 62.5399 127.997 378.882
136 0 62.0323 13.2834 824 64.2888 127.771 377.398
137 0 64.0567 11.9425 765 65.5843 127.412 378.26
138 0 65.0195 13.196 858 65.1282 128.034 373.114
139 0 68.0955 13.5985 926 63.4903 128.243 376.043
140 0 69.0694 14.8257 1024 62.1816 127.557 372.948
141 0 71.1389 13.2136 940 64.4755 128.213 372.472
142 0 73.0839 13.6145 995 63.8312 127.94 370.922
143 0 72.1333 12.2967 887 66.6888 127.853 369.415
144 0 77.1851 13.5518 1046 64.4675 126.954 368.359
145 0 80.1461 13.2134 1059 64.5335 127.911 370.409
146 0 80.0588 12.4034 993 67.0423 128.617 367.933
147 0 82.0578 12.8446 1054 66.6176 128.699 367.769
148 0 86.0901 13.602 1171 65.7686 128.407 366.819
149 0 88.1633 14.3257 1263 65.1924 128.26 365.384
150 0 90.2319 13.3767 1207 66.6089 127.437 363.99
151 0 95.1651 14.4486 1375 64.9171 128.025 361.887
152 0 95.0832 12.9676 1233 67.5264 128.493 358.652
153 0 97.153 12.187 1184 69.3708 127.881 357.221
154 0 105.188 15.1157 1590 64.5522 128.296 357.036
155 0 104.093 12.2966 1280 69.5234 127.634 354.396
156 1 55.0382 10.4655 576 68.2674 128.3 380.896
157 0 58.0998 12.5646 730 66.2164 128.458 379.473
158 0 60.0314 12.0437 723 67.3292 128.127 378.284
159 0 60.1911 12.0948 728 67.9245 128.361 378.199
160 0 63.0736 12.525 790 67.2759 127.896 378.141
161 0 64.0489 12.0845 774 67.9276 127.951 376.461
162 0 66.0621 13.3965 885 66.0475 127.933 375.583
163 0 67.0955 11.193 751 68.9228 127.929 376.493
164 0 69.0922 12.2011 843 68.0439 128.159 374.544
165 0 69.1113 12.4147 858 67.993 127.056 374.121
166 0 70.253 11.8145 830 68.9916 127.533 372.394
167 0 73.0564 12.2371 894 67.7864 127.289 372.923
168 0 78.1541 12.1171 947 67.0876 127.172 371.225
169 0 81.1479 11.8179 959 66.1898 127.79 373.875
170 0 79.2349 12.4314 985 67.2315 128.09 368.236
171 0 82.1206 11.6171 954 68.913 128.439 366.122
172 0 86.216 11.8076 1018 67.3094 127.823 367.617
173 1 46.0952 10.6953 493 66.9919 128 384.657
174 0 48.0667 11.7337 564 63.75 127.81 386.555
175 0 51.0419 12.0097 613 64.0995 128.108 383.109
176 0 51.0786 11.6879 597 64.9732 127.863 383.273
177 0 52.1367 12.2946 641 63.9548 128.271 382.485
178 0 54.0601 11.5242 623 65.5185 128.286 380.92
179 0 53.0776 11.1723 593 66.511 128.11 380.599
180 0 55.166 11.8551 654 64.9128 128.04 381.144
181 0 59.0711 12.3749 731 63.7223 127.788 379.643
182 0 59.1089 13.3144 787 63.6074 127.428 378.565
183 0 62.0564 14.2612 885 62.1424 128.259 377.592
184 0 63.1594 12.983 820 63.5549 128.548 378.33
185 0 63.1106 12.6762 800 65.3625 128.411 375.404
186 0 66.0547 13.0649 863 64.6802 127.538 374.314
187 0 66.0893 12.8916 852 65.534 127.81 372.737
188 0 69.083 12.5212 865 66.0486 128.04 372.166
189 0 69.0772 13.1013 905 66.1669 128.217 369.466
190 0 75.182 15.8282 1190 60.9092 128.28 373.844
191 0 74.0719 13.1764 976 66.4047 128.384 368.579
192 0 76.1339 11.7687 896 67.3382 128.07 369.211
193 0 80.0399 12.7686 1022 66.4207 127.842 367.053
194 0 80.1013 13.458 1078 66.6874 127.867 364.5
195 1 41.0358 10.0644 413 69.2906 128.14 384.993
196 0 45.0931 11.3765 513 65.6355 128.121 386.62
197 0 48.1031 12.4732 600 64.8883 127.923 384.03
198 0 47.0606 12.6858 597 64.3551 127.523 385.447
199 0 50.022 11.6749 584 66.262 127.695 383.38
200 0 54.2983 11.9525 649 65.0401 127.435 382.753
201 0 52.0958 12.2851 640 66.3063 127.938 380.775
202 0 54.0827 12.7398 689 65.9811 127.888 378.626
203 0 56.0592 13.4322 753 65.3386 127.641 377.519
204 0 57.0682 13.8606 791 64.5436 127.719 377.799
205 0 59.0887 12.202 721 66.5049 127.596 377.96
206 0 62.1468 11.6498 724 66.9779 128.08 376.428
207 0 62.0335 13.7184 851 64.7932 128.231 375.924
208 0 64.1413 12.4569 799 64.622 127.869 375.021
209 0 65.1011 12.35 804 65.0759 128.198 373.73
210 0 68.0804 12.309 838 63.9785 128.189 374.14
211 0 68.2036 12.5946 859 64.5634 127.902 370.307
212 0 71.0825 13.3085 946 63.2886 128.019 371.377
213 0 74.1371 11.8969 882 64.4796 128.071 371.397
214 0 77.1126 13.1496 1014 62.9467 128.209 369.093
215 0 78.1549 11.989 937 64.8314 128.441 368.048
216 1 42.0381 9.15836 385 64.7948 127.605 386.579
217 0 43.0753 10.5397 454 63.0705 127.079 386.211
218 0 44.0665 11.0288 486 63.8621 127.428 383.066
219 0 46.0491 10.6625 491 63.5112 127.295 385.065
220 0 48.0505 11.0509 531 62.5461 127.782 385.098
221 0 50.0179 11.9957 600 62.5433 127.217 380.257
222 0 50.1051 11.9748 600 62.9033 127.898 381.163
223 0 54.0245 14.0307 758 59.6253 127.642 380.321
224 0 54.1372 13.5397 733 61.0819 127.696 377.233
225 0 54.0922 11.5913 627 64.0223 127.278 375.643
226 0 57.0834 12.4029 708 62.3814 128.151 377.545
227 0 59.0731 13.7457 812 60.1749 127.853 378.143
228 0 61.0275 12.945 790 62.1076 127.492 376.263
229 0 62.0966 12.0297 747 62.5261 128.072 376.203
230 0 63.0253 11.7096 738 63.9485 127.94 373.985
231 0 66.1021 12.3294 815 62.8454 128.039 373.999
232 0 67.1158 13.3352 895 61.3933 128.421 373.816
233 0 68.0535 11.1089 756 64.4947 128.147 371.938
234 0 71.0619 12.5806 894 62.8445 128.273 368.122
235 0 75.0992 11.811 887 62.5186 128.378 370.578
236 0 77.049 11.6549 898 63.441 126.971 367.021
237 0 80.0809 12.7996 1025 61.4702 127.36 367.156
238 1 121.064 9.95339 1205 66.9212 127.425 348.279
239 1 85.0595 12.9556 1102 61.5544 127.559 362.935
240 0 88.0639 11.855 1044 62.4732 127.658 362.082
241 0 90.1259 11.5838 1044 63.1801 128.127 359.354
242 1 50.0555 9.34963 468 63.9252 127.88 378.925
243 0 51.041 11.7161 598 62.51 128.08 377.092
244 0 53.0234 11.6364 617 61.8703 128.207 377.828
245 0 54.0765 11.8166 639 61.2238 127.606 378.604
246 0 55.0349 12.1741 670 61.703 127.403 376.733
247 0 57.0696 12.0555 688 61.1701 126.968 375.656
248 0 56.1416 11.8272 664 63.012 126.995 374.387
249 0 59.0502 12.1083 715 62.0573 126.39 373.158
250 0 63.0826 12.5233 790 60.0367 127.104 374.434
251 0 66.0395 11.7506 776 61.3673 127.174 372.871
252 0 67.0398 13.6635 916 59.286 127.432 371.801
253 0 68.0486 14.4603 984 59.437 127.904 369.997
254 0 69.0988 12.9814 897 62.1037 127.701 367.155
255 0 72.0617 11.3375 817 63.6389 127.816 367.912
256 0 77.0193 13.0876 1008 60.5843 127.59 369.467
257 0 80.0383 13.1812 1055 60.9033 127.414 365.988
258 0 82.0862 12.6209 1036 61.6892 127.813 365.703
259 0 84.0621 13.5138 1136 61.0783 128.162 363.181
260 0 86.1316 13.3168 1147 61.1979 128.006 363.522
261 1 43.0431 12.7779 550 59.7636 128.509 381.967
262 0 45.0252 11.438 515 61.6621 128.637 380.59
263 0 45.0391 11.7231 528 62.3864 128.46 379.722
264 0 48.0383 10.3875 499 63.0982 128.208 382.216
265 0 50.0351 11.0922 555 62.5604 127.362 380.362
266 0 53.0615 13.3242 707 59.604 128.207 381.201
267 0 54.0471 12.1006 654 61.5734 127.411 379.661
268 0 53.0266 12.0883 641 62.9298 126.95 378.867
269 0 58.083 14.3588 834 59.7998 127.386 376.626
270 0 58.0878 10.3292 600 64.32 127.345 379.417
271 0 60.0474 12.69 762 62.6457 127.549 376.22
272 0 62.2266 12.7277 792 62.9192 128.028 374.774
273 0 66.1402 14.6658 970 59.9412 127.773 375.871
274 0 64.0697 13.4697 863 62.6686 127.685 373.968
275 0 66.0416 12.8101 846 64.3735 127.759 372.247
276 0 67.1166 11.6961 785 66.2115 127.631 371.02
277 0 71.0623 14.0159 996 63.2259 127.391 369.35
278 0 73.0497 12.9775 948 64.9357 127.46 368.722
279 0 75.0802 12.5199 940 65.4915 127.412 369.09
280 0 77.0843 12.4539 960 66.1458 126.48 367.586
281 0 80.1289 12.9167 1035 65.6966 127.568 365.946
282 0 82.2533 12.5588 1033 66.3417 127.232 365.602
283 0 86.1118 12.7857 1101 66.4051 127.083 364.104
284 0 88.1023 13.4276 1183 65.6213 126.844 362.915
285 1 52.0407 12.7208 662 65.1813 125.955 379.353
286 0 49.0287 9.60662 471 70.5605 125.847 380.325
287 0 55.0743 13.2004 727 66.0261 126.49 379.135
288 0 55.0257 11.4492 630 69.6429 127.265 378.443
289 0 57.084 12.5604 717 68.3333 127.413 377.244
290 0 58.0206 11.1857 649 70.943 127.444 376.468
291 0 62.0642 13.051 810 67.8531 127.062 373.46
292 0 64.0623 12.9093 827 67.5599 127.629 374.761
293 0 68.106 14.4921 987 65.1023 126.679 372.104
294 0 67.0558 13.6901 918 67.5392 127.428 369.088
295 0 68.053 12.3874 843 69.4472 127.688 370.021
296 0 70.0639 12.0319 843 70.2456 126.885 366.464
297 0 72.0372 12.5491 904 68.8717 127.037 366.633
298 0 77.0853 16.1509 1245 62.9486 126.888 366.076
299 0 80.1481 14.4233 1156 65.6557 127.203 363.081
300 0 82.1476 14.2305 1169 65.8922 127.713 360.12
301 0 82.2026 12.5179 1029 68.9086 127.088 358.381
302 0 85.1219 12.7817 1088 68.398 127.419 356.589
303 0 90.0754 13.4887 1215 67.0881 126.933 357.721
304 0 91.1734 13.4798 1229 68.0936 127.045 353.576
305 0 96.0828 13.9463 1340 67.0903 127.523 354.201
306 1 51.0493 10.8327 553 68.8752 127.68 376.195
307 0 53.0491 12.7995 679 67.2047 127.526 375.573
308 0 56.0783 13.285 745 66.2698 127.162 375.485
309 0 54.0475 10.6943 578 72.3806 127.401 372.453
310 0 58.0451 12.3869 719 69.4325 127.442 371.718
311 0 61.1619 12.2135 747 68.1754 127.115 374.901
312 0 62.0593 13.7288 852 66.7923 127.238 374.426
313 0 64.0922 12.3884 794 69.2317 127.146 371.754
314 0 66.0747 12.3799 818 67.7421 127.116 374.308
315 0 68.0995 12.5552 855 68.0515 127.127 371.315
316 0 70.0489 12.7768 895 67.8581 127.037 370.688
317 0 69.1037 11.5045 795 70.4667 127.418 368.424
318 0 76.0927 14.3641 1093 64.3522 126.909 370.116
319 0 76.0805 12.6577 963 67.9294 126.861 366.877
320 0 79.1329 12.9403 1024 67.6533 127.314 364.856
321 0 82.0627 11.5887 951 68.7087 127.43 364.688
322 0 85.0997 12.4795 1062 68.1111 127.571 361.514
323 0 87.1191 12.6264 1100 68.4273 126.375 357.915
324 0 90.1249 13.337 1202 67.3894 126.458 357.022
325 0 92.1884 12.225 1127 69.3301 127.024 357.434
326 0 94.1413 12.6618 1192 68.8985 127.109 354.648
327 0 99.147 12.7185 1261 68.8081 127.319 352.121
328 1 46.143 12.1145 559 65.2433 126.886 378.456
329 0 48.0482 11.6966 562 65.1601 126.664 379.276
330 0 49.063 11.3935 559 66.9445 126.513 377.163
331 0 50.0984 14.1322 708 62.1921 126.266 378.777
332 0 53.02 12.9197 685 64.8642 126.32 375.272
333 0 54.0281 11.1794 604 67.8791 126.048 375.094
334 0 57.0691 12.7389 727 65.5901 126.81 374.358
335 0 59.0832 14.1157 834 63.4772 127.102 376.321
336 0 59.0812 11.6788 690 67.7449 126.877 372.884
337 0 62.0777 12.1944 757 66.8851 127.177 374.034
338 0 65.065 14.0014 911 64.4007 127 373.112
339 0 63.1422 11.387 719 68.9207 127.178 372.744
340 0 70.0554 13.2324 927 64.8716 127.688 371.857
341 0 69.0634 11.3084 781 69.2919 127.853 370.725
342 0 74.0255 12.928 957 66.768 128.176 369.63
343 0 75.0658 13.1751 989 66.8665 127.978 367.265
344 0 75.061 13.1626 988 67.3401 127.736 365.759
345 0 79.1234 12.6006 997 67.4022 127.253 365.522
346 0 80.1132 12.2452 981 68.0693 126.544 364.263
347 0 86.1397 13.0137 1121 66.322 127.015 362.616
348 0 87.1025 12.8814 1122 66.6996 126.349 360.505
349 1 45.0673 11.0502 498 65.3876 126.367 380.829
350 0 47.0383 12.4579 586 64.9932 126.396 377.075
351 0 50.0427 11.3703 569 63.9701 125.814 379.432
352 0 50.0543 10.4287 522 67.636 125.977 377.034
353 0 52.056 12.0255 626 65.6262 126.54 375.949
354 0 57.0793 11.6855 667 64.6792 126.222 375.771
355 0 58.0994 11.5836 673 64.838 126.854 375.574
356 0 58.0459 11.9044 691 65.3907 126.522 373.068
357 0 58.0442 11.698 679 66.0412 126.483 373.183
358 0 63.1142 12.3427 779 63.7433 125.959 373.632
359 0 64.0529 12.0057 769 65.1209 125.978 371.896
360 0 66.026 11.2228 741 66.7665 126.584 369.648
361 0 69.0582 12.3229 851 65.6463 127.295 367.727
362 0 72.0359 13.285 957 64.2717 127.23 366.442
363 0 71.0822 11.1561 793 67.8966 127.1 363.636
364 0 74.1263 12.3168 913 66.1632 127.105 361.579
365 0 76.1149 11.8636 903 66.4097 126.427 362.145
366 0 78.0889 11.8455 925 66.5686 126.63 362.778
367 0 81.0564 9.845 798 69.0815 126.766 362.441
368 0 83.0976 12.8283 1066 65.152 126.813 358.467
369 0 85.0878 10.6008 902 68.0632 127.196 359.564
370 1 45.0222 10.0395 452 65.4513 127.268 378.316
371 0 48.077 11.96 575 62.113 126.963 377.082
372 0 48.0253 9.53663 458 65.2533 126.592 376.777
373 0 51.0555 11.889 607 62.0758 126.582 377.491
374 0 53.0464 12.2157 648 63.2886 126.324 373.387
375 0 53.0952 10.9426 581 65.4079 127.332 372.651
376 0 55.1701 12.4161 685 63.2467 128.177 374.8
377 0 55.0504 10.8264 596 66.0503 128.237 374.622
378 0 60.0838 11.5505 694 63.6153 128.153 375.719
379 0 59.0364 9.87527 583 67.6175 127.153 372.443
380 0 62.081 10.1641 631 66.4612 127.777 371.372
381 0 65.0585 11.7125 762 64.0814 128.029 370.249
382 0 66.1282 11.5836 766 64.111 128.308 369.329
383 0 69.1006 11.6642 806 63.6563 127.223 369.194
384 0 72.0358 12.8964 929 61.8708 127.817 367.495
385 0 70.0507 10.9207 765 65.681 128.226 363.362
386 0 77.113 13.1106 1011 61.3492 127.645 365.852
387 0 78.0299 12.1236 946 63.3118 128.229 363.505
388 1 43.0484 8.9202 384 62.8385 128.279 382.182
389 0 43.0346 10.8517 467 60.9058 128.525 381.814
390 0 45.0267 12.5037 563 59.8224 128.327 380.103
391 0 46.0272 10.2548 472 63.2458 128.341 378.951
392 0 52.1728 11.9028 621 59.4461 128.417 381.889
393 0 50.0451 10.8102 541 63.0425 128.009 377.566
394 0 53.0332 11.9736 635 61.0126 128.049 378.173
395 0 52.1671 11.9232 622 61.1929 127.854 378.296
396 0 56.0619 11.3446 636 62.1871 127.561 376.443
397 0 57.0769 12.7722 729 60.2922 127.498 376.857
398 0 59.0661 12.2913 726 61.6419 127.842 375.919
399 0 58.0568 11.2476 653 65.1394 127.91 372.779
400 0 60.064 13.3524 802 62.2195 128.382 369.439
401 0 62.0821 11.0499 686 65.1749 127.934 370.204
402 0 63.0766 11.494 725 63.7076 128.459 373.154
403 0 62.0494 10.8623 674 66.0326 127.92 368.884
