time division length width area intensity CMx CMy
0 0 53.1 13.0697 694 56.5418 429.452 506.929
1 0 51.0345 10.7966 551 60.0599 429.887 507.926
2 0 55.0571 11.5335 635 58.3921 429.775 507.035
3 0 58.1243 13.0754 760 55.7724 429.759 507.007
4 0 56.0558 12.3627 693 57.2367 429.677 505.944
5 0 59.0445 13.0071 768 56.5534 429.513 502.007
6 0 59.0542 11.5995 685 58.1898 428.346 504.515
7 0 63.025 11.8366 746 56.9692 428.176 503.39
8 0 63.2189 12.7968 809 56.2287 427.387 500.45
9 0 65.1138 11.3186 737 58.0393 428.406 502.951
10 0 67.101 14.4409 969 54.162 428.891 500.044
11 0 69.0949 11.4336 790 57.1253 427.891 502.248
12 0 71.2479 12.4355 886 55.9876 428.427 501.799
13 0 74.0915 14.4281 1069 53.6137 428.087 499.016
14 1 38.0742 13.2111 503 53.3757 428.3 516.98
15 0 39.0443 11.8071 461 54.4469 427.766 516.638
16 0 39.0746 11.7979 461 55.6833 427.926 515.041
17 0 41.036 10.6492 437 57.3593 428.005 515.593
18 0 41.0504 11.7417 482 55.8237 427.971 517.102
19 0 44.0425 12.329 543 55.1897 429.098 516.044
20 0 43.0266 12.3644 532 55.8703 428.109 515.947
21 0 45.0676 12.7142 573 56.26 427.319 513.148
22 0 46.0915 13.1044 604 56.1159 427.856 512.556
23 0 48.0447 12.7381 612 56.3088 428.268 513.072
24 0 49.0902 14.9113 732 54.8238 428.067 511.459
25 0 49.0729 11.5542 567 59.0159 427.781 511.871
26 0 49.0637 10.68 524 60.6393 428.053 509.779
27 0 52.0555 11.7375 611 59.5532 428.455 508.753
28 0 55.0641 12.4037 683 58.2621 427.782 509.476
29 0 54.0497 12.1 654 60.393 428.281 508.436
30 0 56.0491 12.8459 720 59.7014 428.751 506.312
31 0 57.0371 11.3435 647 61.1917 428.685 507.895
32 0 60.0468 12.4236 746 60.504 429.139 505.765
33 0 62.0741 13.3228 827 59.6723 428.082 503.701
34 0 62.0272 11.9141 739 62.2747 428.656 503.808
35 0 64.0302 12.5409 803 61.208 428.933 505.354
36 0 66.0304 12.8577 849 61.914 429.166 502.049
37 0 68.037 13.1546 895 61.7877 428.571 502.693
38 0 70.0445 14.6621 1027 60.1636 428.53 502.516
39 0 69.0541 11.2955 780 65.7449 429.226 501.087
40 0 73.0527 12.2925 898 64.9399 429.331 499.582
41 0 75.1342 12.3113 925 65.5665 429.39 497.583
42 0 78.093 12.1138 946 66.0581 429.511 497.793
43 0 81.0428 13.5361 1097 65.2005 429.805 496.188
44 1 42.0274 12.5632 528 65.3674 429.723 514.384
45 0 42.0205 11.4706 482 65.7012 428.842 517.012
46 0 44.0352 12.7852 563 65.8011 430.098 511.396
47 0 44.0436 12.5784 554 66.4224 430.005 512.182
48 0 46.0347 11.0569 509 66.2809 429.64 515.694
49 0 47.0655 12.4932 588 66.6156 429.842 512.903
50 0 47.0467 11.2441 529 68.8166 430.095 512.654
51 0 51.0316 11.1304 568 68.0968 429.968 511.824
52 0 50.1031 12.135 608 67.6118 429.946 510.161
53 0 52.0606 12.4086 646 67.2074 430.525 510.362
54 0 54.0753 11.3176 612 68.7908 430.405 508.972
55 0 56.0884 12.4803 700 67.6271 429.9 507.277
56 0 57.0935 13.3816 764 66.9777 430.188 505.74
57 0 57.0613 12.9685 740 67.377 430.259 506.827
58 0 59.0408 10.5859 625 70.5344 430.861 505.571
59 0 63.0659 13.145 829 66.3764 430.251 504.563
60 0 63.0645 12.2097 770 68.2325 430.014 503.76
61 0 64.0472 12.2097 782 69.0153 429.802 501.921
62 0 70.0201 12.782 895 67.4302 430.204 500.552
63 0 69.0642 11.8006 815 69.5227 429.737 498.952
64 0 72.1135 12.9102 931 68.0419 429.737 497.35
65 0 76.0982 12.5233 953 67.9969 429.712 498.112
66 0 78.0999 13.201 1031 68.2017 430.047 494.772
67 0 81.0667 12.1135 982 69.1049 429.876 494.995
68 0 82.113 11.7156 962 70.1954 430.135 495.549
69 0 86.0546 11.4346 984 70.2652 429.756 494.226
70 0 90.117 13.4159 1209 67.9413 430.156 490.817
71 1 46.0381 11.4688 528 69.1799 429.945 510.252
72 0 48.0492 12.9034 620 67.4355 429.963 509.685
73 0 49.042 11.48 563 68.9378 429.458 509.689
74 0 51.0551 11.8304 604 68.7583 429.778 507.555
75 0 53.0851 11.4345 607 68.5568 429.206 508.901
76 0 52.0425 10.4146 542 71.5221 429.581 504.33
77 0 56.0187 12.835 719 67.5577 429.713 505.145
78 0 55.0435 12.0995 666 69.3078 428.604 502.77
79 0 59.0494 11.6174 686 68.4956 429.65 504.946
80 0 61.051 13.0055 794 67.029 430.159 503.258
81 0 62.0832 12.2416 760 68.825 429.797 501.879
82 0 66.0881 13.0735 864 67.015 430.461 500.507
83 0 65.1015 10.8907 709 70.4161 430.441 500.618
84 0 70.0696 13.772 965 66.9036 430.576 498.626
85 0 73.0657 13.7547 1005 66.1373 429.524 499.818
86 0 73.1662 10.155 743 71.031 429.861 499.762
87 0 77.1731 12.1027 934 68.4486 429.768 497.157
88 0 82.1104 12.2396 1005 68.61 429.589 493.186
89 0 84.1424 12.3957 1043 68.5129 430.467 492.028
90 0 86.0672 13.4662 1159 68.0423 430.816 490.128
91 1 46.0118 11.9534 550 67.2436 430.78 510.327
92 0 48.1021 12.0577 580 66.519 430.607 509.072
93 0 49.0407 10.4199 511 68.7984 430.892 509.307
94 0 48.1142 10.9947 529 68.0529 430.875 509.285
95 0 49.0211 11.1993 549 68.4827 430.619 507.922
96 0 53.0863 12.15 645 66.5256 429.95 506.854
97 0 56.0946 13.0494 732 64.2199 430.889 507.5
98 0 54.1006 11.645 630 67.2016 430.06 506.846
99 0 59.0681 12.9173 763 65.1782 430.782 504.57
100 0 60.0488 12.0402 723 66.018 430.473 502.934
101 0 62.077 12.0012 745 65.8658 430.129 502.723
102 0 63.0696 12.1453 766 65.8903 430.32 500.432
103 0 65.058 11.8663 772 66.7642 430.929 499.087
104 0 66.1946 11.9345 790 66.0468 430.863 499.711
105 0 68.0569 11.079 754 66.9523 429.935 498.735
106 0 73.0813 13.1224 959 64.048 430.893 497.731
107 0 74.0373 12.0885 895 65.7274 429.969 495.73
108 0 75.1304 10.4219 783 68.0587 429.434 492.943
109 0 78.1189 11.1881 874 67.119 430.34 493.37
110 0 82.038 12.4942 1025 65.2098 429.62 492.546
111 0 84.0933 11.951 1005 66.1204 430.236 492.281
112 0 87.1 11.7107 1020 66.652 430.946 491.695
113 1 43.0503 10.1974 439 65.7426 430.617 512.134
114 0 45.0503 11.4761 517 64.9458 430.739 509.207
115 0 45.0579 10.1647 458 66.7642 430.478 511.332
116 0 48.0452 12.6548 608 64.9753 431.383 508.755
117 0 47.0232 12.3556 581 65.5697 431.007 508.353
118 0 48.0241 11.5359 554 66.8394 430.888 506.821
119 0 51.0901 11.4699 586 66.0939 431.203 507.324
120 0 53.0184 12.8446 681 64.6373 430.615 505.656
121 0 54.062 11.8752 642 65.6947 430.812 504.137
122 0 56.1012 10.3741 582 67.7801 431.469 503.247
123 0 56.0491 11.7397 658 66.2781 430.652 502.377
124 0 58.0489 11.4731 666 66.6892 430.767 500.877
125 0 60.0908 11.7655 707 65.7426 430.621 502.127
126 0 63.0588 11.8144 745 66.0282 430.725 497.988
127 0 65.0763 13.0155 847 64.6541 430.777 497.836
128 0 66.0897 12.3166 814 65.4914 430.813 496.391
129 0 68.0473 11.3891 775 67.3045 430.148 494.667
130 0 70.1109 11.439 802 66.7656 429.882 493.478
131 0 74.1758 12.4164 921 65.0423 429.593 494.978
132 0 74.0938 11.256 834 67.2086 430.068 492.741
133 0 80.0504 12.9793 1039 63.9692 430.291 493.002
134 0 81.1684 13.4905 1095 64.1717 429.661 487.633
135 0 83.0563 11.0527 918 66.8704 430.706 489.196
136 0 86.0852 12.2088 1051 65.7298 431.281 486.022
137 1 43.0486 10.0119 431 65.464 431.392 508.807
138 0 46.0267 12.1017 557 62.4847 431.251 508.379
139 0 48.0246 10.7653 517 64.8723 430.586 505.899
140 0 49.0425 10.3584 508 65.4567 430.287 506.114
141 0 50.0537 8.73062 437 67.3318 430.872 506.048
142 0 51.1111 12.3065 629 62.9841 430.178 502.865
143 0 53.025 12.6733 672 61.5848 431.06 504.44
144 0 56.0936 12.3722 694 62.0533 431.321 502.307
145 0 58.1354 12.7117 739 61.2788 431.088 500.789
146 0 59.1301 10.6206 628 63.3408 431.142 502.083
147 0 60.2195 11.9895 722 62.1302 430.47 499.771
148 0 62.3156 11.2331 700 62.8671 429.753 498.909
149 0 63.0424 11.7857 743 62.2234 429.864 497.869
150 0 66.0243 11.0111 727 62.6589 429.843 498.514
151 0 69.1016 10.5063 726 63.9697 430.225 494.364
152 0 71.0976 11.2803 802 62.495 430.019 494.136
153 0 76.1615 10.8848 829 62.4451 429.825 495.101
154 0 76.1246 10.601 807 63.5279 429.489 494.161
155 0 78.0724 11.7199 915 63.0262 430.486 489.503
156 1 41.1313 10.4543 430 62.0767 430.877 510.921
157 0 42.1308 10.6335 448 61.9241 430.792 508.279
158 0 45.1359 12.1633 549 59.5337 430.656 508.856
159 0 45.0265 10.5271 474 62.1308 429.937 507.511
160 0 45.0474 10.8552 489 62.3333 429.548 506.861
161 0 47.0908 10.4479 492 62.937 429.657 507.453
162 0 51.1378 11.1268 569 61.3989 430.081 507.649
163 0 50.1547 9.80965 492 63.8659 430.874 505.112
164 0 52.0785 11.3482 591 62.3012 430.751 502.712
165 0 53.0593 10.4035 552 62.8514 430.466 503.375
166 0 53.11 8.52947 453 65.9691 431.013 501.382
167 0 59.109 12.3332 729 60.0768 430.413 502.018
168 0 61.0834 13.326 814 59.1265 430.547 500.474
169 0 60.1343 10.8757 654 62.5841 430.884 497.936
170 0 65.1832 11.3526 740 61.073 430.842 500.785
171 0 65.2226 11.6371 759 61.2635 430.555 495.924
172 0 66.2321 11.0521 732 62.1366 430.904 493.843
173 0 72.255 12.3867 895 59.4547 431.623 498.171
174 0 74.0493 11.8165 875 61.0766 430.998 494.113
175 0 75.0918 11.1464 837 61.5699 431.412 490.775
176 0 78.0888 9.89899 773 62.3182 431.255 493.759
177 0 81.0877 12.2953 997 60.2257 430.107 487.435
178 0 82.0963 10.171 835 62.5581 430.217 488.504
179 1 39.0637 8.06376 315 62.8825 430.81 507.895
180 0 43.0176 11.4837 494 58.3138 429.966 509.055
181 0 45.1129 10.5735 477 59.1593 429.233 508.901
182 0 44.0866 11.364 501 59.6248 429.483 505.653
183 0 47.1012 10.8702 512 59.6289 429.676 506.42
184 0 49.0459 12.4577 611 57.198 428.784 505.877
185 0 50.0281 11.8933 595 57.8403 429.323 505.449
186 0 52.0871 9.52252 496 60.4214 429.192 505.488
187 0 53.0231 9.65616 512 60.0469 428.867 503.236
188 0 51.0458 9.77554 499 60.9218 427.723 500.581
189 0 57.0379 12.3427 704 57.358 427.219 501.347
190 0 58.0772 10.5205 611 59.0671 427.1 502.213
191 0 59.0437 12.0589 712 57.3904 426.201 501.919
192 0 62.0305 11.1558 692 58.591 426.342 499.551
193 0 62.0453 12.1202 752 57.5545 426.544 500.316
194 0 63.159 11.194 707 58.9689 426.406 498.859
195 0 66.0852 10.4108 688 59.311 426.307 498.737
196 0 71.1267 12.78 909 56.1133 426.826 498.866
197 0 70.1915 10.7705 756 58.8003 425.829 496.586
198 0 73.1087 10.0125 732 59.0437 425.724 499.117
199 0 77.1503 12.0674 931 56.9871 425.715 496.472
200 0 79.1322 11.5629 915 57.635 425.941 495.014
201 0 79.0792 10.9384 865 58.8439 425.452 492.992
202 0 82.0724 10.7588 883 58.974 425.865 492.076
203 0 89.1265 12.9591 1155 55.5082 426.322 493.661
204 0 89.149 11.9351 1064 57.4492 425.828 490.456
205 1 48.077 10.4416 502 55.8347 424.96 511.657
206 0 48.0181 12.6202 606 53.8069 425.982 513.165
207 0 51.014 10.6637 544 55.7849 424.809 511.165
208 0 50.0326 11.3126 566 55.1025 424.373 512.512
209 0 53.1007 11.2428 597 56.3434 426.111 510.322
210 0 53.0653 11.7402 623 56.2087 425.947 509.345
211 0 56.2139 10.9937 618 55.9094 425.804 509.136
212 0 56.1244 10.9756 616 56.3052 425.38 508.084
213 0 59.0739 11.5787 684 55.212 424.64 506.452
214 0 60.1554 9.57521 576 56.5799 423.797 510.342
215 0 58.0833 7.90245 459 59.1133 424.057 508.092
216 0 63.2844 12.5307 793 54.4615 424.518 505.517
217 0 64.1639 10.1926 654 56.6804 423.572 505.307
218 0 67.0698 11.6148 779 55.62 423.573 501.883
219 0 68.1279 10.3629 706 56.7663 423.931 502.626
220 0 71.1312 11.9216 848 55.5814 424.107 499.594
221 0 71.1707 11.072 788 56.2754 424.322 500.933
222 0 74.1077 12.4953 926 54.9374 424.214 497.012
223 0 77.0923 12.7639 984 55.0061 423.965 496.819
224 0 80.1574 11.1406 893 56.7402 424.336 495.175
225 0 83.097 13.0691 1086 54.5534 424.723 494.403
226 1 41.0437 8.77115 360 57.4833 423.847 512.981
227 0 42.0657 10.6262 447 55.8971 423.902 512.351
228 0 44.055 9.76052 430 55.8837 423.253 514.058
229 0 45.0558 9.83226 443 56.0203 423.174 510.682
230 0 44.036 9.03807 398 57.1784 424.234 513.495
231 0 47.0773 11.1306 524 55.7786 424.844 510.456
232 0 48.0663 10.5271 506 57.0889 424.425 508.917
233 0 49.0763 10.2493 503 57.0417 424.932 510.161
234 0 51.0426 10.2659 524 57.187 424.265 508.832
235 0 56.1117 12.2078 685 54.9971 424.185 506.156
236 0 56.0204 11.8885 666 55.6396 424.273 506.188
237 0 57.1513 13.4905 771 53.8768 424.606 505.503
238 0 57.161 10.9865 628 57.7118 424.511 504.089
239 0 57.1603 11.0566 632 57.288 423.913 505.245
240 0 60.2707 11.0667 667 57.0915 424.741 505.063
241 0 63.1042 11.79 744 57.1989 425.065 499.036
242 0 63.207 11.1538 705 58.3972 425.621 498.077
243 0 66.1532 12.3501 817 56.4064 424.29 498.04
244 0 69.4681 10.3933 722 57.8615 424.521 499.819
245 0 70.1854 12.4812 876 56.4817 424.882 496.513
246 0 72.2948 12.4629 901 56.364 424.562 496.038
247 0 73.4098 12.2599 900 57.2489 425.048 489.589
248 0 74.3684 9.93701 739 59.0122 424.476 495.497
249 0 78.1323 14.2707 1115 54.6072 424.952 492.068
250 0 82.2298 13.8879 1142 55.0727 425.06 489.13
251 0 82.3053 11.9919 987 57.2614 425.716 491.767
252 1 43.1517 10.7296 463 57.5227 425.486 510.16
253 0 45.095 11.0877 500 57.21 425.46 510.434
254 0 48.2508 12.1449 586 55.3925 425.922 511.567
255 0 44.1444 10.1258 447 59.3669 426.038 509.329
256 0 50.1761 12.496 627 56.0526 425.576 508.163
257 0 51.0624 11.7699 601 56.6556 426.328 509.058
258 0 50.0566 11.1674 559 57.2308 425.587 511.565
259 0 54.1783 12.1451 658 56.2736 425.17 508.523
260 0 56.2174 14.1593 796 53.809 425.668 508.126
261 0 57.0655 13.5108 771 54.489 425.191 508.367
262 0 58.1657 11.8455 689 56.656 424.866 507.907
263 0 59.3516 11.1876 664 57.5542 425.182 504.045
264 0 60.0562 12.2219 734 56.9837 425.316 501.46
265 0 62.1344 14.3077 889 54.721 424.971 501.611
266 0 66.2059 11.7965 781 56.1946 424.721 505.376
267 0 68.1564 14.2026 968 54.2593 425.315 502.883
268 0 66.1717 11.4097 755 58.3669 425.151 501.795
269 0 69.1245 12.2677 848 57.0224 425.165 504.172
270 0 73.5019 12.9384 951 56.0421 425.025 501.808
271 0 75.2749 11.2122 844 58.6457 425.195 495.787
272 0 76.089 12.1305 923 58.2557 425.354 494.927
273 0 76.1955 10.893 830 60.1904 424.342 495.478
274 0 82.2881 12.2983 1012 58.1028 424.977 496.226
275 0 84.21 13.4188 1130 56.6699 424.761 496.922
276 1 43.2582 11.0962 480 57.9167 425.26 516.412
277 0 44.148 12.141 536 57.2892 424.621 514.474
278 0 46.1288 10.449 482 59.9544 425.276 513.373
279 0 46.1026 10.9972 507 60.2189 424.089 512.996
280 0 48.0816 10.4614 503 60.2624 423.899 512.324
281 0 49.0547 11.3954 559 59.644 424.546 509.261
282 0 52.0438 11.106 578 59.827 424.652 510.149
283 0 55.1166 13.662 753 55.9907 424.429 511.539
284 0 55.0392 14.1899 781 56.8259 424.001 509.137
285 0 58.1105 11.6674 678 58.6239 423.395 508.922
286 0 59.0758 12.5771 743 58.2503 423.54 507.031
287 0 58.0472 10.7154 622 61.1125 423.723 504.965
288 0 61.0997 11.8986 727 59.3287 423.598 505.669
289 0 65.0253 11.8569 771 58.4137 423.451 503.916
290 0 65.1169 13.6217 887 56.3281 423.052 503.754
291 0 68.062 13.1645 896 57.2868 423.218 501.417
292 0 72.132 13.711 989 56.2781 423.416 501.914
293 0 72.0641 12.3224 888 58.2151 423.642 500.366
294 0 73.2339 11.8661 869 59.5029 423.382 498.338
295 0 78.1726 12.8306 1003 57.8973 424.701 496.565
296 1 41.0381 11.6721 479 57.4906 424.392 514.597
297 0 43.0585 9.91674 427 59.2342 423.405 512.56
298 0 44.1342 10.5134 464 58.5216 423.041 511.623
299 0 47.0868 9.70547 457 58.9912 423.039 512.792
300 0 47.0972 11.7841 555 57.3928 423.582 511.054
301 0 51.1153 11.8164 604 56.6474 423.159 510.917
302 0 53.0758 12.0771 641 56.9984 422.574 510.842
303 0 51.1514 11.2998 578 58.2561 422.552 509.121
304 0 53.1376 10.5763 562 57.5801 422.762 511.698
305 0 56.1282 12.1686 683 56.123 422.335 508.758
306 0 57.1939 14.1624 810 54.7444 422.919 505.63
307 0 58.0658 11.1081 645 57.8884 422.505 503.479
308 0 60.066 11.1211 668 57.4147 422.254 506.621
309 0 63.166 12.6334 798 55.8434 422.786 501.668
310 0 64.1236 11.4934 737 56.8318 422.905 502.909
311 0 68.1028 11.7763 802 56.6708 422.228 500.056
312 0 69.0895 11.3186 782 57.2852 423.171 500.205
313 0 71.0935 12.5328 891 56.2637 423.119 498.279
314 0 73.1182 13.5124 988 55.3006 422.535 495.425
315 0 76.1392 10.3757 790 57.943 422.095 498.08
316 0 81.1841 14.8674 1207 53.4027 422.309 495.833
317 0 81.1332 12.2145 991 57.3471 422.791 493.071
318 0 84.1926 12.8752 1084 55.8727 422.532 493.951
319 0 86.1556 10.6667 919 58.6464 422.556 490.631
320 1 43.0423 8.68913 374 58.0214 423.414 512.259
321 0 46.033 10.297 474 56.8397 424.105 511.489
322 0 46.0518 11.7259 540 55.8019 424.187 510.139
323 0 50.0833 10.9018 546 55.8901 424.2 511.436
324 0 49.061 10.7417 527 57.3245 423.966 510.387
325 0 51.1026 11.5063 588 56.4847 423.556 509.985
326 0 52.1527 11.2554 587 57.0903 422.486 507.826
327 0 53.0804 10.9457 581 58.1979 422.267 506.437
328 0 54.0489 11.8596 641 57.4119 421.599 508.161
329 0 58.1305 11.5946 674 57.7745 422.45 505.407
330 0 59.131 10.3161 610 59.677 422.19 502.69
331 0 59.1616 10.26 607 59.1236 422.858 506.031
332 0 62.109 12.0111 746 57.496 422.225 504.216
333 0 64.1171 9.46706 607 60.6672 423.359 503.563
334 0 67.1017 11.8924 798 57.9511 421.959 502.223
335 0 68.1605 10.2992 702 59.9316 421.913 501.484
336 0 71.2462 13.1796 939 57.3951 421.917 497.755
337 0 74.2209 11.3984 846 59.2411 422.366 494.203
338 0 75.1775 10.5218 791 60.3135 422.668 497.334
339 0 78.0934 11.7423 917 59.916 422.429 494.12
340 0 82.1799 12.0224 988 59.8198 422.824 492.902
341 0 84.1436 11.2546 947 60.6631 422.544 494.15
342 0 87.1307 12.0968 1054 60.2211 422.152 491.036
343 0 90.1379 12.3367 1112 60.2572 421.821 491.428
344 1 46.0292 10.3413 476 57.1555 422.7 514.626
345 0 45.0089 9.95359 448 59.5759 423.989 514.158
346 0 47.0251 11.7384 552 58.5163 423.453 513.154
347 0 50.0227 10.1554 508 59.7854 423.724 513.691
348 0 48.0462 11.2392 540 60.2907 422.15 510.996
349 0 50.0431 12.0096 601 59.1797 422.338 509.651
350 0 53.0354 12.4257 659 58.3263 422.476 509.425
351 0 54.0732 10.6152 574 61.3937 422.502 506.822
352 0 56.0607 12.5578 704 57.821 422.28 507.582
353 0 56.0485 10.4731 587 61.0136 422.491 505.618
354 0 60.0554 10.9732 659 59.4598 422.602 506.035
355 0 61.0273 13.0106 794 56.9723 422.042 504.907
356 0 62.058 10.9575 680 59.5574 422.038 501.951
357 0 61.0756 10.1841 622 61.2572 422.582 501.757
358 0 64.0468 10.7421 688 60.4782 423.124 502.969
359 0 68.0656 12.106 824 57.9041 423.146 503.591
360 0 68.08 10.6492 725 60.8386 423.313 499.768
361 0 70.0491 13.9188 975 56.8503 423.159 498.445
362 0 72.169 12.3322 890 58.8191 422.563 498.122
363 0 74.0993 9.82466 728 62.0755 422.832 496.081
364 0 75.0475 9.88707 742 62.6065 423.059 492.735
365 0 80.1606 12.2005 978 59.2771 422.56 494.471
366 1 43.03 10.1557 437 58.9565 423.396 513.126
367 0 43.0294 9.17978 395 60.3646 423.603 512.6
368 0 43.0191 10.2513 441 60.4875 423.356 510.032
369 0 46.0135 10.975 505 59.5663 423.354 510.675
370 0 48.1296 10.908 525 60.501 422.87 511.484
371 0 49.1421 11.3752 559 60.8104 422.631 508.796
372 0 50.147 11.7654 590 60.2847 422.561 509.561
373 0 54.0917 11.5175 623 60.1091 422.88 508.998
374 0 53.1934 12.4452 662 60.0076 423.529 506.926
375 0 54.152 10.6737 578 61.8028 423.363 507.054
376 0 54.0781 8.74661 473 63.9789 423.571 509.867
377 0 58.208 13.0394 759 59.1634 423.967 507.166
378 0 57.1275 11.4481 654 62.2615 423.321 505.226
379 0 61.1555 13.2613 811 59.3896 423.144 504.894
380 0 61.1799 12.3243 754 60.8886 423.423 503.153
381 0 63.1554 11.4638 724 62.25 422.829 501.762
382 0 66.1253 12.6275 835 60.2707 422.64 501.186
383 0 69.2467 13.2281 916 59.5469 422.861 501.313
384 0 70.1149 12.1229 850 61.3482 423.422 499.832
385 0 74.1279 12.7347 944 60.304 423.493 500.299
386 0 76.1199 12.7431 970 59.9866 422.938 498.899
387 0 76.1463 12.673 965 60.5565 422.687 496.59
388 1 42.1419 12.5528 529 58.2836 424.178 514.788
389 0 40.1109 10.2466 411 62.1679 423.703 513.533
390 0 44.0283 11.9468 526 60.3023 423.563 512.42
391 0 44.0802 13.1805 581 59.1274 423.315 512.384
392 0 45.0503 12.0532 543 61.0994 423.123 511.661
393 0 48.0613 10.7155 515 62.2893 423.973 512.419
394 0 47.0218 10.1868 479 64.0418 424.046 510.708
395 0 49.1076 10.7315 527 63.389 423.77 510.77
396 0 52.0247 11.2639 586 62.1502 423.891 509.86
397 0 54.1473 12.2259 662 60.8943 423.847 508.394
398 0 51.1396 11.3806 582 64.1478 423.701 508.027
399 0 55.1173 12.3555 681 62.5007 423.295 508.239
400 0 57.0378 11.694 667 63.1589 423.663 505.46
401 0 57.0345 11.3089 645 64.4899 423.936 504.003
402 0 58.1521 11.7279 682 64.217 424.13 505.386
403 0 60.1194 12.6082 758 63.1293 423.734 504.038
404 0 63.0878 12.0784 762 63.8123 423.059 502.843
