time division length width area intensity CMx CMy
0 0 37.0118 11.1586 413 64.8644 200.516 512.37
1 0 40.019 12.3691 495 62.5333 201.085 512.473
2 0 41.0277 11.48 471 63.1359 200.673 513.686
3 0 41.0292 10.6509 437 65.4256 200.659 513.256
4 0 42.0334 11.5622 486 63.6091 200.539 512.996
5 0 44.0443 12.056 531 62.5443 200.571 513.701
6 0 45.0307 12.5914 567 62.6279 199.496 512.333
7 0 45.0782 12.9109 582 63.012 199.538 509.899
8 0 45.1181 12.3232 556 63.741 199.133 512.345
9 0 46.0328 12.9038 594 64.2811 200.365 509.699
10 0 47.1448 12.9813 612 63.598 200.716 510.536
11 0 49.0733 12.0636 592 63.7196 199.65 512.008
12 0 52.0685 13.1173 683 62.1918 200.223 510.777
13 0 51.08 14.4479 738 61.4878 200.019 507.519
14 0 51.1164 13.6942 700 62.7771 200.033 508.544
15 0 53.0932 12.6193 670 63.7522 199.222 509.054
16 0 55.0428 13.8619 763 62.0013 199.427 507.488
17 0 55.0426 12.3541 680 63.9279 199.581 508.357
18 0 56.0376 12.1526 681 64.138 199.396 508.524
19 0 58.0886 13.4278 780 62.2974 200.663 507.646
20 0 61.1086 14.6788 897 60.408 199.633 506.534
21 0 61.0302 12.3873 756 63.5291 198.896 505.72
22 0 62.0224 12.8341 796 63.304 199.433 503.539
23 0 64.1289 15.0166 963 60.4351 199.819 502.893
24 0 66.1493 13.6812 905 62.1923 199.781 502.199
25 0 69.0701 12.8275 886 63.1512 199.41 501.982
26 0 70.106 12.4811 875 63.7074 199.67 500.054
27 0 72.0668 14.4311 1040 62.0356 199.997 498.48
28 0 73.2642 12.9941 952 64.3477 199.225 498.254
29 0 77.1213 13.3815 1032 64.3149 199.757 495.838
30 0 79.039 13.9045 1099 63.8135 200.24 495.755
31 0 81.1124 13.4011 1087 64.7488 200.02 495.643
32 0 82.0978 13.1063 1076 65.4572 200.624 493.424
33 0 83.1979 13.0172 1083 66.1284 199.588 491.502
34 1 42.0524 11.4619 482 66.8382 200.448 512.421
35 0 45.0966 11.3756 513 65.7018 200.48 514.125
36 0 46.1824 11.7577 543 66.4843 200.549 511.873
37 0 44.058 10.2138 450 68.5778 200.06 513.113
38 0 48.0381 12.8231 616 65.3555 199.899 512.632
39 0 49.0671 13.0434 640 65.3156 200.641 511.698
40 0 52.0416 13.7006 713 64.122 200.813 510.028
41 0 51.0774 12.0993 618 66.8091 200.927 510.146
42 0 53.0488 13.0069 690 66.587 201.036 508.33
43 0 54.0353 11.7331 634 68.3186 201.262 509.902
44 0 54.0381 12.5282 677 68.8006 201.053 507.465
45 0 58.0897 11.7921 685 68.9504 200.311 507.124
46 0 60.0356 12.5759 755 68.4622 201.428 505.921
47 0 63.1337 12.9883 820 68.1549 201.411 503.11
48 0 66.0564 14.4119 952 65.8992 201.066 504.658
49 0 67.0687 13.0612 876 69.4292 201.279 500.3
50 0 69.0529 13.3231 920 69.7206 201.379 501.013
51 0 71.069 12.7763 908 70.0672 201.265 501.167
52 0 73.0552 12.251 895 71.3676 201.299 499.478
53 0 76.1438 14.5645 1109 68.6808 201.857 496.446
54 0 77.0892 12.9979 1002 71.1826 201.792 496.855
55 0 80.0989 12.6718 1015 71.9202 201.058 496.815
56 1 43.0281 11.0393 475 72.1284 201.785 514.444
57 0 43.0908 10.5127 453 75.5872 201.792 513.177
58 0 43.0391 11.3385 488 74.5861 202.594 513.131
59 0 44.0902 12.2476 540 73.4389 201.828 512.224
60 0 46.072 11.5906 534 75.3258 201.89 510.88
61 0 49.0597 13.6772 671 70.9404 201.361 511.395
62 0 49.0554 13.0057 638 73.7884 202.014 508.853
63 0 50.0234 12.5141 626 73.524 201.38 509.687
64 0 53.0612 12.7212 675 72.6489 201.479 508.739
65 0 52.0663 10.89 567 76.0035 201.469 508.97
66 0 57.0643 12.9503 739 73.3599 201.854 506.158
67 0 57.0591 13.6876 781 72.8412 201.708 506.348
68 0 61.1353 12.9222 790 73.5076 202.019 504.822
69 0 62.034 12.8317 796 73.8304 201.583 503.994
70 0 63.052 12.0853 762 74.6247 201.946 503.678
71 0 66.1087 12.7668 844 74.3815 201.55 502.422
72 0 68.0576 13.1653 896 73.9911 201.458 501.287
73 0 71.1506 12.9725 923 74.1918 200.957 500.445
74 0 72.0324 13.3273 960 74.2458 201.351 497.133
75 0 75.047 13.0318 978 74.5112 200.783 497.959
76 1 39.0648 11.5705 452 75.7544 201.374 513.308
77 0 41.1311 12.5452 516 72.8818 201.347 514.438
78 0 43.0378 12.7562 549 72.4426 200.313 513.668
79 0 43.0381 11.85 510 74.4451 201.327 513.496
80 0 44.0644 12.4817 550 75.6236 201.865 510.191
81 0 44.1041 11.6316 513 76.6452 201.501 511.388
82 0 46.0667 11.9175 549 76.1676 202.204 510.164
83 0 48.1513 13.2291 637 74.1821 202.146 508.802
84 0 49.0277 13.0334 639 75.1111 202.455 508.304
85 0 49.0153 12.0575 591 76.6531 201.391 506.614
86 0 46.0886 10.2194 471 80.0849 201.626 504.403
87 0 55.0864 13.3245 734 72.2071 201.571 508.752
88 0 56.0866 13.8179 775 72.9561 201.435 505.244
89 0 56.1353 12.1136 680 76.1368 202.249 504.638
90 0 59.0583 12.8517 759 75.0488 202.57 504.238
91 0 58.1337 13.0389 758 76.3549 202.412 502.318
92 0 62.0234 13.1402 815 74.8638 202.294 503.757
93 0 63.2198 14.0937 891 75.2873 202.524 500.153
94 0 65.0564 12.4968 813 76.7614 202.499 500.499
95 0 66.0871 12.075 798 77.8421 202.241 501.833
96 0 69.2077 11.6461 806 79.2221 201.627 498.676
97 0 70.0916 11.913 835 79.1174 202.424 500.048
98 0 72.0641 12.3362 889 79.0079 201.656 499.528
99 0 75.0569 12.0442 904 80.2876 202.371 498.248
100 0 78.0415 12.8906 1006 79.7296 202.031 495.182
101 0 81.1268 13.0783 1061 79.721 201.618 493.974
102 0 85.0789 13.2348 1126 78.9014 201.836 493.915
103 1 43.0378 12.3612 532 79.2256 202.573 513.429
104 0 45.0336 12.1909 549 80.5337 202.413 512.792
105 0 46.0495 11.9437 550 82.0364 201.625 511.302
106 0 47.2388 12.0663 570 83.1912 202.461 510.788
107 0 49.1117 12.5225 615 81.8 201.55 509.437
108 0 49.0227 12.0556 591 82.8003 201.059 510.296
109 0 51.0429 13.4005 684 80.6608 201.999 508.664
110 0 51.0918 11.6849 597 83.7822 201.407 508.956
111 0 51.0337 12.8738 657 83.0076 201.737 507.157
112 0 55.0436 11.7362 646 83.6873 202.469 508.144
113 0 55.1023 12.5585 692 82.8858 201.809 506.199
114 0 58.0316 12.7861 742 82.8302 202.022 502.771
115 0 60.096 13.1789 792 81.8371 201.691 503.215
116 0 61.0743 12.493 763 83.772 202.603 503.253
117 0 65.1037 13.7473 895 81.3989 202.223 502.242
118 0 67.0819 12.4624 836 83.0335 202.063 501.987
119 0 69.0309 13.3708 923 82.5786 202.491 499.658
120 0 70.0603 12.1752 853 85.5018 201.919 498.383
121 0 73.0897 12.642 924 83.987 202.1 496.815
122 0 77.1621 13.0764 1009 83.4133 202.687 496.382
123 0 79.1316 13.6734 1082 83.0675 202.001 494.513
124 0 80.0813 13.8359 1108 83.6588 202.081 492.305
125 0 82.0853 14.2535 1170 83.4957 201.966 492.291
126 1 40.0951 12.5452 503 82.8569 202.197 512.324
127 0 41.0374 12.647 519 82.4374 202.143 511.794
128 0 42.0095 11.7116 492 85.6037 202.299 509.632
129 0 44.064 12.096 533 84.7411 201.55 509.578
130 0 45.0248 12.482 562 84.3772 201.283 508.427
131 0 45.0135 11.9964 540 85.5722 201.006 509.015
132 0 47.1531 12.7457 601 82.3245 201.396 510.125
133 0 47.0439 12.0313 566 85.3145 201.689 506.882
134 0 49.0838 12.8759 632 82.8734 201.125 507.737
135 0 52.083 13.4209 699 81.1202 202.094 506.522
136 0 53.0928 13.1656 699 82.5379 202.777 504.069
137 0 54.058 13.504 730 81.4562 202.421 504.263
138 0 56.048 13.542 759 81.17 202.306 502.98
139 0 58.0476 13.1444 763 80.6461 201.628 503.347
140 0 58.0393 11.8196 686 83.3265 201.446 504.195
141 0 62.0785 13.2896 825 80.0436 201.999 502.766
142 0 62.1432 12.1494 755 82.6702 201.721 500.717
143 0 67.1757 13.3679 898 79.1314 202.374 499.726
144 0 67.0419 12.6339 847 81.2952 202.708 498.844
145 0 67.0924 12.7585 856 82.1764 202.602 497.967
146 0 70.1056 12.9376 907 82.1301 202.481 495.278
147 0 73.0824 12.8896 942 81.6157 201.764 495.633
148 1 37.1364 11.4443 425 82.2259 201.339 511.974
149 0 39.0575 11.035 431 82.2088 201.23 511.719
150 0 40.0633 11.7065 469 80.9275 201.435 512.281
151 0 41.0328 12.3316 506 80.7609 201.925 510.275
152 0 42.0335 12.7517 536 80.0728 201.731 509.8
153 0 42.0232 11.1367 468 83.0641 201.513 510.763
154 0 42.1096 11.7075 493 83.1217 201.258 510.45
155 0 47.0216 11.9307 561 80.8396 202.228 509.496
156 0 48.0438 13.2795 638 79.2429 202.475 509.447
157 0 51.0398 13.1858 673 77.9361 202.296 508.339
158 0 52.0717 12.7517 664 78.5256 202.181 507.477
159 0 51.1099 11.8764 607 80.5371 201.341 506.549
160 0 52.0522 11.2579 586 80.8993 201.073 507.422
161 0 56.0796 13.2134 741 77.5533 201.14 505.561
162 0 56.0371 11.1533 625 80.3904 201.43 506.938
163 0 56.2469 10.9873 618 81.2282 202.35 504.738
164 0 60.0697 12.7519 766 77.735 202.322 501.604
165 0 61.0611 11.382 695 79.8187 201.954 501.532
166 0 64.0397 11.7583 753 78.8207 202.368 500.482
167 0 65.0595 11.6201 756 78.3929 201.901 499.399
168 0 70.0795 13.4847 945 74.9016 202.103 497.545
169 0 69.1558 12.4212 859 76.9453 202.199 495.116
170 0 71.0631 13.0025 924 76.0108 202.229 495.772
171 0 72.097 11.4984 829 78.6212 202.06 494.104
172 1 37.037 10.341 383 75.2272 202.418 512.684
173 0 38.0071 11.34 431 74.007 203.116 512.77
174 0 39.0078 11.4593 447 74.1723 202.512 511.593
175 0 40.0143 10.5712 423 74.617 202.981 511.378
176 0 40.0341 10.8657 435 74.2138 202.526 511.625
177 0 43.1166 12.6169 544 71.3658 201.713 509.838
178 0 42.0286 10.7546 452 74.2566 201.763 510.066
179 0 45.0404 11.1455 502 73.1135 202 507.52
180 0 47.0384 11.2461 529 72.9735 201.178 508.021
181 0 49.1465 12.2287 601 71.0449 200.454 508.067
182 0 47.1322 10.3538 488 74.4713 200.445 507.934
183 0 51.054 11.8698 606 71.4802 200.797 507.053
184 0 51.1285 12.5957 644 71.3991 200.11 505.969
185 0 55.0578 12.5686 692 69.9856 200.658 505.454
186 0 54.0869 10.668 577 72.7296 200.567 506.511
187 0 58.1819 11.7562 684 70.5366 200.167 504.797
188 0 61.0742 13.59 830 67.5169 199.122 502.251
189 0 60.1751 13.1782 793 69.1286 198.721 500.494
190 0 63.0811 12.4919 788 69.8338 198.511 499.637
191 0 64.0641 11.5665 741 71.031 197.714 501.213
192 0 68.2258 12.0336 821 69.894 198.007 499.793
193 0 70.1142 12.1516 852 70.4237 198.018 498.408
194 0 70.1177 11.8515 831 71.6065 197.995 496.69
195 0 75.0759 13.0668 981 69.1254 197.917 496.616
196 1 40.0927 11.3238 454 69.0485 198.54 515.156
197 0 42.0614 10.2469 431 70.1787 197.619 516.538
198 0 44.0484 10.7155 472 69.5763 197.699 515.292
199 0 46.0157 11.8003 543 67.3481 197.413 515.099
200 0 47.048 11.5839 545 68.1376 197.517 514.279
201 0 45.0628 11.8501 534 69.5337 197.09 512.026
202 0 47.0512 11.2431 529 69.5879 197.505 513.507
203 0 52.0439 12.0091 625 67.72 198.302 511.626
204 0 52.0499 12.219 636 68.4371 197.794 510.939
205 0 53.0358 12.6707 672 67.314 196.96 510.168
206 0 55.0938 12.7056 700 66.7029 197.731 509.224
207 0 54.0565 10.0451 543 71.3333 196.661 509.339
208 0 58.077 12.3629 718 66.9861 196.148 508.744
209 0 59.0774 12.4244 734 67.421 197.078 508.332
210 0 62.0348 13.025 808 65.4109 197.094 508.127
211 0 63.0916 11.7448 741 66.3536 197.049 507.974
212 0 65.1585 12.4466 811 65.2589 196.582 506.475
213 0 65.0596 11.4664 746 66.6702 196.015 504.181
214 0 68.123 11.538 786 66.4377 195.232 504.239
215 0 69.1556 11.0765 766 66.3812 195.49 503.496
216 0 72.1746 12.1234 875 64.9371 195.662 502.475
217 0 75.1815 11.4523 861 65.1661 194.964 500.238
218 0 77.1467 11.8346 913 65.0416 194.844 497.064
219 0 80.1005 12.4094 994 63.7304 195.224 496.323
220 0 81.1883 11.2455 913 65.2245 195.463 495.083
221 0 86.0931 10.3376 890 66.3258 195.589 494.119
222 0 87.1031 11.4577 998 65.1463 195.422 491.556
223 0 91.0846 11.912 1085 65.118 195.149 489.724
224 1 44.0282 9.1305 402 66.4005 195.711 511.172
225 0 47.0611 10.922 514 64.0389 196.134 509.232
226 0 48.1027 11.4754 552 63.6141 195.755 509.65
227 0 51.0983 12.2118 624 62.2756 195.822 509.904
228 0 51.0937 11.4104 583 64.2521 195.067 506.353
229 0 53.0799 11.3602 603 63.9768 194.728 507.375
230 0 55.0261 12.485 687 62.5211 194.894 505.745
231 0 56.0605 11.9692 671 63.4724 195.384 504.906
232 0 58.0652 11.9004 691 62.7279 195.602 506.802
233 0 59.1129 11.9263 705 63.878 195.989 503.226
234 0 62.039 12.5889 781 62.8067 195.375 503.63
235 0 65.0673 13.3708 870 61.5264 195.397 501.583
236 0 66.0837 12.923 854 62.7026 195.397 501.833
237 0 68.0993 11.3951 776 64.7655 195.745 499.729
238 0 70.0917 12.6549 887 64.2627 195.612 497.156
239 0 72.0638 12.142 875 64.5737 195.154 497.103
240 0 74.125 12.7487 945 64.5439 196.072 497.073
241 0 77.0517 13.4715 1038 63.6965 196.163 494.317
242 0 77.0266 11.9569 921 66.5451 196.912 494.175
243 0 81.1479 13.0872 1062 64.3625 195.391 494.274
244 0 83.2397 12.1937 1015 66.3212 195.684 490.87
245 0 87.0746 12.0816 1052 66.4819 196.114 492.076
246 0 88.3298 12.7024 1122 66.4795 195.709 490.306
247 0 91.0732 13.4178 1222 65.1064 196.154 489.71
248 0 92.1127 12.6475 1165 66.6421 195.719 487.686
249 1 49.0411 11.2967 554 67.2166 196.244 507.919
250 0 49.0755 10.9627 538 67.9814 196.288 509.625
251 0 52.0982 13.5705 707 64.4653 197.095 509.496
252 0 54.1093 13.1216 710 65.0338 196.548 508.062
253 0 55.0752 11.4752 632 67.049 196.631 510.457
254 0 56.0428 12.2228 685 66.892 197.145 508.131
255 0 59.0591 13.6643 807 64.2875 197.196 506.76
256 0 60.0245 11.2954 678 67.3628 196.854 508.85
257 0 63.1428 12.9864 820 64.6976 197.383 507.005
258 0 62.1453 13.3397 829 65.3752 196.578 504.554
259 0 65.089 13.0898 852 65.081 196.399 504.396
260 0 69.0527 13.8735 958 63.4228 196.667 504.904
261 0 71.0584 13.1019 931 64.6466 196.299 502.564
262 0 71.0614 13.1436 934 64.2034 195.815 505.172
263 0 73.0603 12.2091 892 66.0157 196.242 501.007
264 0 75.1637 12.8653 967 65.4261 196.398 501.002
265 0 78.1559 12.5007 977 66.1208 196.014 498.987
266 0 78.1236 11.7506 918 67.6362 195.96 497.156
267 0 83.0279 12.6945 1054 65.7676 196.513 499.226
268 0 84.1362 13.6564 1149 65.5483 196.485 495.997
269 0 87.045 12.9703 1129 65.9876 196.368 496.653
270 0 88.0963 12.8155 1129 66.9584 196.275 494.806
271 1 47.1413 13.9156 656 62.3094 196.564 515.896
272 0 46.0623 10.2904 474 68.5696 196.667 512.751
273 0 46.0462 10.4243 480 67.9875 195.706 516.454
274 0 49.064 12.3512 606 67.0825 196.284 512.33
275 0 50.22 11.5691 581 67.6833 195.964 513.184
276 0 49.0472 10.9282 536 68.9086 196.155 513.364
277 0 53.0224 12.0326 638 66.5 195.524 512.804
278 0 54.0293 12.0675 652 67.2147 196.327 511.236
279 0 56.048 11.9897 672 67.6146 195.158 509.612
280 0 57.0523 10.6394 607 69 195.072 509.847
281 0 58.1078 11.8401 688 67.2253 195.589 510.337
282 0 60.1272 12.1077 728 68.2335 195.837 506.842
283 0 61.131 14.0682 860 65.7605 195.414 508.567
284 0 63.0377 12.675 799 67.8661 195.051 506.427
285 0 64.1261 11.8049 757 69.3686 194.495 505.392
286 0 67.1055 11.6235 780 69.1744 194.928 507.446
287 0 71.0627 12.7071 903 67.9236 194.994 505.708
288 0 70.0876 12.998 911 68.9473 194.886 504.711
289 0 73.0791 12.3702 904 70.1748 194.805 501.561
290 0 74.0586 11.8285 876 71.2568 194.455 501.306
291 0 75.1328 12.2849 923 71.3987 194.511 501.754
292 0 79.2207 11.7394 930 73.2548 194.556 500.27
293 0 79.1037 12.7301 1007 73.1311 194.911 496.802
294 0 81.2098 11.7474 954 74.2076 194.611 500.585
295 0 85.095 13.3145 1133 72.662 195.926 496.432
296 0 85.1137 11.7255 998 75.481 195.372 496.308
297 0 90.1908 12.8616 1160 73.1552 194.404 495.649
298 0 89.0811 12.9657 1155 75.3411 194.005 488.372
299 0 96.0812 13.5823 1305 73.1762 194.129 492.792
300 0 96.132 13.1694 1266 75.0071 194.512 489.786
301 0 97.0903 14.0282 1362 74.5661 194.165 485.109
302 0 101.107 13.5697 1372 75.0138 193.751 485.141
303 0 103.269 12.6078 1302 76.0061 193.905 486.525
304 0 109.112 13.0509 1424 75.434 194.009 484.553
305 0 112.208 13.6176 1528 74.3914 193.584 483.907
306 0 115.21 13.7835 1588 74.995 194.31 478.164
307 0 118.297 12.8575 1521 76.2301 193.797 478.02
308 0 122.099 13.7266 1676 74.8037 193.516 477.793
309 0 127.136 14.0008 1780 73.9511 193.909 474.6
310 0 130.27 13.5411 1764 75.7421 193.983 471.613
311 0 133.193 13.6118 1813 75.6531 193.506 469.94
312 1 63.0422 11.6906 737 74.019 194.589 502.999
313 0 65.122 12.3614 805 73.0062 194.584 502.077
314 0 66.2488 12.0153 796 73.0942 194.079 501.702
315 0 68.1735 11.7201 799 73.786 193.622 501.101
316 0 71.0762 12.9579 921 71.8122 193.752 501.528
317 0 69.1267 10.0974 698 77.0473 194.395 501.4
318 0 73.209 12.1023 886 73.3307 194.055 500.008
319 0 73.1224 11.8021 863 74.2445 194.182 500.003
320 0 79.0918 12.416 982 73.3615 194.294 497.713
321 0 76.1036 9.97324 759 77.0672 194.826 499.18
322 0 81.1087 12.847 1042 73.6612 195.123 496.156
323 0 85.1594 14.2908 1217 71.12 195.057 493.998
324 0 86.1223 12.9699 1117 72.7789 194.714 496.456
325 0 86.2138 11.3555 979 74.4862 194.431 496.872
326 0 87.1416 12.91 1125 73.6498 194.164 493.116
327 0 92.0516 13.449 1238 73.2989 193.766 489.536
328 1 152.204 12.595 1917 76.6228 193.156 462.88
329 0 156.351 13.5273 2115 75.9414 193.989 459.147
330 0 161.281 13.5292 2182 76.1114 193.751 457.541
331 0 167.265 13.6729 2287 76.0673 194.103 452.953
332 0 169.267 12.4596 2109 77.7454 193.631 454.017
333 0 176.277 12.6619 2232 77.5152 194.703 450.353
334 0 183.452 13.1588 2414 77.1247 193.178 448.367
335 0 188.234 13.8073 2599 76.7741 193.194 443.797
336 0 194.36 14.3702 2793 76.1593 193.095 440.303
337 1 124.129 12.9865 1612 75.2761 193.852 475.28
338 0 128.323 11.9386 1532 76.201 194.095 476.441
339 0 129.172 12.0537 1557 77.6063 193.922 471.307
340 0 136.121 13.0326 1774 76.1731 194.308 469.527
341 1 103.163 11.0989 1145 77.5153 194.056 486.007
342 0 107.084 11.7292 1256 77.7659 193.635 482.974
343 0 111.229 13.27 1476 75.773 193.272 481.02
344 0 113.132 12.9053 1460 75.4452 192.942 481.664
345 0 118.217 12.993 1536 76.0156 194.158 480.264
346 0 119.09 12.6039 1501 77.5783 193.802 479.142
347 0 123.122 11.3952 1403 79.062 194.072 479.696
348 0 126.166 11.9129 1503 79.3699 194.033 473.348
349 0 131.14 12.7802 1676 78.1891 194.197 469.652
350 0 137.211 13.4829 1850 76.4227 194.275 471.162
351 0 140.122 12.9887 1820 77.6 194.34 467.67
352 0 143.164 12.4263 1779 76.968 194.196 468.9
353 0 147.335 13.8596 2042 76.6812 194.291 459.683
354 1 52.0442 12.3357 642 73.5467 194.674 508.192
355 0 55.0738 13.6181 750 70.5227 194.036 508.263
356 0 56.0681 12.0746 677 73.1418 194.223 505.576
357 0 61.1003 11.7839 720 71.9542 194.6 508.206
358 0 60.0705 13.1679 791 72.5474 195.207 506.15
359 0 61.0622 10.563 645 75.3023 195.054 506.853
360 0 64.2614 12.0601 775 73.84 195.267 505.439
361 0 66.0322 12.0547 796 73.7425 195.102 504.011
362 0 67.0882 11.8501 795 74.9484 194.504 502.377
363 0 68.1295 11.0672 754 76.5146 194.862 501.845
364 0 73.0465 12.0334 879 74.6303 194.848 500.883
365 0 74.0565 13.4762 998 72.5922 194.432 500.744
366 1 37.039 9.80048 363 74.1543 195.331 518.069
367 0 38.1734 10.6881 408 73.5245 195.559 516.368
368 0 36.1586 10.6752 386 74.9896 195.358 514.687
369 0 41.1744 11.9978 494 71.8907 195.196 515.134
370 0 43.0291 12.3405 531 71.6667 194.554 514.202
371 0 43.0961 11.7412 506 72.8874 194.536 513.372
372 0 45.0645 10.9621 494 72.8947 194.389 513.755
373 0 45.0448 11.2333 506 72.7668 194.581 513.838
374 0 44.0213 10.0179 441 75.5215 195.27 511.973
375 0 49.0959 12.4043 609 71.1642 194.975 510.677
376 0 50.0117 12.2971 615 70.4927 194.896 511.805
377 0 52.144 12.7532 665 70.7444 195.361 508.907
378 0 54.0302 12.3635 668 70.2964 194.913 509.961
379 0 54.1369 11.9142 645 71.8016 194.668 508.296
380 0 56.1094 11.3885 639 71.2958 194.864 508.662
381 0 59.1255 11.5179 681 71.931 194.225 505.696
382 0 60.1452 12.0209 723 70.8271 194.029 505.64
383 0 61.1651 12.6543 774 70.8605 194.297 504.545
384 0 64.1501 11.4107 732 72.0246 194.754 503.769
385 0 64.056 11.3026 724 72.3633 194.811 504.164
386 0 68.2235 11.7995 805 71.5081 194.302 501.07
387 0 71.0581 12.539 891 70.5701 193.996 498.579
388 0 75.1624 11.6548 876 70.8596 194.757 500.448
389 1 37.1044 10.4031 386 70.3782 194.207 515.855
390 0 40.024 9.994 400 71.8175 194.262 513.325
391 0 41.047 11.4503 470 68.9213 194.234 514.138
392 0 42.0703 12.1463 511 69.4227 193.977 512.389
393 0 46.0418 10.9031 502 69.8865 194.576 512.683
394 0 46.0128 11.0404 508 70.1004 194.695 513.423
395 0 47.053 11.2001 527 71.1025 194.617 509.907
396 0 49.0539 11.7626 577 69.2998 195.066 509.591
397 0 50.0442 12.1093 606 68.736 195.815 507.064
398 0 51.0423 11.4219 583 70.4065 195.298 508.146
399 0 52.077 11.7326 611 69.4304 194.879 508.358
400 0 56.068 12.1995 684 68.0351 195.335 505.257
401 0 56.0376 12.5273 702 66.9957 195.463 506.728
402 0 59.1046 11.7757 696 68.1207 195.723 504.409
403 0 60.016 13.0965 786 65.9898 195.405 502.893
