time division length width area intensity CMx CMy
0 0 51.0223 14.0919 719 59.0862 1189.5 509.334
1 0 51.111 13.0892 669 61.2108 1190.03 509.686
2 0 52.0707 13.1168 683 61.2445 1189.82 508.674
3 0 53.1016 14.9336 793 58.7465 1189.95 508.639
4 0 54.1007 13.2715 718 60.9666 1189.74 508.13
5 0 56.1089 15.3095 859 58.1583 1189.54 506.601
6 0 57.0643 13.3358 761 61.1603 1188.41 506.335
7 0 57.1017 14.3954 822 59.9611 1188.25 505.521
8 0 59.0832 14.8943 880 59.2591 1187.72 505.603
9 0 62.1219 15.212 945 58.9386 1188.81 504.577
10 0 62.1051 14.6204 908 60.0242 1189.22 504.204
11 0 64.1621 14.027 900 60.3189 1188.23 507.21
12 0 65.1396 14.538 947 60.472 1188.75 503.905
13 0 70.0978 15.1217 1060 58.8283 1188.27 503.253
14 0 71.0332 14.6974 1044 59.5709 1188.51 504.179
15 0 73.0603 15.3709 1123 59.1309 1187.74 499.943
16 0 77.0967 16.4469 1268 57.1995 1188.09 501.938
17 1 41.0315 11.6983 480 64.5104 1188.3 516.81
18 0 43.0401 13.6849 589 61.9592 1187.99 516.302
19 0 43.0336 12.0836 520 64.8808 1189.44 515.613
20 0 43.0121 11.9734 515 64.5029 1188.43 516.837
21 0 46.1419 15.1056 697 60.792 1187.64 515.188
22 0 47.0349 12.6927 597 63.9045 1187.95 515.472
23 0 47.1267 12.2436 577 65.1196 1188.51 513.475
24 0 50.0332 14.3704 719 62.4924 1188.4 512.419
25 0 53.047 11.7066 621 64.6248 1188.2 513.464
26 0 52.0511 14.4089 750 62.8947 1188.54 510.125
27 0 55.0798 13.7982 760 63.4118 1188.87 508.891
28 0 55.0728 14.272 786 63.4071 1188.04 509.426
29 0 60.0418 14.2734 857 62.4889 1188.57 509.069
30 0 58.1021 14.0959 819 64.4921 1189.05 504.654
31 0 60.138 13.2196 795 65.166 1189.08 506.693
32 0 64.0515 13.4111 859 64.1304 1189.41 506.22
33 0 66.0832 14.8903 984 62.4146 1188.32 502.704
34 0 68.0839 14.8493 1011 62.4224 1189.04 503.471
35 0 70.1603 15.0512 1056 62.3475 1189.18 503.602
36 0 72.296 14.5513 1052 63.4116 1189.33 500.908
37 0 74.2092 14.0144 1040 63.7865 1188.86 502.381
38 0 76.0784 13.8278 1052 64.3584 1188.7 501.556
39 0 77.1076 14.0712 1085 64.4341 1189.36 500.265
40 0 80.0759 14.8609 1190 63.7168 1189.45 498.376
41 0 84.0968 15.1492 1274 62.9011 1189.62 498.36
42 1 42.0925 12.4012 522 66.7471 1189.8 514.983
43 0 46.0813 12.0005 553 67.0416 1190 515.861
44 0 46.0359 12.4251 572 66.6189 1189.87 515.344
45 0 48.0902 12.7885 615 66.3008 1189.18 514.665
46 0 46.0444 12.2491 564 68.8457 1190.23 512.317
47 0 51.0935 13.5047 690 65.958 1190.14 512.665
48 0 50.0579 13.3845 670 67.3119 1190.03 511.375
49 0 53.075 14.1686 752 66.2314 1190.2 510.312
50 0 54.0559 15.4285 834 65.2458 1190.2 509.588
51 0 55.0881 12.3439 680 69.4309 1190.14 506.921
52 0 58.057 12.6427 734 68.485 1190.25 507.399
53 0 60.0715 15.2485 916 65.1299 1190.68 506.655
54 0 61.0258 14.5676 889 66.748 1190.45 503.835
55 0 63.0472 13.7675 868 67.4389 1189.86 504.939
56 0 67.034 15.2907 1025 64.8039 1190.49 504.144
57 0 70.1368 13.9584 979 66.951 1190.47 502.544
58 0 70.0846 13.3268 934 68.4775 1191.16 500.971
59 0 74.1411 13.9599 1035 67.029 1190.5 498.574
60 0 76.0525 14.3717 1093 67.3532 1190.37 498.092
61 0 78.1235 13.3379 1042 68.8301 1190.06 496.368
62 0 81.0768 12.6547 1026 69.0429 1190.62 498.468
63 0 84.0666 13.9532 1173 67.7562 1190 494.416
64 0 86.0448 12.1797 1048 70.5324 1190.17 492.587
65 0 88.1302 13.4914 1189 69.3389 1189.99 488.656
66 1 43.0353 12.1993 525 70.2095 1190.67 513.278
67 0 44.021 11.4264 503 71.4752 1190.63 513.66
68 0 44.1327 11.9639 528 71.5019 1190.86 511.417
69 0 47.0428 12.4993 588 70.2058 1190.29 510.226
70 0 47.0388 11.9688 563 71.9023 1190.7 509.95
71 0 48.0509 12.3411 593 71.2917 1190.45 509.82
72 0 50.0462 12.5084 626 71.3482 1190.22 509.383
73 0 50.0318 10.4134 521 74.3244 1189.74 507.309
74 0 52.0338 9.5707 498 75.504 1190.13 503.329
75 0 53.0369 10.125 537 75.1006 1189.5 506.201
76 0 57.0842 10.8611 620 74.1048 1189.83 504.308
77 0 57.0493 11.5689 660 73.9015 1189.79 502.795
78 0 59.0613 10.9039 644 74.4519 1188.78 501.213
79 0 62.0656 10.8756 675 74.8637 1189.91 500.881
80 0 64.1466 10.4448 670 75.6015 1190.39 500.157
81 0 64.1802 11.047 709 75.7024 1190.05 498.828
82 0 69.1042 12.6186 872 73.4851 1190.76 497.102
83 0 69.111 12.5595 868 73.8353 1190.75 498.952
84 0 73.0864 11.5753 846 75.2459 1190.84 493.924
85 0 79.1438 16.0215 1268 66.9961 1189.87 501.795
86 0 81.0722 13.3338 1081 71.6577 1190.07 497.979
87 1 42.0144 13.3526 561 69.4242 1190.28 516.358
88 0 42.0539 13.4827 567 70.4462 1190.1 513.591
89 0 44.0567 12.3931 546 71.6007 1190.92 513.203
90 0 44.0519 12.054 531 72.3333 1191.22 514.132
91 0 45.024 12.1713 548 72.4051 1191.25 513.783
92 0 47.0184 13.08 615 71.5122 1190.95 511.25
93 0 50.0267 14.7321 737 68.6106 1191.24 510.305
94 0 51.0469 12.9097 659 71.4537 1191.23 508.162
95 0 53.0374 11.8407 628 72.1576 1191.09 509.823
96 0 53.0659 12.1359 644 72.5404 1190.27 509.557
97 0 55.0467 12.6075 694 72.0346 1191.23 509.334
98 0 54.0345 12.1959 659 73.7451 1190.36 505.918
99 0 57.0501 11.2007 639 74.6901 1191.16 505.321
100 0 57.0392 11.4483 653 74.7856 1190.79 503.729
101 0 61.0743 10.1843 622 75.9791 1190.42 501.777
102 0 60.0534 10.8237 650 75.9892 1190.62 500.052
103 0 63.064 11.2108 707 74.9972 1191.31 500.595
104 0 65.0524 10.4685 681 75.7592 1191.22 499.36
105 0 69.0785 11.8995 822 73.9659 1190.23 497.601
106 0 70.032 10.2525 718 75.8886 1191.34 497.494
107 0 73.0632 10.9768 802 74.7905 1190.39 494.955
108 0 75.1242 9.61074 722 76.7008 1189.73 494.965
109 0 78.0878 12.2554 957 73.6949 1190.71 491.513
110 1 40.044 9.58946 384 73.7005 1190.32 514.005
111 0 40.0357 10.116 405 74.3309 1190.63 513.015
112 0 42.0132 9.35421 393 76.4809 1191.59 513.193
113 0 43.0428 10.4547 450 75.3133 1190.84 510.744
114 0 41.0196 8.58126 352 78.804 1190.9 508.477
115 0 45.0336 10.4366 470 75.6723 1190.64 509.064
116 0 44.0213 7.5418 332 80.2169 1191.51 506.431
117 0 48.0473 9.86527 474 77.2743 1191.36 507.688
118 0 49.0453 9.56258 469 77.42 1191.13 504.58
119 0 50.0667 10.9454 548 76.4142 1191.4 503.763
120 0 54.1305 11.6201 629 74.0636 1190.82 506.552
121 0 56.3502 12.3336 695 72.9453 1191.01 504.665
122 0 59.0958 14.1804 838 71.043 1191.66 501.963
123 0 62.0506 12.8766 799 72.3442 1190.9 501.655
124 0 62.0711 12.2924 763 73.6527 1191.1 500.448
125 0 65.0583 12.6348 822 72.2263 1190.92 501.526
126 0 68.1445 13.0165 887 72.0282 1190.96 498.39
127 0 70.1205 13.2058 926 72.0097 1191 496.281
128 0 72.1223 13.3246 961 71.8127 1191.17 496.118
129 0 73.088 11.9445 873 74.5773 1190.3 495.178
130 0 77.0621 12.0812 931 74.3265 1190 491.579
131 0 78.0335 11.7642 918 75.5425 1189.77 491.09
132 0 81.0916 11.9248 967 74.637 1190.22 492.535
133 0 84.0956 12.0815 1016 75.123 1190.53 490.973
134 1 40.0262 11.1677 447 74.3803 1190.39 512.094
135 0 45.1179 11.4589 517 72.0832 1191.42 512.093
136 0 44.0511 11.3958 502 73.6833 1191.97 510.04
137 0 44.0397 11.8075 520 74.1269 1191.69 508.335
138 0 46.0478 11.6835 538 73.132 1191.48 509.307
139 0 50.0591 11.8859 595 71.5815 1190.91 508.982
140 0 49.05 11.0296 541 73.8836 1190.6 510.211
141 0 50.0142 12.2365 612 72.9869 1191.05 506.748
142 0 51.0068 12.1553 620 73.0839 1190.65 506.094
143 0 54.0316 12.3817 669 72.6996 1191.18 502.954
144 0 55.0512 12.2976 677 73.5406 1191.38 502.939
145 0 56.063 11.273 632 73.9684 1191.24 505.593
146 0 60.0477 12.6899 762 72.1444 1191.23 502.757
147 0 60.0593 11.6718 701 74.6462 1190.57 501.85
148 0 62.1039 11.2714 700 74.7157 1190.15 502.644
149 0 66.0836 12.5598 830 73.0217 1190.06 499.267
150 0 68.1283 11.5517 787 74.2808 1190.28 499.738
151 0 70.0649 12.2886 861 73.7956 1190.69 498.412
152 0 72.0866 12.0966 872 73.9312 1190.57 497.767
153 0 73.1721 11.8214 865 75.578 1190.5 494.578
154 0 75.138 10.4741 787 77.7598 1190.04 494.539
155 0 78.0988 12.3305 963 75.2388 1191.2 494.239
156 1 41.0568 10.7656 442 74.6041 1191.84 514.423
157 0 41.0439 11.7192 481 73.8254 1191.6 511.156
158 0 43.0349 12.7338 548 71.5657 1191.36 510.828
159 0 44.0441 11.1479 491 74.4297 1190.75 511.049
160 0 44.0493 11.3282 499 74.1904 1190.25 510.729
161 0 44.0606 10.9849 484 75.9669 1189.75 509.574
162 0 48.0423 13.9877 672 69.4658 1190.13 510.629
163 0 48.1706 11.9783 577 73.3882 1191.05 508.314
164 0 50.0645 11.4053 571 73.331 1191.28 510.063
165 0 51.1589 11.2981 578 73.3633 1190.75 507.83
166 0 54.0796 13.0178 704 70.7017 1191.12 505.476
167 0 54.0873 11.5369 624 72.9183 1190.64 505.96
168 0 57.1644 12.3853 708 70.8065 1190.84 504.835
169 0 57.1835 12.1713 696 71.8118 1190.93 501.866
170 0 61.1575 12.0018 734 71.5695 1190.85 502.296
171 0 62.1396 13.4858 838 68.895 1190.65 500.28
172 0 64.1008 12.5271 803 69.7285 1191.11 500.711
173 0 65.0903 12.5518 817 70.7797 1191.62 498.789
174 0 69.142 12.5539 868 69.7131 1191.2 498.795
175 0 73.1198 13.2249 967 67.4447 1191.58 498.94
176 0 75.0879 13.4509 1010 68.0446 1191.37 494.596
177 0 76.1207 13.61 1036 68.1091 1190.36 495.18
178 1 38.029 10.8075 411 71.5182 1190.89 513.455
179 0 41.0488 11.7665 483 70.2588 1191.12 510.087
180 0 43.0507 11.1729 481 70.2287 1190.26 512.457
181 0 43.1031 12.0177 518 70.527 1189.66 509.71
182 0 44.0879 12.339 544 69.3364 1189.66 511.971
183 0 47.0455 10.8831 512 72.2051 1189.94 511.23
184 0 45.1207 10.8598 490 73.451 1188.56 511.304
185 0 48.0409 11.5318 554 71.4188 1189.18 511.827
186 0 51.0441 11.2452 574 71.878 1188.95 510.148
187 0 50.1163 12.471 625 70.6384 1188.61 509.373
188 0 54.1699 13.2361 717 68.5356 1187.7 508.084
189 0 54.1114 12.6406 684 70.7003 1187.24 506.598
190 0 54.1283 12.6367 684 71.3348 1187.01 505.563
191 0 57.0604 12.0048 685 71.7445 1186.35 505.599
192 0 59.1409 12.5632 743 70.4563 1186.64 506.374
193 0 62.0945 13.2701 824 68.1371 1186.7 506.5
194 0 62.0808 13.0153 808 69.5792 1186.82 505.429
195 0 63.1346 12.7505 805 69.9677 1186.7 505.988
196 0 66.0372 13.129 867 69.083 1187.39 507.058
197 0 67.0747 13.0302 874 69.2483 1186.35 506.309
198 0 72.126 13.3932 966 67.9658 1186.37 505.081
199 0 71.1519 13.1268 934 68.7559 1186.38 504.548
200 0 74.1154 13.9917 1037 67.5757 1186.51 502.074
201 0 77.166 13.633 1052 67.8897 1185.92 501.58
202 0 75.1074 11.8896 893 71.2128 1186.29 500.161
203 0 77.1359 11.4733 885 72.1458 1186.89 500.654
204 0 82.0745 13.0491 1071 69.395 1186.49 499.107
205 1 44.0475 12.0098 529 66.344 1186.05 518.58
206 0 43.0184 11.2742 485 69.1979 1187.06 517.67
207 0 44.032 11.8777 523 68.3901 1186.06 517.948
208 0 45.0438 11.0781 499 68.1864 1185.6 519.764
209 0 44.0692 11.1189 490 69.7531 1186.32 518.569
210 0 49.0221 12.7901 627 66.6938 1186.31 516.29
211 0 49.0648 11.8415 581 68.136 1186.31 515.971
212 0 49.0515 12.5175 614 67.513 1185.57 515.093
213 0 53.0478 12.2531 650 66.7985 1185.05 514.86
214 0 51.0431 11.0495 564 69.6152 1184.44 515.599
215 0 55.0349 12.3013 677 66.9926 1184.74 513.985
216 0 57.0878 13.2252 755 66.1444 1185.04 513.069
217 0 56.0645 12.0575 676 68.3299 1184.15 510.095
218 0 57.0486 11.4464 653 69.0628 1184.11 510.141
219 0 62.0966 12.0941 751 66.8029 1184.58 509.77
220 0 62.0993 12.641 785 66.3338 1184.69 508.873
221 0 65.0882 11.5689 753 68.0797 1184.86 508.077
222 0 65.2131 11.6694 761 67.5637 1184.57 508.512
223 0 67.0566 12.1539 815 68.0736 1184.14 504.486
224 0 71.1608 12.6896 903 66.2625 1184.6 503.66
225 0 71.1623 11.2981 804 68.9179 1184.94 500.867
226 0 74.1839 12.5499 931 66.8152 1184.55 500.227
227 0 76.2472 12.3152 939 67.3355 1184.58 499.778
228 1 41.0138 11.4595 470 65.7979 1183.84 517.996
229 0 40.03 10.4172 417 68.1463 1183.47 516.573
230 0 44.0358 11.7859 519 64.9769 1183.9 516.586
231 0 43.1954 12.3856 535 65.4 1184.23 514.662
232 0 45.0626 12.4937 563 65.222 1184.02 513.948
233 0 47.0694 10.8776 512 67.2109 1184.56 514.418
234 0 47.0575 12.8991 607 65.5585 1183.94 512.138
235 0 49.0338 12.0733 592 66.2568 1184 512.654
236 0 52.0936 12.324 642 65.5716 1184.06 511.466
237 0 53.0389 12.5568 666 65.9805 1184.3 508.02
238 0 52.0785 12.4428 648 66.7268 1184.34 509.438
239 0 54.0696 11.8921 643 67.0949 1183.87 508.946
240 0 56.0414 12.4194 696 67.0316 1184.63 507.135
241 0 58.0559 11.9368 693 67.3766 1184.76 505.519
242 0 59.1365 12.5811 744 67.3226 1185.46 503.495
243 0 62.0789 12.0492 748 66.6912 1184.19 504.949
244 0 63.1722 11.9356 754 67.7825 1184.55 503.225
245 0 65.2484 13.9314 909 64.5082 1184.85 504.418
246 0 65.1082 11.4578 746 68.8445 1184.47 503.539
247 0 68.1665 12.3961 845 66.9183 1185 502.549
248 0 71.0667 11.4962 817 67.8054 1184.53 502.901
249 0 73.1568 14.3117 1047 64.7784 1184.85 499.223
250 0 74.1351 11.4386 848 69.0755 1184.94 500.139
251 0 78.1079 12.854 1004 66.4044 1185.58 498.796
252 0 80.1322 13.2905 1065 66.2563 1185.1 496.799
253 1 41.0229 9.31187 382 68.5864 1185.31 518.435
254 0 41.0402 10.1608 417 66.8441 1185.94 518.899
255 0 44.0318 12.5137 551 64.1125 1186 515.267
256 0 43.0409 11.3381 488 66.8258 1185.79 515.879
257 0 45.0204 11.0617 498 66.9859 1186.3 515.319
258 0 46.1036 11.626 536 65.7127 1185.7 514.576
259 0 47.0512 10.9243 514 66.677 1185.27 514.113
260 0 48.0317 11.3467 545 66.222 1185.54 514.028
261 0 49.1141 10.3433 508 67.2756 1185.59 513.341
262 0 52.0153 12.2272 636 64.305 1185.25 513.541
263 0 54.1037 12.7533 690 62.9826 1185.43 511.557
264 0 54.1133 11.4944 622 65.3232 1185.44 509.537
265 0 56.0294 11.9759 671 64.2563 1184.99 510.534
266 0 56.0242 11.62 651 64.5945 1184.98 509.599
267 0 58.058 13.2454 769 62.5592 1185.51 507.512
268 0 60.0524 12.5557 754 62.8979 1185.49 509.69
269 0 62.1292 13.3593 830 61.9855 1185.42 506.678
270 0 64.0868 12.8732 825 61.7976 1185.29 509.705
271 0 66.101 12.5263 828 62.6099 1185.58 505.405
272 0 69.0803 13.5929 939 61.1491 1185.52 503.955
273 0 68.0466 12.8295 873 62.8832 1184.75 505.088
274 0 71.1364 13.2984 946 61.6998 1185.24 502.809
275 0 72.0338 12.7996 922 62.5564 1184.84 502.07
276 0 76.1024 13.3241 1014 61.0996 1185.05 503.593
277 0 77.1154 13.5122 1042 61.1276 1184.41 501.985
278 0 79.0892 13.7566 1088 61.0588 1185.16 500.116
279 0 82.146 13.7925 1133 61.0441 1184 499.147
280 1 41.0537 12.2522 503 61.1213 1184.07 518.827
281 0 42.0713 11.1953 471 61.5287 1184.57 519.113
282 0 44.0498 12.4859 550 60.94 1184.7 517.073
283 0 44.0255 11.9476 526 61.2414 1184.22 519.114
284 0 44.0598 13.1185 578 60.5346 1184 517.469
285 0 48.0518 13.423 645 58.738 1183.36 516.846
286 0 47.0646 11.7286 552 61.058 1183.66 517.259
287 0 48.0178 11.9956 576 61.4531 1183.97 515.651
288 0 51.0538 11.9874 612 61.3056 1183.65 514.923
289 0 51.0385 13.1274 670 60.1627 1183.69 513.606
290 0 53.0284 13.2948 705 59.3447 1183.35 513.929
291 0 52.0401 12.6057 656 61.2226 1183.48 510.684
292 0 53.099 13.1264 697 61.2898 1183.39 512.9
293 0 57.0702 13.5447 773 60.1268 1183.76 510.674
294 0 58.0602 12.2976 714 61.5504 1183.52 513.214
295 0 60.0335 13.2759 797 61.1681 1184.83 509.98
296 0 62.0915 12.6265 784 62.0842 1184.25 509.457
297 0 63.0308 14.1835 894 60.3378 1183.37 509.283
298 0 65.0866 13.8124 899 61.5951 1182.98 506.315
299 0 66.0904 14.3742 950 61.4105 1183.15 506.653
300 0 69.0269 13.502 932 62.5129 1183.4 504.444
301 0 71.0928 14.685 1044 61.6102 1183.08 502.861
302 0 73.1381 12.9481 947 63.9673 1182.68 504.061
303 0 76.066 13.4883 1026 63.2826 1182.79 503.116
304 0 76.0992 13.7058 1043 63.7028 1182.87 502.573
305 0 79.1217 15.4825 1225 61.9657 1182.51 497.094
306 0 82.1207 14.5883 1198 63.2371 1183.08 497.501
307 0 84.0724 16.0338 1348 61.8813 1182.72 496.122
308 0 87.1197 13.7168 1195 64.5766 1182.28 496.513
309 0 89.1068 14.3536 1279 64.4707 1182.73 492.539
310 0 93.1066 15.5521 1448 62.7659 1182.87 492.619
311 0 95.1299 15.7784 1501 62.6869 1182.44 489.756
312 0 97.1135 14.4882 1407 64.9346 1183.11 489.116
313 0 99.1125 14.9527 1482 64.6815 1183.19 488.451
314 0 102.101 14.8676 1518 64.7365 1182.53 485.362
315 0 104.093 13.3726 1392 66.7364 1182.18 484.133
316 0 111.1 13.5013 1500 66.0333 1182.39 484.615
317 0 113.233 15.0574 1705 65.1191 1182.94 481.605
318 0 118.096 14.429 1704 65.0669 1182.64 480.56
319 0 121.154 14.4196 1747 65.4751 1182.67 479.326
320 0 125.255 15.0573 1886 65.0011 1182.85 474.463
321 1 58.0516 13.4708 782 64.7864 1183.68 509.193
322 0 63.0486 13.0217 821 64.8551 1183.8 508.336
323 0 63.0439 12.7847 806 66.1079 1183.97 504.876
324 0 67.1354 12.8844 865 66.2566 1183.7 504.676
325 0 66.0418 12.2952 812 67.0714 1183.24 505.642
326 0 71.0869 12.2526 871 66.2319 1183.02 505.56
327 0 71.0624 12.1161 861 67.6295 1182.59 502.492
328 0 74.1045 13.3055 986 66.9189 1181.97 499.429
329 0 76.1323 13.5291 1030 66.3194 1182.92 500.921
330 0 79.1792 13.4379 1064 67.3891 1182.66 498.489
331 0 82.0654 12.1732 999 68.9429 1182.99 497.699
332 0 83.0786 12.109 1006 68.673 1182.65 498.227
333 0 87.1505 12.8513 1120 67.7777 1183.62 496.015
334 0 90.0772 13.6772 1232 67.306 1182.14 492.239
335 0 90.0895 11.644 1049 70.4061 1182.22 490.744
336 0 95.1502 13.0215 1239 68.7369 1182.1 486.295
337 0 97.1594 12.4641 1211 69.2874 1182.76 487
338 0 101.166 12.9984 1315 68.2076 1182.99 486.484
339 1 42.0294 11.373 478 64.7406 1183.61 515.303
340 0 43.0632 10.7516 463 64.8272 1183.91 515.829
341 0 43.0094 10.6488 458 66.1092 1183.68 514.312
342 0 47.041 12.1596 572 62.9318 1183.24 514.224
343 0 46.0418 10.6859 492 65.7337 1182.89 513.018
344 0 47.0444 9.9693 469 66.1791 1182.61 513.081
345 0 50.0339 10.9526 548 65.4124 1183.84 512.44
346 0 51.0768 10.4157 532 66.5977 1183.29 511.867
347 0 55.0422 11.8818 654 64.1498 1183.5 511.098
348 0 55.0676 10.3691 571 66.3713 1183.24 509.853
349 0 58.0221 11.306 656 65.5015 1183.29 507.456
350 0 59.0652 11.1741 660 64.9909 1183.25 509.78
351 0 59.0568 10.5322 622 67.1093 1183.38 506.688
352 0 62.0592 12.8748 799 63.5732 1183.17 503.73
353 0 64.0226 10.59 678 65.7183 1183.02 507.117
354 0 68.0742 10.9733 747 64.8032 1183.13 506.071
355 0 68.1919 12.3622 843 63.4247 1182.57 503.791
356 0 69.1017 10.3471 715 66.0909 1182.64 499.452
357 0 72.1435 10.8256 781 65.0128 1183.05 501.667
358 0 74.1513 11.2338 833 64.7479 1183.61 500.203
359 0 78.1346 10.8659 849 64.629 1183.52 498.462
360 0 81.0548 11.4244 926 63.8682 1183.93 496.821
361 1 38.0712 9.5085 362 62.4558 1183.26 517.657
362 0 41.0478 11.4257 469 60.1706 1182.8 516.842
363 0 42.0294 11.3492 477 60.4465 1183.11 513.824
364 0 42.0887 8.71967 367 63.0136 1183.6 515.869
365 0 42.0789 9.81488 413 62.2397 1182.94 511.818
366 0 44.0823 10.6619 470 61.3234 1184.04 514.153
367 0 46.0496 10.7493 495 62.0081 1184.61 510.689
368 0 47.1442 10.1179 477 62.0629 1184.45 511.449
369 0 48.1264 9.76595 470 63.3851 1184.21 509.274
370 0 51.2614 9.36376 480 62.8979 1183.68 510.329
371 0 55.2549 10.2072 564 61.2766 1183.72 511.442
372 0 55.1614 10.8953 601 61.218 1183.34 509.602
373 0 58.1115 11.6672 678 60.1357 1183.58 509.44
374 0 58.1858 10.2946 599 62.1953 1184.22 508.092
375 0 60.1581 11.503 692 60.3049 1183.91 507.692
376 0 63.1239 10.6299 671 61.4262 1183.67 505.32
377 0 63.2549 10.5604 668 61.7141 1184.2 503.835
378 0 66.197 10.0005 662 62.2085 1183.85 504.958
379 0 67.1324 9.66747 649 63.0955 1183.4 502.211
380 0 69.0913 9.8131 678 62.7522 1183.85 501.419
381 0 74.2787 10.5683 785 61.5236 1183.05 500.194
382 0 74.2102 11.0227 818 61.5978 1182.92 499.279
383 0 79.1599 12.9358 1024 59.1816 1183.28 498.148
384 0 82.2298 10.8355 891 61.4882 1183.96 498.794
385 0 84.3456 11.9745 1010 61.001 1183.95 494.01
386 1 44.0627 9.89499 436 60.5757 1184.31 515.009
387 0 44.0352 9.71949 428 60.9696 1184.18 514.098
388 0 47.0722 10.1546 478 60.0607 1184.97 515.008
389 0 48.0161 9.68426 465 61.0624 1184.73 513.854
390 0 48.0582 10.9867 528 59.8977 1184.41 511.975
391 0 49.0379 10.5429 517 59.6093 1184.27 512.865
392 0 52.1068 10.5936 552 60.2029 1184.05 511.85
393 0 52.048 11.1243 579 59.4404 1184.26 510.268
394 0 55.0438 9.06551 499 61.7295 1184.33 512.086
395 0 55.0326 8.86746 488 62.1148 1182.85 510.447
396 0 59.1613 11.7645 696 59.6667 1183.13 507.341
397 0 58.1622 11.6571 678 60.6431 1183.57 505.743
398 0 61.08 12.3281 753 59.2855 1183.33 506.714
399 0 62.1236 10.8011 671 61.0238 1183 505.109
400 0 65.0934 12.0596 785 58.6102 1183.43 502.409
401 0 68.1209 11.0098 750 58.4667 1183.82 503.457
402 0 69.145 12.8715 890 56.8798 1184.11 499.767
403 0 71.1624 11.7759 838 57.2959 1183.72 501.691
