time division length width area intensity CMx CMy
0 0 64.1304 13.2386 849 63.6137 657.128 500.118
1 0 68.0753 12.8681 876 62.9212 657.721 502.231
2 0 69.0287 12.4441 859 64.0698 657.481 500.076
3 1 37.144 11.5227 428 63.7523 657.579 515.082
4 0 37.1189 10.5337 391 64.8235 657.591 514.836
5 0 39.0557 10.1138 395 64.5949 657.433 515.506
6 0 40.0702 11.2802 452 63.6969 656.367 514.323
7 0 42.0138 11.3296 476 63.4853 656.321 514.017
8 0 44.1452 12.0964 534 61.7303 655.676 514.614
9 0 42.0849 12.8312 540 62.7407 656.9 513.619
10 0 45.1787 12.3288 557 63.0736 657.338 513.776
11 0 47.238 12.0666 570 62.3737 656.254 515.586
12 0 47.1187 13.7525 648 61.6204 656.798 513.508
13 0 47.0145 11.8261 556 64.4568 656.394 513.103
14 0 50.0473 13.3673 669 62.3124 656.566 512.864
15 0 51.0323 14.3243 731 62.1204 655.907 510.628
16 0 51.1063 12.6012 644 64.9286 655.969 510.491
17 0 52.073 12.2712 639 65.7465 655.998 510.044
18 0 53.043 12.9141 685 64.0949 655.87 512.118
19 0 55.0547 14.0043 771 63.3191 657.161 510.743
20 0 54.0315 12.4927 675 66.4904 656.265 509.865
21 0 55.0805 12.7813 704 65.9119 655.374 509.699
22 0 59.1372 13.1051 775 64.5729 655.599 509.766
23 0 61.0829 12.393 757 65.6314 656.178 508.461
24 0 60.0548 13.0714 785 66.2828 656.131 507.298
25 0 62.031 13.2514 822 66.6034 655.946 505.555
26 0 65.1824 14.1142 920 65.3663 656.195 503.246
27 0 68.1909 12.7436 869 66.8608 656.533 503.881
28 0 67.0431 12.6635 849 68.3498 655.645 502.115
29 0 70.1423 14.3708 1008 66.3442 656.126 501.994
30 0 71.0841 13.2097 939 68.1576 656.624 501.785
31 0 74.0909 14.0503 1041 67.8828 656.615 498.643
32 0 74.0677 13.9332 1032 68.6182 657.082 497.611
33 0 77.1124 13.4479 1037 69.351 656.052 495.71
34 0 79.0757 12.7599 1009 70.7562 656.769 495.206
35 0 82.0859 12.4138 1019 71.2336 657.036 496.652
36 1 38.0244 10.467 398 73.4498 657.188 513.523
37 0 42.0623 12.5053 526 70.962 656.525 513.631
38 0 41.0097 10.8755 446 73.8543 656.464 514.218
39 0 45.0483 12.9417 583 69.9331 657.213 514.139
40 0 45.127 10.7474 485 73.4165 657.301 513.394
41 0 47.0347 14.3936 677 69.2984 657.42 512.118
42 0 47.0863 10.9374 515 74.7262 657.419 511.361
43 0 49.0613 12.9226 634 72.6435 657.759 511.309
44 0 49.079 13.1217 644 73.1599 657.489 509.592
45 0 53.0612 12.3631 656 73.2363 656.817 509.561
46 0 54.097 12.3112 666 73.9279 657.866 507.899
47 0 57.0772 13.6482 779 72.154 657.86 507.53
48 0 57.0597 13.2843 758 72.4195 657.534 509.17
49 0 59.1035 12.6727 749 74.2283 657.677 508.79
50 0 61.0692 14.5409 888 72.9133 657.792 506.097
51 0 63.0626 13.114 827 75.4377 657.718 504.312
52 0 63.143 12.8122 809 76.2274 657.784 503.701
53 0 66.0764 12.2131 807 77.6171 658.342 502.694
54 0 70.1256 12.8769 903 76.1063 658.207 502.302
55 0 69.041 11.8625 819 78.6606 657.545 501.658
56 0 72.0634 12.0588 869 78.9574 657.978 500.45
57 0 75.0509 12.9645 973 78.5211 658.005 499.177
58 0 77.078 12.7403 982 78.4847 658.788 497.857
59 1 42.0178 12.1615 511 76.3444 658.198 513.419
60 0 42.0271 12.135 510 77.2176 658.188 514.384
61 0 43.0645 12.2142 526 78.2719 657.93 513.087
62 0 46.0485 12.1611 560 77.1571 658.488 512.962
63 0 49.0255 13.4828 661 74.3419 657.967 511.575
64 0 49.0343 12.0528 591 76.824 658.012 511.311
65 0 51.1244 12.7337 651 76.6313 657.897 508.676
66 0 52.0371 13.3558 695 76.2403 658.429 508.781
67 0 51.0871 12.0774 617 79.4295 658.141 507.643
68 0 53.0977 11.7519 624 79.0256 658.545 509.676
69 0 57.0738 12.8956 736 77.2609 657.909 506.936
70 0 58.0504 13.2816 771 77 658.307 505.482
71 0 60.0633 13.9186 836 75.311 657.969 507.428
72 0 61.0558 11.252 687 80.8151 657.911 505.007
73 0 66.072 13.4853 891 76.3636 657.328 503.669
74 0 66.0242 12.2531 809 79.8393 657.708 499.564
75 0 68.0984 12.3938 844 79.0047 657.12 500.743
76 0 72.0441 12.6589 912 79.0724 657.546 497.803
77 0 73.0683 12.413 907 79.3131 657.576 498.501
78 0 75.0351 11.8611 890 79.0371 656.493 499.604
79 0 78.0977 13.0093 1016 79.2421 657.63 495.142
80 0 80.1155 12.6193 1011 80.6301 658.077 493.004
81 0 82.1271 12.7242 1045 80.3876 657.816 494.546
82 1 40.0856 10.6023 425 79.1576 658.748 515.04
83 0 41.0111 11.8017 484 78.2211 658.729 513.376
84 0 42.0411 13.0111 547 77.5667 658.773 512.139
85 0 45.0652 13.0922 590 75.7593 657.802 514.515
86 0 44.0365 11.3996 502 79.4502 658.07 512.892
87 0 45.0179 12.3506 556 77.0144 658.11 513.167
88 0 46.0591 12.3971 571 77.6865 657.865 510.133
89 0 47.04 12.6701 596 77.6812 658.698 508.96
90 0 49.0507 13.0885 642 76.6667 658.963 509.782
91 0 49.0693 12.1868 598 78.9967 658.9 509.403
92 0 50.0911 11.1996 561 80.4973 658.79 508.85
93 0 53.0243 12.2774 651 79.1674 658.96 507.771
94 0 54.0424 13.8965 751 77.3755 658.888 505.17
95 0 55.1165 12.2286 674 79.3175 658.714 506.96
96 0 58.0438 13.3348 774 77.8152 658.15 506.146
97 0 59.0706 12.5443 741 80.1687 658.899 505.667
98 0 60.091 12.4311 747 80.8072 658.224 505.167
99 0 62.0843 13.224 821 80.503 658.915 503.029
100 0 62.1466 12.374 769 82.5995 658.489 502.086
101 0 65.0733 12.3399 803 82.2752 658.232 502.993
102 0 65.0662 11.7573 765 84.3046 658.255 501.329
103 0 69.0479 12.8462 887 82.4972 658.988 501.275
104 0 70.0337 13.4221 940 82.1138 658.857 498.921
105 0 72.0821 12.9158 931 83.2009 657.989 496.783
106 0 74.0785 13.0672 968 83.0682 658.856 496.725
107 0 75.1102 12.9942 976 83.3883 657.946 494.334
108 0 77.1506 12.1191 935 84.0064 657.413 496.936
109 0 79.1955 11.9199 944 85.2807 658.243 493.518
110 0 84.1814 14.6113 1230 80.7374 657.588 492.239
111 0 84.0578 12.9078 1085 84.5797 658.085 491.054
112 0 85.0623 13.5077 1149 84.45 658.753 490.14
113 0 89.1102 13.5338 1206 83.267 658.164 490.805
114 0 90.072 13.4337 1210 84.7521 658.173 487.3
115 0 93.0647 12.6364 1176 86.0502 658.054 485.889
116 0 96.1478 13.1256 1262 86.1189 658.834 486.521
117 0 99.1367 13.0829 1297 85.5559 658.638 486.302
118 0 100.098 12.6277 1264 86.9138 658.384 483.053
119 0 103.106 13.6074 1403 86.154 658.689 481.454
120 0 106.098 13.3084 1412 86.2018 658.217 479.744
121 0 112.146 15.2212 1707 82.6532 658.392 477.234
122 0 112.157 12.8838 1445 87.265 659.004 478.185
123 0 117.2 13.8823 1627 86.0768 658.307 475.497
124 0 119.164 13.0661 1557 87.1805 658.431 475.802
125 0 122.127 14.0264 1713 86.2732 658.246 473.89
126 0 127.094 14.6191 1858 85.81 658.305 470.496
127 0 129.134 13.3505 1724 88.1305 658.371 470.771
128 0 133.134 13.6704 1820 87.8896 658.445 468.429
129 0 135.443 12.6105 1708 90.058 657.708 468.502
130 0 136.189 13.518 1841 89.2048 657.366 466.086
131 0 142.144 14.1125 2006 88.7368 657.172 462.322
132 0 147.203 13.6614 2011 89.1377 657.649 462.673
133 0 149.211 14.1411 2110 89.2469 657.843 461.189
134 0 154.175 14.25 2197 89.5298 657.274 456.983
135 0 162.191 13.0895 2123 89.5115 658.245 459.56
136 0 163.226 15.2733 2493 87.4497 658.87 455.116
137 0 168.139 14.8151 2491 87.8643 658.595 453.491
138 0 172.238 14.2536 2455 88.7837 658.428 451.855
139 0 178.208 16.2731 2900 85.4134 657.77 445.465
140 0 184.148 15.026 2767 87.4467 657.502 446.876
141 0 187.183 14.5312 2720 89.2331 658 441.111
142 0 193.229 14.7131 2843 88.4608 657.71 440.523
143 0 199.21 14.6378 2916 88.1458 658.395 437.814
144 0 206.309 16.2281 3348 85.9035 658.736 433.857
145 0 212.293 15.0783 3201 88.1356 658.558 430.071
146 0 218.349 14.9165 3257 88.4311 658.458 428.679
147 0 224.26 15.4419 3463 87.7647 657.746 425.846
148 0 231.287 14.3847 3327 89.6114 657.302 424.468
149 0 238.268 14.341 3417 89.9315 657.171 417.644
150 0 246.323 14.5541 3585 89.1141 657.422 419.4
151 0 253.312 15.2066 3852 89.237 657.873 412.104
152 1 189.214 12.4515 2356 90.545 657.8 447.532
153 0 193.146 13.3837 2585 90.5273 657.692 443.617
154 0 200.109 12.9929 2600 91.1427 657.322 442.937
155 0 206.178 14.0995 2907 90.4242 658.36 435.014
156 0 209.16 12.5167 2618 93.3701 658.625 437.42
157 0 217.216 13.8388 3006 90.9331 658.403 431.622
158 0 223.185 13.2939 2967 91.8854 658.197 428.979
159 0 227.178 13.1615 2990 91.9395 657.5 429.792
160 1 238.324 9.94863 2371 94.9869 657.126 440.734
161 0 240.243 14.1149 3391 92.0941 657.072 421.708
162 0 244.387 13.0244 3183 93.7568 657.446 424.816
163 0 249.323 14.2346 3549 92.8811 658.295 416.22
164 0 258.308 13.9717 3609 92.1369 658.293 418.65
165 1 211.231 13.7859 2912 92.5247 657.926 434.926
166 0 217.259 14.1536 3075 91.9828 658.349 434.83
167 0 221.19 13.6489 3019 93.2428 657.814 431.247
168 0 226.267 13.7183 3104 93.154 658.007 428.198
169 0 235.214 15.3265 3605 90.0505 658.194 423.242
170 0 244.297 13.9503 3408 92.184 658.142 422.925
171 0 250.517 14.3583 3597 91.4073 657.949 416.718
172 0 258.279 13.9384 3600 92.1272 658.364 409.837
173 0 269.207 14.0709 3788 91.7178 658.999 410.812
174 0 276.26 13.0783 3613 94.0753 658.458 402.339
175 0 285.253 13.02 3714 92.5864 658.846 404.537
176 1 299.31 14.0156 4195 91.0114 658.636 395.485
177 0 306.402 14.5169 4448 90.4703 657.772 392.049
178 1 276.314 13.3652 3693 91.9448 657.847 407.712
179 0 285.39 13.196 3766 93.03 658.022 399.878
180 1 93.1214 13.4341 1251 87.5755 657.508 490.082
181 0 96.2188 11.1413 1072 89.7994 656.82 494.055
182 0 100.126 13.5229 1354 88.2947 656.87 486.654
183 0 106.222 12.4362 1321 89.4837 657.104 487.217
184 0 103.144 12.6619 1306 90.4839 656.381 485.273
185 0 110.191 14.5838 1607 86.2657 656.929 483.416
186 0 115.072 11.4189 1314 89.8995 656.704 486.738
187 0 116.117 13.96 1621 87.7927 656.424 477.341
188 1 126.091 10.1831 1284 88.736 655.295 487.942
189 0 127.196 11.3289 1441 88.7613 654.876 482.974
190 0 128.245 13.9811 1793 86.2705 654.712 474.496
191 1 80.0522 12.4294 995 89.1196 653.976 497.213
192 0 83.087 14.2742 1186 86.3895 654.218 492.481
193 0 86.0719 13.9418 1200 84.9617 654.298 496.538
194 1 48.1365 13.2124 636 84.4434 654.508 512.86
195 0 49.0314 12.9509 635 85.0614 654.49 512.373
196 0 49.0164 13.5465 664 84.7786 654.94 512.163
197 0 52.0548 13.3129 693 83.3983 653.95 512.287
198 0 53.0641 13.0974 695 84.046 654.075 511.542
199 0 55.0715 13.2555 730 82.1466 653.973 510.851
200 0 56.0216 12.156 681 83.2761 654.153 510.076
201 0 60.1019 13.3773 804 80.5684 653.577 508.91
202 0 62.0263 12.8816 799 80.9337 653.999 507.233
203 0 63.0644 13.177 831 80.284 654.543 507.754
204 0 66.1609 13.316 881 79.0704 654.123 508.012
205 0 69.2946 13.2334 917 78.6816 653.358 506.28
206 0 70.1679 12.6696 889 79.7806 654.282 505.631
207 0 74.0794 13.553 1004 77.1992 653.319 505.522
208 1 36.056 12.2032 440 76.9591 653.066 523.207
209 0 36.0446 11.8187 426 79.1009 653.892 521.782
210 0 39.0114 13.5089 527 75.4099 653.848 522.391
211 0 40.043 13.4106 537 76.1639 653.777 519.611
212 0 39.0441 12.3706 483 77.7805 653.377 520.932
213 0 42.0265 14.4433 607 74.117 652.779 518.878
214 0 42.0106 12.7349 535 77.7439 652.05 519.348
215 0 44.0572 13.0285 574 76.3066 652.46 518.742
216 0 46.0498 13.0945 603 76.1559 652.595 518.486
217 0 46.0544 12.5287 577 76.8059 651.747 515.747
218 0 47.0387 12.4366 585 76.9368 651.602 515.385
219 0 50.2131 13.622 684 74.0322 652.155 515.368
220 0 51.0641 13.3362 681 74.7577 652.188 513.162
221 0 52.0414 13.2202 688 74.5509 652.408 512.954
222 0 54.0155 12.5149 676 74.9941 652.25 510.72
223 0 57.0292 13.4142 765 73.6928 651.982 509.927
224 0 60.0246 14.0276 842 72.1734 652.38 506.819
225 0 60.0858 13.1978 793 74.1854 652.739 504.217
226 0 62.1778 14.1369 879 72.0091 652.35 504.749
227 0 64.0429 13.1318 841 73.0488 652.634 503.855
228 0 66.0654 13.9105 919 71.6311 651.74 503.399
229 0 70.0784 13.2708 930 71.9936 651.375 500.826
230 0 73.0227 14.16 1034 70.1722 651.54 501.875
231 0 74.0743 13.5945 1007 71.427 651.92 498.058
232 0 77.1315 12.9001 995 71.7467 651.719 499.672
233 1 39.0553 11.983 468 73.2137 652.308 515.194
234 0 41.0289 11.9184 489 72.0389 651.783 516.055
235 0 42.0574 11.9361 502 73 651.723 513.733
236 0 42.0495 11.6529 490 73.5204 651.882 514.42
237 0 45.0839 13.8409 624 70.7708 652.165 511.76
238 0 47.1101 13.5215 637 70.5981 652.185 511.771
239 0 48.1138 12.0755 581 72.253 651.542 511.148
240 0 49.0423 13.519 663 71.4796 652.475 509.011
241 0 51.0201 12.7793 652 71.4156 652.598 509.026
242 0 53.0235 13.296 705 70.0993 653.323 508.47
243 0 53.0281 11.9936 636 72.6116 651.814 505.363
244 0 56.0606 12.5222 702 70.1296 652.074 507.121
245 0 57.1107 12.8172 732 70.3839 652.492 505.613
246 0 60.1078 12.3611 743 71.004 652.207 505.206
247 0 61.0936 12.8164 783 70.0166 652.64 504.111
248 0 65.0636 13.556 882 68.4637 652.219 502.805
249 0 65.0661 12.4335 809 70.5736 652.655 501.947
250 0 68.1264 12.4474 848 70.145 652.607 502.277
251 0 72.1557 13.0967 945 68.7862 653.287 500.053
252 0 72.0854 12.1661 877 69.8985 652.771 499.724
253 0 75.038 13.793 1035 68.1353 653.035 496.417
254 0 79.0773 13.2529 1048 68.6107 653.45 497.432
255 0 82.0643 12.6364 1037 69.0935 653.549 494.552
256 0 84.0628 13.3591 1123 68.1443 653.123 496.371
257 0 88.0398 12.9373 1139 68.1378 653.68 495.846
258 0 89.1348 12.038 1073 69.1976 653.133 495.652
259 1 47.0196 11.761 553 65.83 652.801 516.172
260 0 47.0708 12.4706 587 66.5911 653.196 514.162
261 0 51.0609 12.9453 661 65.1619 652.831 513.744
262 0 49.0336 12.4201 609 66.9803 652.565 513.399
263 0 54.0366 13.824 747 64.3601 652.925 510.538
264 0 53.0377 13.2547 703 66.4751 652.997 508.491
265 0 55.09 11.7989 650 67.7677 652.586 508.905
266 0 59.0518 12.9547 765 65.3059 652.433 509.247
267 0 60.0548 14.237 855 64.331 653.104 507.82
268 0 60.0545 12.522 752 67.5878 652.959 504.711
269 0 66.0697 13.9096 919 64.7378 652.98 505.387
270 0 67.1299 13.1834 885 66.087 652.807 505.221
271 0 70.0791 12.3004 862 66.9304 653.021 503.47
272 0 73.1155 13.1573 962 66.1497 653.012 501.494
273 0 76.0274 12.7191 967 66.3816 652.136 501.862
274 0 77.1236 12.8365 990 66.1485 652.799 502.502
275 0 79.0633 13.0402 1031 65.7372 652.359 501.211
276 0 83.107 13.2239 1099 66.1065 652.689 497.206
277 0 86.0932 12.138 1045 67.445 651.997 497.015
278 0 88.1173 13.2324 1166 66.723 652.772 496.042
279 0 92.1642 14.4742 1334 64.964 651.52 495.315
280 1 46.0889 11.0005 507 66.3195 651.55 517.116
281 0 48.0306 11.2637 541 66.3845 652.185 516.338
282 0 48.0207 11.8699 570 66.8105 652.218 516.004
283 0 48.0422 10.7197 515 68.6058 652.054 515.454
284 0 50.061 11.8655 594 67.335 651.525 513.997
285 0 53.0453 11.7824 625 66.752 651.037 513.621
286 0 55.0565 13.6224 750 64.6293 651.273 511.251
287 0 56.0752 10.9853 616 67.4968 651.466 512.834
288 0 61.0124 12.2434 747 65.7845 651.323 510.444
289 0 60.0595 11.4553 688 67.5756 651.22 508.836
290 0 63.0462 13.0539 823 65.1847 650.806 507.634
291 0 65.0504 13.4818 877 65.0832 650.872 506
292 0 67.0305 14.3069 959 64.2805 650.899 507.518
293 0 69.0741 12.6386 873 66.6678 651.156 504.725
294 0 69.0964 11.7951 815 68.5767 650.904 504.703
295 0 74.0832 13.0529 967 66.7477 652.17 500.679
296 0 77.1394 11.9005 918 67.3431 651.659 504.18
297 0 80.1221 13.7166 1099 65.6315 650.684 499.358
298 0 81.2173 12.8913 1047 67.0019 650.413 499.3
299 0 83.1209 11.8622 986 69.1582 650.345 498.143
300 0 86.1422 13.6402 1175 67.1957 650.786 494.443
301 1 44.1076 11.3132 499 66.976 650.287 515.114
302 0 45.0453 11.1887 504 67.5357 649.913 514.688
303 0 48.0381 11.3244 544 66.5165 649.983 515.13
304 0 49.0139 10.3236 506 68.3261 650.032 513.032
305 0 50.0891 11.8189 592 66.2078 649.642 511.549
306 0 50.0431 9.45185 473 69.7505 650.345 512.364
307 0 55.0376 11.5557 636 65.8695 649.907 511.278
308 0 54.0593 13.0227 704 66.1776 649.53 509.334
309 0 55.0305 10.7577 592 68.1571 649.961 508.473
310 0 56.1161 10.6387 597 69.7136 650.439 505.871
311 0 58.0375 12.6815 736 67.2867 650.005 505.273
312 0 61.2373 11.8065 723 67.9834 650.81 505.64
313 0 62.1131 11.2698 700 69.09 650.766 504.176
314 0 63.0777 11.7791 743 68.1642 650.145 504.039
315 0 65.0983 10.1539 661 70.3389 649.699 501.697
316 0 68.1632 11.2524 767 68.4446 649.966 504.147
317 0 72.1495 12.6959 916 66.8013 650.426 501.355
318 0 73.0415 12.5819 919 66.5027 650.037 500.009
319 0 74.1554 11.9074 883 67.9015 650.264 499.629
320 0 79.1241 12.7395 1008 66.6577 650.378 496.868
321 1 41.0842 9.71176 399 67.9875 650.769 514.273
322 0 42.0582 9.41553 396 68.1313 651.013 515.396
323 0 43.0733 10.7491 463 66.6739 651.179 514.244
324 0 45.0562 11.0972 500 66.952 650.806 513.21
325 0 46.0883 10.4365 481 67.2536 650.605 513.705
326 0 48.0333 10.4303 501 67.4451 650.232 511.609
327 0 47.0864 11.171 526 67.4544 649.736 510.424
328 0 49.0353 10.7066 525 67.299 649.884 513.556
329 0 50.0567 11.1074 556 67.1781 650.633 511.421
330 0 52.059 10.6994 557 67.3375 650.302 510.654
331 0 52.0995 11.6124 605 67.0413 650.529 507.876
332 0 54.078 9.15345 495 68.0586 650.002 511.79
333 0 57.0683 11.495 656 66.5091 651.084 507.86
334 0 58.2041 12.4734 726 65.5096 649.704 506.468
335 0 61.0832 11.0178 673 67.1961 649.649 504.942
336 0 63.0627 13.5579 855 63.5462 649.625 505.062
337 0 64.1272 11.4928 737 66.4844 650.194 503.855
338 0 65.0811 11.7238 763 66.5623 650.398 502.426
339 0 67.0584 11.4527 768 66.6562 650.221 501.859
340 0 70.1294 11.3504 796 66.4711 650.644 501.447
341 0 74.0695 13.0148 964 64.3745 650.225 498.724
342 0 74.0478 11.6681 864 66.7662 649.885 496.341
343 0 77.2075 12.0455 930 66.5656 649.378 494.174
344 0 79.1082 10.5299 833 67.2341 649.293 497.095
345 0 82.0691 11.137 914 67.1958 650.416 493.183
346 1 43.033 10.3409 445 65.7326 649.825 513.267
347 0 46.0616 10.8333 499 64.3808 650.162 514.096
348 0 46.0617 10.8116 498 65.3755 650.255 512.857
349 0 47.0332 11.46 539 64.6215 650.384 512.254
350 0 49.1001 9.81668 482 66.4627 650.631 511.363
351 0 51.0831 10.2578 524 66.2462 650.739 510.968
352 0 54.0638 11.1165 601 64.2047 650.554 509.481
353 0 55.0476 10.609 584 64.649 650.82 510.502
354 0 54.0706 10.8562 587 65.6099 650.908 508.489
355 0 57.0712 11.2491 642 64.3614 650.319 506.913
356 0 60.131 12.9551 779 61.4827 650.428 506.273
357 0 61.1014 11.7019 715 63.4042 650.733 506
358 0 63.0577 12.4648 786 63.36 651.403 504.607
359 0 64.0876 12.2176 783 62.9425 651.255 504.575
360 0 67.0846 11.3141 759 63.8841 651.684 503.469
361 0 69.059 10.5852 731 65.0793 651.398 501.732
362 0 69.1576 11.4521 792 64.4205 650.843 500.227
363 0 70.1151 12.1087 849 64.2226 651.205 498.013
364 0 75.0302 12.1684 913 63.4053 651.3 498.31
365 0 75.1321 10.7677 809 65.2114 650.713 497.346
366 0 79.1183 12.9932 1028 62.8054 651.466 494.008
367 1 37.0704 8.63222 320 65.8344 651.553 515.253
368 0 41.0452 11.329 465 62.6108 651.282 512.766
369 0 40.0986 10.0004 401 64.9302 651.222 514.89
370 0 41.028 10.8462 445 64.4494 650.917 513.418
371 0 43.0461 10.7559 463 63.352 650.879 514.803
372 0 45.1276 12.3871 559 62.3649 650.739 511.954
373 0 46.0921 11.6723 538 63.0558 650.888 513.849
374 0 48.087 11.3336 545 63.855 651.62 511.739
375 0 47.0971 10.765 507 65.1045 651.408 510.645
376 0 49.0489 11.6822 573 64.0087 651.286 510.859
377 0 50.0485 10.5098 526 65.5475 651.772 510.76
378 0 53.0557 12.4209 659 62.6677 651.311 509.24
379 0 54.0837 12.5361 678 62.733 650.942 507.69
380 0 55.0371 12.9186 711 62.3741 651.276 506.568
381 0 56.2041 12.2589 689 63.4238 650.652 504.679
382 0 58.0333 12.6479 734 62.3733 650.401 506.313
383 0 59.066 11.2417 664 64.1416 650.748 506.922
384 0 61.0567 11.6941 714 63.556 651.324 503.57
385 0 63.2797 12.4369 787 62.7637 651.447 503.695
386 0 66.1468 11.414 755 63.7987 650.856 501.613
387 0 68.1085 13.2729 904 61.3971 650.572 499.753
388 0 68.1294 11.7424 800 63.66 651.244 497.558
389 0 74.2115 13.7176 1018 60.0992 650.889 499.338
390 0 74.0467 13.3024 985 61.3746 650.861 495.583
391 0 77.1215 11.242 867 63.7543 650.835 493.886
392 0 80.054 11.3299 907 62.9846 650.432 497.783
393 0 84.0663 13.525 1137 61.0941 651.058 491.107
394 1 39.0654 9.18972 359 64.7354 651.148 514.086
395 0 42.0282 11.3019 475 62.6653 650.85 511.88
396 0 43.0144 11.9262 513 61.5984 651.386 512.848
397 0 45.0746 10.893 491 63.1731 651.701 510.631
398 0 45.0716 10.8716 490 63.4143 651.39 513.096
399 0 48.0541 11.5495 555 61.7099 651.128 513.611
400 0 49.1017 12.2806 603 61.8823 651.501 508.247
401 0 50.0202 11.9952 600 62.255 651.777 508.58
402 0 51.0388 11.5206 588 62.8792 651.968 508.121
403 0 52.0584 13.3504 695 60.3784 651.682 508.524
