time division length width area intensity CMx CMy
0 0 43.0417 12.0581 519 63.6744 122.776 528.066
1 0 43.0556 12.0774 520 63.7135 121.671 529.679
2 0 44.046 11.4653 505 63.5564 121.606 530.59
3 0 45.0716 11.6259 524 63.8168 122.353 528.58
4 0 45.0672 11.0945 500 63.92 121.686 528.208
5 0 47.0593 11.5174 542 62.6476 121.828 527.917
6 0 48.1109 12.3049 592 61.7568 121.821 527.517
7 0 48.0509 12.4659 599 61.9533 121.194 525.965
8 0 50.0713 11.7433 588 62.0357 121.332 525.638
9 0 52.1071 12.7814 666 61.0871 120.339 522.263
10 0 53.1017 12.8433 682 60.1334 120.394 525.83
11 0 56.1016 13.1369 737 59.0597 120.879 523.217
12 0 56.2609 13.8995 782 57.9271 121.087 521.54
13 0 59.2064 14.0863 834 57.2998 121.344 521.676
14 0 60.0738 12.9341 777 58.6834 121.341 522.409
15 0 59.0775 11.7981 697 60.2425 121.324 520.405
16 0 62.1888 11.8993 740 60.1054 121.474 518.349
17 0 63.0621 12.6225 796 59.4397 121.347 520.651
18 0 66.1098 13.3868 885 58.1311 120.679 518.585
19 0 68.1575 12.2364 834 59.1535 120.832 517.971
20 0 69.1451 11.729 811 59.8903 121.794 518.544
21 1 35.0372 11.3879 399 59.4887 121.754 533.451
22 0 37.0398 12.2031 452 58.7766 121.113 532.35
23 0 37.0624 11.5481 428 60.6192 119.619 532.491
24 0 38.0081 10.8924 414 61.4831 120.302 533.13
25 0 39.0088 11.5359 450 61.9489 120.609 531.213
26 0 41.0467 12.9121 530 59.7113 120.913 530.509
27 0 41.0558 11.7401 482 62.6971 121.494 530.674
28 0 44.0767 13.3857 590 59.9949 121.398 532.58
29 0 45.0314 12.4136 559 62.8855 121.288 530.088
30 0 44.0693 11.6634 514 64.7276 121.642 530.531
31 0 46.0751 12.4362 573 64.4154 121.709 528.7
32 0 46.0464 11.8359 545 65.5229 121.486 528.857
33 0 47.0653 11.5796 545 66.6587 120.923 527.38
34 0 50.0689 13.3816 670 64.003 121.609 527.933
35 0 53.0319 12.8979 684 64.5351 121.363 527.127
36 0 53.0533 13.0058 690 64.7739 122.659 524.836
37 0 55.026 13.7208 755 63.8119 122.126 525.058
38 0 57.0567 13.6531 779 64.6585 121.461 523.467
39 0 61.0674 13.5424 827 63.5066 121.248 523.844
40 0 61.097 12.5865 769 65.3472 122.42 523.299
41 0 62.068 12.148 754 66.3064 121.168 522.836
42 0 62.0599 12.359 767 66.6806 122.613 522.089
43 0 66.0439 12.628 834 65.7302 122.119 519.181
44 0 68.0885 12.1166 825 66.503 122.955 520.072
45 0 71.0355 13.1624 935 65.5968 122.558 516.714
46 0 74.0505 11.6407 862 66.2981 123.015 519.21
47 0 73.0747 11.6182 849 67.7102 123.272 517.383
48 0 78.0395 11.5198 899 67.8042 122.91 515.636
49 1 41.0534 10.1331 416 68.6274 123.731 532.945
50 0 42.0595 11.7928 496 67.1814 122.966 531.238
51 0 45.0526 12.0082 541 65.7542 123.939 531.588
52 0 44.0977 12.3362 544 67.614 123.638 530.572
53 0 47.0475 11.5628 544 67.9118 123.184 530.34
54 0 49.1041 11.0378 542 68.179 123.45 529.415
55 0 52.0615 13.0615 680 65.6118 123.104 527.972
56 0 52.1276 12.8531 670 66.2149 122.958 526.884
57 0 55.0977 12.3417 680 66.075 123.372 527.471
58 0 54.057 11.9874 648 67.1157 124.247 526.054
59 0 59.1202 12.2631 725 66.4938 122.97 524.378
60 0 59.0486 12.2611 724 66.3246 123.841 524.878
61 0 60.0438 12.3743 743 66.7187 123.052 525.088
62 0 61.0236 12.6181 770 66.6494 122.806 523.526
63 0 61.1332 12.1374 742 68.1253 123.016 520.745
64 0 63.1067 12.2332 772 68.535 122.922 517.247
65 0 67.0738 12.0166 806 68.2332 123.331 518.141
66 0 69.0594 13.0033 898 66.7439 123.655 518.886
67 0 71.0867 13.8563 985 65.9878 122.791 517.726
68 0 72.068 12.4882 900 67.9978 122.348 517.697
69 0 74.1097 10.5519 782 70.5115 122.804 517.423
70 0 80.0369 14.4933 1160 64.9784 122.459 514.44
71 0 80.0947 12.8098 1026 67.8996 122.768 512.274
72 0 84.061 12.6932 1067 67.4733 122.461 513.154
73 0 86.0515 12.876 1108 67.4666 121.866 511.668
74 0 87.1525 12.633 1101 67.9973 122.565 510.029
75 0 89.0945 10.7863 961 69.9917 123.049 510.026
76 0 92.1014 13.3114 1226 67.1501 123.1 505.712
77 0 96.0911 12.9773 1247 67.0866 122.704 505.672
78 1 53.0811 11.7179 622 66.9341 123.186 524.939
79 0 55.0589 13.0406 718 65.5738 122.776 524.567
80 0 56.1072 11.6028 651 67.7988 123.33 522.857
81 0 58.0601 12.4354 722 66.6344 123.173 521.555
82 0 60.1429 11.8551 713 66.4951 123.71 523.201
83 0 61.0468 12.8262 783 65.8174 123.105 520.659
84 0 63.1815 13.3742 845 65.0817 123.62 520.298
85 0 64.0508 12.9429 829 65.2449 123.877 521.637
86 0 69.0962 12.5188 865 65.2925 124.162 519.297
87 0 70.0641 14.4154 1010 63.9871 124.163 516.536
88 0 72.1058 12.4401 897 66.4181 123.821 515.817
89 0 72.0459 11.8813 856 67.9019 124.027 513.308
90 0 77.15 13.882 1071 64.8702 123.106 514.964
91 0 77.0724 12.1963 940 68.3766 123.718 513.408
92 0 81.0483 12.7455 1033 67.636 123.812 510.497
93 0 82.0446 11.9203 978 70.1114 123.608 508.835
94 0 84.088 11.5474 971 70.3368 123.566 510.726
95 0 89.1124 12.7816 1139 69.1089 123.722 508.457
96 1 42.0771 10.4808 441 71.9637 123.322 529.499
97 0 44.0254 10.9936 484 70.6777 124.213 529.353
98 0 45.0162 10.9294 492 71.5528 123.762 530.189
99 0 46.1053 11.9509 551 70.5808 124.113 529.514
100 0 48.0372 12.1989 586 70.8038 124.148 527.259
101 0 49.0388 12.174 597 70.9028 123.757 526.342
102 0 53.0288 13.7284 728 67.5536 123.754 525.834
103 0 54.0841 12.3696 669 70.2197 123.833 524.028
104 0 54.0459 13.3775 723 69.5339 124.481 522.744
105 0 58.0235 12.426 721 69.5257 124.11 524.487
106 0 58.0709 12.0026 697 71.0832 124.126 522.499
107 0 61.07 12.6412 772 70.1088 124.798 521.342
108 0 62.0836 12.3865 769 70.9857 124.124 519.534
109 0 63.0603 13.5426 854 69.5234 124.504 519.092
110 0 64.1026 12.3084 789 70.7719 123.242 520.213
111 0 66.0855 12.7865 845 71.0308 122.214 517.67
112 0 70.1211 13.1344 921 70.5309 123.29 517.545
113 0 71.0408 12.4999 888 70.9707 123.6 516.59
114 0 72.1548 11.4753 828 73.4155 123.368 514.467
115 0 75.0676 13.348 1002 70.9501 123.621 513.183
116 0 76.075 12.6323 961 72.8117 123.139 514.647
117 0 79.0916 12.9976 1028 72.1654 124.599 511.943
118 0 83.1275 13.365 1111 71.288 124.637 511.373
119 0 84.2447 13.1047 1104 72.5226 124.748 509.231
120 0 85.0708 12.8599 1094 73.9616 124.214 506.564
121 1 44.0704 12.5935 555 71.5658 123.679 528.198
122 0 46.0528 12.464 574 71.101 124.528 527.92
123 0 47.0377 12.1817 573 71.0908 124.099 526.511
124 0 49.0771 11.9608 587 71.0698 125.055 526.75
125 0 50.0502 13.6063 681 69.0822 123.636 524.561
126 0 49.2156 10.7689 530 73.7981 123.455 526.106
127 0 54.0823 12.407 671 70.0373 123.504 524.721
128 0 54.0478 13.0255 704 69.3977 123.474 523.891
129 0 54.2426 11.6882 634 72.8438 124.148 522.065
130 0 54.0346 12.0108 649 72.4299 123.943 521.995
131 0 58.0215 13.0296 756 70.3796 122.738 522.57
132 0 59.0562 11.9886 708 71.6723 123.496 521.917
133 0 62.0606 12.9228 802 70.3778 123.943 518.364
134 0 61.0303 10.929 667 73.7166 123.193 519.928
135 0 65.0591 13.6184 886 70.5429 123.144 516.754
136 0 69.0692 12.7698 882 70.9444 123.88 516.965
137 0 68.164 12.7193 867 71.9885 124.21 515.679
138 0 73.1256 12.499 914 72.2834 123.953 514.423
139 0 74.0839 13.0798 969 71.6471 123.76 513.304
140 0 77.1291 13.7951 1064 70.5648 124.628 514.183
141 1 40.0343 11.5651 463 73.1857 124.572 530.492
142 0 40.0247 9.51911 381 76.1864 124.344 530.341
143 0 43.0202 11.6922 503 74.3956 123.394 527.258
144 0 44.0253 11.9931 528 73.1553 123.822 528.483
145 0 44.1203 11.6273 513 73.768 124.548 528.83
146 0 43.0494 10.337 445 78.5214 124.133 526.148
147 0 47.0229 11.8666 558 75.4014 124.122 526.029
148 0 48.0803 12.4375 598 74.704 123.639 525.948
149 0 48.128 12.633 608 75.0164 123.641 524.229
150 0 51.0589 11.8295 604 75.6275 123.321 524.308
151 0 52.1831 11.6321 607 76.1153 124.527 524.407
152 0 53.0766 11.8508 629 75.7202 123.757 523.733
153 0 56.1685 12.1598 683 75.2767 123.836 522.346
154 0 58.1151 12.5441 729 74.4115 122.962 523.136
155 0 58.0592 12.1428 705 74.7021 123.089 523.475
156 0 60.1411 12.0051 722 75.7839 124.427 521.874
157 0 62.0357 13.2988 825 72.6533 123.865 520.841
158 0 65.0756 12.6161 821 73.0268 124.313 519.717
159 0 66.0684 11.8665 784 75.1837 124.425 518.189
160 0 68.0664 12.003 817 75.0208 124.308 516.417
161 0 69.0983 11.7803 814 76.398 124.688 516.075
162 0 73.0868 11.9173 871 75.6074 123.854 514.896
163 0 75.0579 11.6177 872 76.4369 124.103 512.732
164 0 77.1272 12.3303 951 74.7634 124.658 514.333
165 1 41.0399 10.7944 443 75.0519 125.099 529.749
166 0 41.0628 12.0791 496 74.4093 125.593 526.712
167 0 44.0478 11.8735 523 74.7553 125.778 527.727
168 0 44.0254 11.1072 489 76.6299 126.061 527.513
169 0 45.065 12.2933 554 75.3394 125.953 523.829
170 0 46.0308 10.7537 495 77.7354 125.513 526.655
171 0 48.0232 11.2862 542 74.8819 125.384 526.454
172 0 49.0294 11.8092 579 75.4663 125.038 524.454
173 0 51.0861 11.5687 591 76.198 124.611 522.509
174 0 52.03 11.3973 593 76.6307 124.845 523.659
175 0 53.0259 11.4661 608 75.8158 123.967 522.679
176 0 52.0817 10.7715 561 78.189 123.041 520.907
177 0 56.0544 12.7198 713 74.0645 123.491 520.628
178 0 57.0621 11.5488 659 77.0258 123.628 519.284
179 0 60.1506 11.5377 694 75.1023 124.012 521.218
180 0 61.1619 12.0009 734 74.9809 123.41 519.646
181 0 63.1304 11.2466 710 75.631 122.428 520.545
182 0 64.0653 11.5507 740 75.6622 122.707 517.405
183 0 64.057 11.6147 744 76.5551 121.867 517.896
184 0 69.0425 12.514 864 74.3171 121.727 516.759
185 0 70.1332 12.8042 898 73.4933 121.683 516.984
186 0 73.0582 14.0573 1027 71.4722 121.583 514.796
187 0 76.0973 13.7718 1048 71.5029 121.427 513.261
188 0 79.1495 13.822 1094 71.1408 121.336 512.515
189 0 80.0521 13.3163 1066 73.2336 121.622 510.024
190 0 83.1109 14.0896 1171 71.86 120.624 509.564
191 0 83.1008 12.202 1014 75.501 119.908 511.391
192 0 87.2503 12.6418 1103 74.4832 119.82 507.602
193 0 89.1172 14.8456 1323 71.4626 119.404 506.142
194 0 92.1183 13.2764 1223 73.2886 119.87 507.03
195 1 46.0876 10.5451 486 77.0062 119.521 529.163
196 0 49.1052 11.9947 589 75.1409 120.1 528.031
197 0 49.1209 11.4819 564 76.2926 120.629 528.558
198 0 54.091 13.3109 720 72.4958 120.192 527.764
199 0 52.0663 11.8695 618 76.1845 119.629 527.055
200 0 54.072 12.0025 649 74.584 119.498 527.834
201 0 57.1434 13.0549 746 72.9222 118.602 526.044
202 0 59.0773 11.6288 687 74.0946 118.448 527.702
203 0 60.1613 12.0177 723 73.9364 118.999 527.017
204 0 62.1834 12.3184 766 73.9778 118.884 524.881
205 0 62.0882 12.4822 775 73.7652 118.466 524.2
206 0 64.1029 11.9963 769 73.9883 119.615 524.021
207 0 66.158 12.6213 835 73.6144 119.85 521.944
208 0 68.1199 12.8303 874 71.9897 119.812 523.017
209 0 72.0681 13.4179 967 70.6422 119.916 522.389
210 0 73.2893 13.4945 989 71.27 118.639 517.917
211 0 75.2079 12.8444 966 70.7826 119.078 521.086
212 0 77.1846 12.6191 974 72.0503 119.082 518.471
213 0 79.1132 12.7412 1008 71.8194 118.337 518.179
214 0 83.1553 13.0238 1083 71.1838 117.704 516.125
215 0 83.1218 12.4035 1031 72.9243 118.024 516.436
216 0 86.1532 13.1858 1136 71.6866 117.653 514.739
217 1 46.0542 11.7687 542 73.2435 116.891 531.932
218 0 48.1437 11.1333 536 73.5784 116.517 532.463
219 0 50.0562 11.3273 567 73.8448 117.527 531.436
220 0 50.0362 11.3518 568 74.6954 117.062 530.532
221 0 52.087 12.0184 626 73.401 117.599 530.636
222 0 52.0462 12.412 646 73.9133 118.034 529.226
223 0 52.047 12.2005 635 75.2394 118.239 527.917
224 0 57.0984 13.2928 759 72.0935 117.715 526.428
225 0 57.072 13.5443 773 72.6559 117.649 525.929
226 0 57.0652 12.7573 728 73.897 117.874 524.841
227 0 61.1252 12.5807 769 73.9805 117.763 524.818
228 0 61.0716 13.1157 801 74.3571 117.848 521.697
229 0 62.1012 13.5424 841 73.2342 117.559 521.364
230 0 66.1234 11.8566 784 74.9924 117.311 523.071
231 0 66.1019 13.9179 920 72.5109 116.125 519.764
232 0 67.0813 13.1482 882 74.9274 118.052 517.366
233 0 71.1043 14.0498 999 72.0721 117.839 518.937
234 0 73.1595 13.2177 967 73.8428 116.881 517.678
235 0 73.0799 13.0268 952 75.3004 117.025 515.128
236 0 78.0801 13.1916 1030 74.2592 117.768 515.248
237 0 77.101 12.6587 976 75.708 117.108 514.1
238 0 81.191 13.6222 1106 73.7043 117.26 513.064
239 0 84.0955 13.7225 1154 72.948 117.574 511.795
240 0 85.0831 12.5642 1069 75.8775 117.225 510.694
241 1 46.0514 11.1832 515 78.5301 117.002 526.693
242 0 48.0856 10.5437 507 78.3748 118.156 527.345
243 0 49.0706 12.4107 609 75.711 117.864 525.686
244 0 50.0345 11.7519 588 77.3095 117.121 525.903
245 0 54.0469 12.8037 692 75.4827 117.701 523.293
246 0 53.0467 11.4051 605 78.7455 118.106 524.378
247 0 56.0835 13.4977 757 74.572 118.469 523.823
248 0 57.0651 13.0377 744 75.0699 118.141 524.999
249 0 58.0707 12.4159 721 77.2233 118.721 522.331
250 0 62.1067 13.0582 811 75.397 117.642 522.872
251 0 63.061 12.3056 776 76.759 118.101 521.885
252 0 64.0874 13.0291 835 75.5162 118.557 521.745
253 0 68.089 12.5424 854 75.5246 117.621 521.021
254 0 68.0775 12.7502 868 75.9009 119.154 519.773
255 0 70.0813 12.7566 894 75.6376 118.57 520.021
256 0 73.1913 11.3811 833 77.5618 118.25 520.103
257 0 74.1357 12.0185 891 76.752 119.138 516.957
258 0 79.0526 12.8395 1015 74.0837 118.834 516.338
259 0 79.0932 12.7192 1006 74.6163 118.204 515.372
260 0 82.2402 13.4606 1107 73.1545 118.756 514.53
261 1 42.0307 9.92132 417 76.458 119.106 533.017
262 0 44.022 11.6078 511 73.454 118.108 532.207
263 0 47.0596 10.5398 496 73.4335 118.192 533.946
264 0 46.0628 10.9416 504 74.0913 118.571 532.901
265 0 48.0293 11.4722 551 74.3503 117.361 528.632
266 0 49.0606 12.6782 622 71.7379 116.905 529.59
267 0 51.1203 12.05 616 71.901 116.89 529.362
268 0 51.1064 12.1316 620 73.7258 117.361 527.85
269 0 56.2317 12.6086 709 71.8858 118.408 528.463
270 0 55.0568 11.6062 639 74.2973 117.294 527.689
271 0 59.1119 12.1972 721 71.6824 118.187 527.305
272 0 59.1961 12.163 720 73.2069 117.117 523.81
273 0 60.0823 11.7339 705 74.3007 115.952 523.485
274 0 63.0484 12.6728 799 71.841 116.716 523.528
275 0 65.2119 12.5591 819 71.0672 116.726 524.27
276 0 66.0951 12.5123 827 71.3156 117.34 522.439
277 0 70.3304 13.1522 925 69.7816 116.84 520.084
278 0 71.1191 13.0907 931 70.4705 117.043 518.749
279 0 72.1636 13.2338 955 70.3937 116.952 517.136
280 0 75.2216 13.1478 989 69.3276 116.385 519.411
281 0 77.1729 13.6317 1052 68.9933 116.758 517.553
282 0 79.1167 11.7421 929 71.8052 116.945 517.453
283 0 83.037 13.0665 1085 69.5069 117.003 516.392
284 1 43.0364 10.2936 443 70.1761 117.084 533.93
285 0 43.0362 11.5484 497 68.1408 116.905 533.459
286 0 43.1089 10.0907 435 70.7195 116.444 534.161
287 0 47.0776 10.8969 513 68.3353 116.867 533.46
288 0 49.027 11.5447 566 68.0371 116.23 531.314
289 0 49.0514 11.2127 550 69.0545 116.884 530.093
290 0 51.138 12.0263 615 66.8585 116.681 531.48
291 0 51.0908 12.2918 628 67.199 117.083 530.744
292 0 54.1328 12.4139 672 66.5863 117.244 529.597
293 0 55.0694 11.2404 619 68.2116 117.283 528.242
294 0 56.064 11.1301 624 68.6619 117.3 527.792
295 0 58.0378 10.7172 622 68.4695 117.204 525.026
296 0 59.0786 10.4945 620 68.2064 116.795 526.116
297 0 63.0794 11.8739 749 65.3992 116.343 523.947
298 0 64.1048 12.1832 781 65.3022 116.238 523.083
299 0 68.0825 12.2205 832 64.8438 116.026 521.947
300 0 69.051 11.6436 804 64.8346 116.407 522.522
301 0 70.0489 11.8917 833 64.8523 116.394 519.944
302 0 73.0909 11.1915 818 65.5293 114.934 519.885
303 0 74.0377 12.21 904 64.3164 114.778 518.223
304 0 75.0424 11.8067 886 64.6919 115.176 516.214
305 0 78.3015 12.2092 956 64.2019 115.155 515.013
306 1 42.0812 10.8837 458 64.6376 115.434 532.622
307 0 43.0324 10.5734 455 64.3121 115.655 532.664
308 0 43.025 11.0866 477 64.4444 116.283 533.006
309 0 45.0683 10.9389 493 65.3773 115.704 531.213
310 0 46.0333 10.84 499 64.7575 116.357 532.784
311 0 47.025 12.8442 604 63.7185 115.775 529.05
312 0 48.0247 11.7231 563 65.4742 115.714 528.677
313 0 49.0648 12.5345 615 65.0585 115.75 526.036
314 0 52.0582 13.1584 685 63.2876 116.158 527.547
315 0 52.1695 11.6735 609 65.4581 116.205 527.34
316 0 55.0684 12.0396 663 65.3891 115.885 527.09
317 0 57.0553 11.9183 680 65.7794 116.465 526.197
318 0 55.0359 11.5743 637 67.5212 116.036 523.76
319 0 60.0709 13.7338 825 63.6206 116.322 523.265
320 0 60.0414 12.3581 742 66.4326 115.581 522.965
321 0 60.105 11.4466 688 68.2049 115.714 522.744
322 0 65.0502 11.8524 771 66.9961 116.03 523.318
323 0 64.0727 10.5661 677 69.5524 115.996 521.278
324 0 68.1295 12.9019 879 66.2708 115.84 520.985
325 0 69.1629 12.738 881 67.294 116.158 519.899
326 0 70.0924 13.3966 939 67.2705 116.99 516.149
327 0 72.0462 11.3538 818 70.0807 116.446 517.694
328 0 76.1122 12.2057 929 68.7772 116.629 518.001
329 0 77.0853 13.0116 1003 68.7966 115.749 514.152
330 0 82.0862 12.694 1042 68.6766 116.06 516.11
331 0 84.2764 13.3608 1126 68.3197 115.725 511.368
332 0 86.1682 13.0675 1126 68.9689 115.571 511.698
333 1 44.028 10.9249 481 70.7672 116.439 532.601
334 0 47.0646 11.4311 538 70.7342 116.554 529.037
335 0 48.026 11.3272 544 70.1011 115.919 530.246
336 0 50.0655 11.1654 559 70.0465 116.111 530.724
337 0 51.0734 11.9828 612 70.9363 115.938 526.343
338 0 52.0899 11.7297 611 71.8003 115.511 525.948
339 0 55.0993 11.4339 630 71.6857 116.224 527.036
340 0 55.0978 12.9588 714 69.7255 116.725 525.646
341 0 58.1944 11.2897 657 71.2709 116.409 525.469
342 0 59.1053 12.1817 720 70.25 116.582 524.604
343 0 61.1097 12.1585 743 70.8708 116.806 521.965
344 0 62.0878 12.3857 769 69.5319 116.566 522.241
345 0 64.0707 11.9555 766 69.6423 116.337 522.663
346 0 66.198 13.369 885 68.5774 116.067 519.436
347 0 68.1591 12.6029 859 69.7579 115.719 516.787
348 0 71.0774 11.5508 821 70.0816 116.446 520.021
349 0 72.1127 12.2725 885 70.5797 115.385 513.794
350 0 77.1003 12.2179 942 68.7049 116.213 515.157
351 0 77.1313 11.2406 867 70.6113 116.519 513.293
352 0 82.1473 12.295 1010 68.0257 115.766 512.417
353 0 83.0914 11.698 972 69.1605 116.438 513.228
354 0 86.1555 12.9533 1116 67.4624 116.649 510.436
355 0 89.171 12.1789 1086 68.6298 116.607 508.831
356 0 94.1061 13.3148 1253 66.312 116.837 505.27
357 0 95.137 13.3702 1272 66.8978 116.581 507.371
358 1 53.0616 11.9107 632 66.9937 117.259 525.521
359 0 53.0269 11.9751 635 66.7087 117.436 528.324
360 0 56.0606 11.8087 662 66.9305 117.369 527.213
361 0 56.0285 11.5834 649 68.7966 117.274 524.254
362 0 57.0195 10.8384 618 70.5307 117.011 524.351
363 0 58.06 10.3686 602 71.3837 117.982 523.621
364 0 60.0404 12.0585 724 69.5124 117.779 521.298
365 0 62.1041 11.9799 744 69.7715 117.582 519.63
366 0 64.0428 12.0388 771 69.1323 118.403 520.852
367 0 66.0872 11.8177 781 69.9616 117.706 519.155
368 0 70.053 13.8467 970 65.9856 117.854 517.858
369 0 70.061 13.3883 938 67.2729 117.701 518.894
370 0 73.1898 12.2285 895 68.4436 117.301 515.88
371 0 73.19 13.1712 964 68.2033 117.01 515.517
372 0 78.082 13.4218 1048 67.1126 117.184 515.455
373 0 79.176 12.769 1011 68.6469 116.625 513.785
374 0 80.0632 10.8789 871 71.6452 116.814 513.23
375 0 81.1506 11.4602 930 71.1387 117.451 511.376
376 1 44.0344 10.5599 465 66.6237 117.585 534.331
377 0 44.0469 10.6931 471 68.5987 117.843 530.478
378 0 46.0252 11.0157 507 67.3964 117.103 529.815
379 0 46.0765 10.0268 462 69.2727 117.251 530.128
380 0 46.0306 10.2541 472 69.8136 116.697 527.638
381 0 47.0819 10.5986 499 69.5952 116.868 527.373
382 0 52.1153 12.1078 631 66.5436 116.098 526.783
383 0 51.0394 10.0903 515 69.8505 116.252 526.66
384 0 54.0249 11.0134 595 68.8487 116.795 525.704
385 0 55.0761 12.056 664 67.9699 115.773 523.913
386 0 57.0555 12.1285 692 67.2731 116.86 522.227
387 0 59.0672 11.6647 689 67.8374 116.659 523.682
388 0 59.0768 10.6641 630 69.4 116.641 522.705
389 0 63.0478 13.466 849 64.7397 115.899 522.283
390 0 64.1046 11.6528 747 67.9411 116.672 520.333
391 0 66.0286 11.5253 761 68.2155 117.39 519.047
392 0 68.0599 13.062 889 65.9449 116.758 517.196
393 0 67.0511 11.4987 771 69.153 116.503 515.724
394 0 73.1459 12.5639 919 65.889 116.201 517.028
395 0 75.0683 12.1623 913 66.5586 117.302 515.336
396 0 75.0603 11.4708 861 68.0546 117.108 512.314
397 0 77.0718 10.2891 793 69.0618 117.382 514.178
398 0 81.1333 11.894 965 66.858 116.948 512.445
399 1 41.0804 10.5403 433 66.4919 117.076 532.829
400 0 43.0291 10.4116 448 66.192 116.801 530.612
401 0 43.0701 10.7267 462 65.2338 116.892 530.916
402 0 44.0346 10.3555 456 66.046 117.647 528.77
403 0 49.0467 11.54 566 63.2686 117.793 529.638
