time division length width area intensity CMx CMy
0 0 52.1088 12.1477 633 57.1532 730.752 522.148
1 0 54.123 12.3423 668 57.0509 729.54 520.647
2 0 53.1231 10.8239 575 59.4278 729.649 524.245
3 0 55.1967 12.9174 713 57.0715 730.199 522.412
4 0 57.2506 10.9344 626 59.0032 729.649 521.805
5 0 58.1339 12.6088 733 56.8322 729.715 522.147
6 0 61.2025 11.993 734 57.2425 729.609 522.941
7 0 62.0664 13.0505 810 56.8506 729.131 518.735
8 0 64.1635 12.5305 804 57.199 729.274 519.04
9 0 64.1742 10.7208 688 59.6948 728.315 518.924
10 0 65.1625 11.9701 780 58.4667 728.205 519.523
11 0 66.3106 12.5169 830 58.6723 728.629 514.47
12 0 70.0526 13.0188 912 57.3202 728.853 515.395
13 0 71.1682 11.6485 829 59.4391 729.27 515.128
14 0 76.2212 14.2086 1083 55.88 729.286 515.03
15 0 77.1823 12.2437 945 58.7683 729.192 513.601
16 1 37.035 10.5036 389 59.2545 729.794 534.707
17 0 40.0271 11.1425 446 59.1614 729.594 532.751
18 0 39.0753 11.3627 444 59.2635 728.894 534.541
19 0 42.0519 10.8675 457 60.3435 729.151 531.206
20 0 41.1181 11.2846 464 60.7586 730.03 532.778
21 0 42.0915 11.6651 491 60.1589 729.813 531.953
22 0 44.0596 12.9143 569 59.6221 729.283 529.007
23 0 45.064 11.406 514 61.4786 727.628 530.064
24 0 48.0792 12.4794 600 59.9483 728.437 529.502
25 0 46.0856 9.74274 449 64.6637 728.421 527.817
26 0 47.0902 11.1276 524 63.2863 728.687 525.794
27 0 50.0531 12.3469 618 61.9353 729.398 525.963
28 0 51.1115 13.539 692 60.4364 728.993 527.103
29 0 51.0434 11.8331 604 63.1026 729.176 527.258
30 0 55.0215 12.486 687 61.9651 729.608 525.921
31 0 55.1268 13.4417 741 61.9204 729.606 523.896
32 0 55.035 13.6277 750 61.8467 729.268 521.947
33 0 59.0501 11.5156 680 64.2338 728.646 521.447
34 0 60.0676 13.2184 794 61.8249 729.377 523.936
35 0 60.122 11.4101 686 64.3819 729.261 523.392
36 0 62.0137 11.3685 705 64.4043 730.421 521.678
37 0 64.0331 11.088 710 65.0338 729.983 521.163
38 0 66.0788 12.364 817 64.3758 729.212 518.548
39 0 66.1039 10.9676 725 65.9021 729.077 518.403
40 0 71.0943 12.8984 917 63.3817 730.193 518.208
41 0 72.0588 10.5608 761 66.0263 728.879 519.163
42 0 73.0288 11.3791 831 65.6799 730.349 517.939
43 0 75.0936 12.3712 929 65.5813 729.876 513.795
44 0 78.2471 12.4094 971 65.3934 730.717 513.09
45 1 40.0394 11.4887 460 64.6978 730.598 532.354
46 0 40.0547 11.4344 458 64.8035 730.841 531.441
47 0 42.0477 11.1064 467 65.5546 731.31 530.831
48 0 42.0831 10.5981 446 66.9798 730.962 530.02
49 0 43.028 9.15682 394 67.3452 731.566 531.723
50 0 45.051 12.6301 569 64.5325 730.905 528.139
51 0 46.0628 11.9185 549 65.5319 731.785 527.317
52 0 47.0092 9.76406 459 67.5251 731.499 528.965
53 0 49.0113 12.0584 591 64.5973 730.883 526.882
54 0 51.0532 13.0648 667 63.0675 731.358 525.495
55 0 51.0268 11.7585 600 64.8883 731.048 525.807
56 0 53.0226 10.3352 548 66.4526 731.073 524.128
57 0 54.0414 10.9916 594 66.1633 731.264 522.564
58 0 56.1022 10.8908 611 65.1898 732.187 523.185
59 0 59.0758 12.3062 727 64.0138 730.916 521.378
60 0 61.0299 12.5348 765 64.1595 731.665 519.452
61 0 63.0426 11.6271 733 65.206 730.952 518.432
62 0 63.1114 11.1073 701 66.3752 730.834 518.669
63 0 64.1134 11.1677 716 66.9553 731.112 516.852
64 0 71.059 13.0314 926 64.1793 730.877 517.192
65 0 73.0376 13.3356 974 64.2454 731.336 516.537
66 0 76.2076 12.9777 989 65.4307 731.613 513.249
67 0 75.138 11.5388 867 68.2976 730.777 512.712
68 0 81.037 12.3154 998 66.9439 730.364 512.55
69 0 81.0873 11.9131 966 68.7598 730.838 509.707
70 1 43.0139 12.3913 533 64.4315 730.585 530.846
71 0 44.0447 11.0115 485 66.5175 731.008 531.188
72 0 45.0268 12.4148 559 65.5206 730.576 530.004
73 0 46.0539 11.6168 535 67.2654 730.043 528.344
74 0 47.0711 12.8741 606 66.302 730.591 526.705
75 0 49.0179 12.016 589 67.0645 731.121 526.698
76 0 49.0331 11.8695 582 67.7784 731.27 525.321
77 0 50.0874 10.0824 505 69.2238 730.954 527.192
78 0 54.0653 12.2445 662 66.6541 730.902 522.305
79 0 56.1266 13.9684 784 64.2411 730.686 523.189
80 0 55.1557 10.7695 594 69.1296 731.205 521.874
81 0 57.0954 10.3161 589 69.4601 730.985 521.448
82 0 62.0632 13.1801 818 65.1125 731.473 520.727
83 0 64.0581 12.6292 809 66.2336 730.972 518.278
84 0 66.1372 11.3249 749 66.996 731.442 521.336
85 0 69.0746 11.9002 822 66.7567 731.651 518.468
86 0 69.045 10.5149 726 68.3375 731.869 518.142
87 0 72.0297 12.8697 927 66.1888 731.698 514.861
88 0 75.059 12.5235 940 66.6266 731.594 512.417
89 1 36.0196 10.2167 368 65.9946 732.087 533.38
90 0 36.0304 10.4356 376 67.0931 731.178 531.931
91 0 40.0345 11.4901 460 65.8478 731.694 531.041
92 0 40.0397 12.5625 503 64.6422 731.903 530.36
93 0 41.0807 11.8791 488 66.127 731.598 530.119
94 0 43.0224 10.9943 473 66.4102 731.567 530.603
95 0 44.0225 11.1307 490 67.1898 731.567 528.61
96 0 44.1494 11.7555 519 67.0308 730.963 528.008
97 0 46.1036 11.1922 516 67.4787 732.048 527.764
98 0 47.0748 11.3649 535 68.615 731.475 526.849
99 0 47.0255 10.7176 504 69.2202 731.782 529.216
100 0 47.0393 11.99 564 69.0355 731.837 526.172
101 0 50.0584 11.9261 597 69.5209 731.643 523.832
102 0 52.0855 12.8443 669 67.9791 731.453 523.254
103 0 52.0949 13.341 695 67.6245 731.632 524.23
104 0 54.101 13.0312 705 67.7688 732.248 524.597
105 0 57.0772 12.667 723 69.0844 731.783 520.823
106 0 59.0531 12.9036 762 68.7349 731.884 520.377
107 0 60.0871 11.8994 715 70.1217 732.589 520.256
108 0 62.0689 14.4195 895 66.9598 731.898 518.622
109 0 65.1041 12.1959 794 69.2393 732.321 520.684
110 0 64.1352 13.1441 843 69.5753 730.972 516.172
111 0 67.111 13.0083 873 69.7491 729.98 516.43
112 1 33.034 9.59616 317 71.3186 731.584 533.729
113 0 35.0348 10.3326 362 70.1768 731.895 531.787
114 0 36.0048 10.8041 389 70.6915 731.725 529.923
115 0 37.0524 11.6052 430 69.5 731.888 529.193
116 0 38.0274 10.8606 413 71.3995 731.525 530.361
117 0 40.0157 11.8953 476 68.9874 732.87 529.515
118 0 40.0216 12.3933 496 68.8145 733.002 528.06
119 0 42.0567 11.9125 501 69.3553 732.94 527.762
120 0 44.0541 13.9374 614 66.3111 732.45 528.021
121 0 44.0707 10.9824 484 70.7707 731.452 528.213
122 0 44.0338 11.0597 487 71.3162 732.363 526.643
123 0 48.0134 11.7051 562 69.7295 731.897 525.034
124 0 48.0203 11.1828 537 71.1602 732.754 523.924
125 0 49.0576 11.0279 541 71.7579 731.442 522.579
126 0 52.0386 12.8366 668 68.6946 731.349 522.883
127 0 51.0752 12.2956 628 70.258 731.481 521.25
128 0 53.085 11.2461 597 71.3802 731.528 521.866
129 0 55.0539 10.6078 584 72.762 732.279 520.74
130 0 55.1049 11.1968 617 72.4263 731.971 520.305
131 0 59.1635 13.2683 785 68.6803 730.837 519.353
132 0 60.0641 11.3379 681 71.4743 731.526 518.282
133 0 61.1588 11.5274 705 71.3972 732.094 515.626
134 0 63.2071 12.9574 819 69.5653 731.253 516.195
135 0 65.1735 13.1035 854 68.8852 731.273 515.211
136 0 67.1214 11.5909 778 71.0476 731.941 515.934
137 1 32.0733 8.85471 284 71.4824 732.539 531.345
138 0 34.0162 10.0834 343 70.0758 732.19 530.082
139 0 36.0372 10.8776 392 68.5128 732.066 529.559
140 0 36.014 7.38602 266 72.4774 733.15 531.109
141 0 40.0193 10.295 412 69.1019 732.459 529.172
142 0 40.0199 11.9191 477 66.9434 732.138 528.419
143 0 42.0675 12.3136 518 66.1834 731.411 525.359
144 0 45.1654 12.4431 562 64.7972 731.687 526.989
145 0 44.0363 10.9455 482 68.4606 732.564 525.448
146 0 45.0424 11.0562 498 68.1084 732.056 524.426
147 0 48.0584 11.2155 539 67.1744 732.067 525.451
148 0 47.0395 11.7136 551 66.5318 731.55 525.566
149 0 50.1128 10.6959 536 67.5336 731.614 523.032
150 0 52.0274 13.0508 679 64.4654 731.236 520.82
151 0 52.0223 12.0333 626 65.738 732.685 522.396
152 0 56.0146 11.1935 627 65.5136 731.774 521.367
153 0 57.0756 12.9127 737 63.5427 731.889 519.84
154 0 57.0328 12.1684 694 65.062 730.996 518.839
155 0 59.1003 11.3536 671 65.5902 730.958 517.58
156 0 61.0441 10.9593 669 66.1973 732.182 518.25
157 0 63.1021 12.0598 761 64.0381 731.644 515.89
158 0 66.1081 12.646 836 62.61 732.006 516.847
159 0 66.097 12.1791 805 63.7453 732.229 515.482
160 0 69.0882 13.3163 920 62.5098 732.137 511.323
161 0 72.098 12.0114 866 64.0323 732.612 511.293
162 0 74.0813 12.4053 919 63.3395 731.742 510.889
163 0 77.0997 12.62 973 62.9044 731.942 511.539
164 0 78.0925 11.6016 906 64.4525 732.348 509.088
165 0 81.0802 11.7291 951 64.816 732.573 506.206
166 0 84.1932 13.0058 1095 63.3425 733.099 503.157
167 1 45.0118 10.1751 458 64.4629 733.079 525.4
168 0 45.0148 10.752 484 63.8264 733.345 525.076
169 0 47.0237 10.8031 508 64.3287 733.329 520.904
170 0 48.0403 13.9883 672 60.4702 732.756 522.323
171 0 50.037 10.5922 530 64.6434 732.379 520.374
172 0 48.0361 10.2423 492 65.9248 732.116 520.398
173 0 53.073 12.1342 644 63.0093 731.893 519.396
174 0 54.1093 11.2735 610 63.9984 732.249 520.334
175 0 54.0743 10.8369 586 64.6775 731.55 519.01
176 0 56.0261 11.6374 652 63.8022 730.735 518.305
177 0 58.0273 12.0288 698 63.3926 731.109 516.287
178 0 60.1597 11.3864 685 63.9562 731.152 514.546
179 0 63.0968 11.7122 739 62.8999 731.852 517.008
180 0 63.1116 11.9471 754 63.3064 731.276 514.851
181 0 66.0386 11.2359 742 63.6024 730.167 515.414
182 0 67.0628 12.6598 849 62.0966 730.554 514.114
183 0 68.057 10.9467 745 64.4899 729.76 512.842
184 0 71.1115 11.5874 824 63.9539 729.574 511.731
185 0 74.1533 12.11 898 62.8898 729.68 509.783
186 0 76.156 10.833 825 64.463 729.808 509.199
187 0 75.108 8.09501 608 67.523 729.516 506.326
188 1 39.0188 8.20118 320 64.05 730.116 527.388
189 0 41.0464 11.2799 463 60.4168 730.123 527.177
190 0 40.0415 7.54217 302 66.0232 729.159 524.735
191 0 41.1158 9.55837 393 64.14 728.517 526.812
192 0 45.0612 10.5412 475 61.8484 728.29 524.463
193 0 46.0433 9.64309 444 63.2162 727.885 526.169
194 0 48.0263 10.057 483 62.0538 727.992 525.625
195 0 49.1093 8.57272 421 64.0166 727.299 527.876
196 0 51.1872 10.8035 553 61.6275 728.036 526.02
197 0 52.0642 9.66115 503 63.3022 728.495 523.75
198 0 54.1017 9.38972 508 63.6988 728.14 524.502
199 0 55.1503 10.8794 600 62.3233 727.842 522.982
200 0 57.1464 9.86939 564 63.4539 727.514 521.77
201 0 58.1093 9.49934 552 63.5634 726.844 523.326
202 0 62.1187 13.12 815 59.4736 726.439 520.783
203 0 62.1687 11.5492 718 61.1964 727.148 522.831
204 0 65.0704 11.111 723 61.7026 727.116 523.328
205 0 65.1037 9.83046 640 63.85 726.539 519.722
206 0 69.1233 11.5446 798 61.3672 727.598 517.588
207 0 72.0948 10.292 742 63.004 727.86 517.999
208 0 72.0559 10.2421 738 63.6463 727.722 516.131
209 0 75.0883 11.5065 864 62.287 727.812 515.248
210 0 78.0572 12.3243 962 61.789 726.634 512.373
211 0 79.1157 9.88425 782 63.8018 727.29 515.903
212 1 40.0762 8.78327 352 64.1932 727.793 533.216
213 0 44.0223 10.4947 462 62.1623 726.963 532.288
214 0 45.0514 10.2771 463 63.1814 726.477 531.633
215 0 47.0349 13.0329 613 59.0555 726.546 533.052
216 0 50.0564 12.9854 650 59.2846 726.305 531.458
217 0 49.0929 10.4699 514 63.8249 725.399 528.885
218 0 50.0666 12.4035 621 60.9791 725.237 528.837
219 0 50.0815 11.3016 566 63.1625 725.11 528.145
220 0 53.0647 11.0997 589 63.0968 724.511 527.051
221 0 53.0976 12.1286 644 62.4503 725.189 526.443
222 0 55.0629 11.387 627 62.1962 725.389 528.384
223 0 57.0879 13.7683 786 59.855 725.914 523.954
224 0 58.1349 11.8001 686 62.5758 725.407 523.401
225 0 59.0531 11.786 696 62.1322 725.401 524.74
226 0 61.1 12.5041 764 60.8429 725.544 523.729
227 0 64.126 12.647 811 61.016 725.65 520.65
228 0 66.0552 11.4753 758 62.7348 725.759 519.339
229 0 67.0989 12.2804 824 61.8362 725.371 516.812
230 0 70.0426 12.2069 855 62.1743 725.275 517.23
231 0 71.0831 12.3939 881 62.067 724.041 513.473
232 0 74.1345 11.9108 883 62.0487 726.132 516.978
233 0 76.215 12.3335 940 62.2192 725.856 512.063
234 0 81.1206 13.6094 1104 60.4574 724.851 513.278
235 0 82.138 10.738 882 64.8084 725.045 512.707
236 0 85.1439 11.2163 955 64.3749 725.688 510.898
237 0 86.2491 11.3277 977 64.8506 725.192 506.414
238 1 44.0832 9.75428 430 66.186 725.714 528.03
239 0 47.0331 11.1836 526 64.2871 726.036 526.16
240 0 50.0792 11.4019 571 64.1208 725.657 525.434
241 0 50.0977 11.2979 566 65.4364 725.39 522.163
242 0 50.0425 10.4311 522 67.0843 726.605 523.613
243 0 51.0352 10.385 530 66.6811 726.219 522.289
244 0 54.0694 10.1906 551 67.3412 724.657 521.94
245 0 53.0689 10.4204 553 137.177 723.633 521.908
246 0 57.0635 10.4445 596 66.7148 725.57 519.156
247 0 58.0886 10.3635 602 66.3821 726.096 520.528
248 0 61.1058 11.6028 709 64.8082 725.859 518.252
249 0 62.149 10.8288 673 65.6909 726.52 518.407
250 0 63.1462 11.9564 755 65.2821 725.396 514.383
251 0 69.2374 11.41 790 64.319 726.114 518.433
252 0 68.1419 14.5725 993 61.1531 726.566 515.573
253 0 70.0779 11.9867 840 64.694 725.514 515.132
254 0 74.1994 11.0783 822 64.8625 727.281 518.236
255 0 74.1785 9.69283 719 67.9458 726.77 514.586
256 0 77.1417 10.202 787 67.5629 726.121 512.402
257 0 79.1268 10.0977 799 67.4518 727.134 512.103
258 0 83.1138 13.0063 1081 63.6531 726.701 511.277
259 0 87.1862 13.0869 1141 63.0219 726.053 511.513
260 1 47.0371 10.1835 479 65.1587 727.113 530.472
261 0 48.0771 11.5439 555 63.7369 727.286 529.508
262 0 49.0641 10.7207 526 65.1711 726.12 528.943
263 0 49.0268 10.5249 516 65.6415 726.347 529.488
264 0 52.0163 12.2462 637 63.6907 727.088 527.148
265 0 53.09 12.7708 678 63.1534 725.732 526.414
266 0 55.0742 11.2394 619 64.7044 724.997 526.677
267 0 54.0707 10.9486 592 65.7669 725.074 523.302
268 0 49.0508 8.56254 420 70.4548 725.402 522.855
269 0 51.1662 7.34861 376 70.9894 726.043 517.545
270 0 53.0482 8.16239 433 69.5866 725.139 514.697
271 0 61.1396 10.5496 645 65.6837 726.464 522.702
272 0 65.0966 12.7349 829 62.8661 725.464 520.503
273 0 68.0394 11.6109 790 63.8089 724.554 519.661
274 0 70.0846 11.5147 807 63.4634 725.131 518.133
275 0 73.1058 13.4189 981 60.6371 725.111 518.264
276 0 75.0897 11.3198 850 62.8471 725.935 516.086
277 0 77.0994 12.0105 926 62.0616 725.477 515.635
278 0 76.1511 10.1771 775 64.6594 725.293 513.294
279 0 81.1734 11.2229 911 63.0637 725.335 512.205
280 0 83.1272 10.4057 865 64.3988 724.565 508.405
281 0 87.273 12.1802 1063 61.6952 724.853 509.128
282 0 87.0772 10.5653 920 64.462 724.821 505.866
283 0 92.2305 11.8399 1092 62.413 724.764 508.16
284 0 94.2098 11.1453 1050 63.8676 724.492 502.613
285 0 97.3604 11.4523 1115 63.4233 724.367 502.436
286 1 50.2265 10.5124 528 63.0246 723.869 525.153
287 0 52.0774 9.67791 504 63.5794 724.157 526.373
288 0 54.0467 11.083 599 63.2888 723.624 524.544
289 0 56.0476 11.5259 646 62.7415 724.19 523.167
290 0 56.0552 10.5967 594 64.5303 723.987 523.249
291 0 57.0519 10.5518 602 64.5781 724.435 521.772
292 0 64.1136 12.3999 795 65.4088 724.211 461.599
293 0 66.1236 11.4634 758 66.7863 724.216 457.274
294 0 66.0885 10.7129 708 68.6497 724.244 455.469
295 0 69.0804 12.015 830 66.8036 723.914 449.996
296 0 70.0476 10.9069 764 69.2304 723.647 447.228
297 0 67.1058 10.4611 702 66.1738 724.09 515.725
298 0 75.0832 12.7192 955 62.2366 724.332 517.302
299 0 75.1263 11.1279 836 64.9342 724.013 517.781
300 0 78.0948 12.1647 950 64.2716 724.51 513.18
301 0 80.1197 11.4204 915 65.6011 724.398 511.365
302 0 85.1917 13.2407 1128 62.5266 723.025 512.507
303 0 85.1738 11.9403 1017 64.7561 722.98 510.747
304 0 88.1598 11.5018 1014 65.4892 723.495 507.919
305 0 91.2261 12.3539 1127 64.5661 723.416 504.748
306 1 50.096 11.478 575 62.5183 723.976 529.084
307 0 48.0419 9.63741 463 65.987 724.132 526.661
308 0 51.0599 10.6737 545 63.8972 724.822 527.712
309 0 52.1674 10.6388 555 64.1135 724.296 524.368
310 0 54.0475 10.2317 553 64.5588 724.859 526.07
311 0 58.0501 11.8691 689 62.2656 724.338 523.209
312 0 59.0574 12.2423 723 61.7912 723.657 522.373
313 0 57.0509 10.2014 582 65.2526 723.775 519.141
314 0 61.1001 11.8985 727 62.1142 724.23 521.619
315 0 63.1039 9.84091 621 64.7762 724.147 517.729
316 0 65.2356 10.9909 717 62.9526 723.987 519.771
317 0 67.1191 12.2618 823 61.4982 724.497 516.763
318 0 68.2384 11.0788 756 63.0119 724.169 516.337
319 0 70.0726 9.19047 644 64.7453 724.475 515.534
320 0 73.1374 10.8836 796 62.0704 723.541 514.372
321 0 77.1363 12.9381 998 59.7786 723.861 511.171
322 0 79.1465 11.2197 888 61.6453 724.445 510.738
323 0 83.1576 12.0975 1006 60.0815 724.243 510.586
324 0 85.2485 12.094 1031 60.2095 724.163 510.37
325 0 87.0859 13.0905 1140 59.2447 724.503 507.873
326 0 90.2688 11.5987 1047 61.1385 725.253 505.338
327 1 46.0263 10.9503 504 59.6171 725.016 528.224
328 0 46.0214 11.8858 547 59.0969 725.395 529.901
329 0 45.076 9.14012 412 62.9102 724.668 529.274
330 0 48.0834 12.1872 586 59.8754 724.693 526.561
331 0 48.0773 9.13113 439 63.6743 724.46 525.895
332 0 51.0814 11.1782 571 61.4431 723.643 527.48
333 0 53.0536 11.7429 623 60.4334 724.629 527.095
334 0 54.0836 10.7611 582 62.4433 724.668 523.05
335 0 54.1688 10.3011 558 63.7688 723.937 522.287
336 0 53.202 9.15378 487 65.9979 724.162 518.388
337 0 55.3172 8.6953 481 67.1871 724.077 517.865
338 1 24.0292 7.5325 181 66.8398 722.762 500.702
339 1 0 0 1.04732e-303 -nan 300 -0.0310026
340 0 0 0 0 -nan -nan -nan
341 0 0 0 0 -nan -nan -nan
342 0 0 0 0 -nan -nan -nan
343 1 44.2346 4.15964 184 74.2283 724.875 509.136
344 1 0 0 0 -nan -nan -nan
345 1 52.1622 3.60414 188 73.766 724.324 515.383
346 1 0 0 0 -nan -nan -nan
347 1 50.0866 1.65713 83 74.494 724.06 527.145
348 0 50.0859 3.25441 163 73 724.822 522.466
349 1 75.3083 8.19299 617 69.0081 723.198 498.618
350 0 76.155 4.84538 369 71.9052 723.645 491.304
351 1 29.0439 4.717 137 72.1314 725.182 520.73
352 0 36.2265 5.3828 195 69.0051 724.385 516.805
353 0 42.0476 6.18347 260 69.0462 724.915 519.592
354 0 43.0672 10.3791 447 65.5928 724.497 470.306
355 0 44.0395 7.99282 352 67.3892 725.008 520.102
356 0 43.0406 7.80658 336 67.6161 725.39 517.199
357 0 47.052 9.20258 433 65.3857 725.102 515.797
358 0 48.0556 8.15722 392 66.7526 725.296 515.357
359 0 43.0559 5.34189 230 69.5565 725.248 514.587
360 0 47.0748 7.32876 345 66.1739 724.861 512.026
361 1 60.0849 11.4172 686 63.9344 724.926 458.758
362 0 53.0403 7.74883 411 65.8467 724.482 508.163
363 0 58.0669 8.59353 499 65.0982 725.395 510.946
364 0 57.1072 3.86991 221 68.552 725.023 500.244
365 0 55.0671 8.22632 453 65.5121 725.097 503.464
366 0 63.1282 7.06498 446 66.4978 726.213 504.233
367 0 60.1265 4.80653 289 68.2318 725.422 499.093
368 0 56.1733 7.24543 407 66.258 725.811 497.373
369 1 70.2317 8.64282 607 65.112 725.768 502.135
370 0 72.2573 7.76392 561 65.5294 725.237 504.417
371 0 78.2236 9.44728 739 63.9148 724.954 504.852
372 0 76.1256 6.84395 521 66.5067 724.85 494.894
373 0 73.1769 4.94691 362 67.6906 724.124 485.215
374 1 127.452 7.95597 1014 70.0217 724.17 438.937
375 1 159.143 2.01706 321 77.2399 724.941 437.171
376 1 123.125 5.08426 626 70.5288 724.923 454.366
377 1 159.059 0.905327 144 80.0208 724.743 426.569
378 0 160.101 3.10429 497 72.171 724.996 479.217
379 0 156.143 1.21684 190 78.0895 724.768 451.421
380 1 136.296 1.57745 215 77.907 724.637 437.033
381 1 41.0958 5.49935 226 67.2257 724.42 512.385
382 0 42.1116 9.87852 416 64.0168 723.916 513.731
383 0 50.1898 10.1614 510 63.1098 723.99 514.157
384 0 42.0261 5.37761 226 68.8142 724.42 511.084
385 0 45.0963 4.14668 187 68.5936 723.487 506.888
386 0 47.0955 6.58237 310 66.1 724.594 506.835
387 1 26.0593 7.67481 200 64.9 724.27 497.335
388 1 176.133 2.79334 492 77.1138 724.632 404.49
389 1 127.176 6.93528 882 68.7256 724.16 434.697
390 0 132.192 4.68257 619 70.433 724.682 462.473
391 0 138.288 6.26951 867 68.8201 725.495 458.91
392 1 84.0564 6.92392 582 69.4656 724.756 435.423
393 1 146.162 7.88167 1152 66.987 724.398 440.221
394 0 147.196 4.74199 698 71.3324 724.15 439.245
395 0 154.276 6.82544 1053 69.0712 724.883 441.76
396 0 161.228 8.0817 1303 68.0836 724.976 448.521
397 1 136.243 9.24083 1259 67.7514 725.307 436.54
398 1 150.151 4.41554 663 73.6742 725.115 438.32
399 0 148.624 11.6603 1733 65.0929 725.175 431.078
400 0 153.476 10.2622 1575 66.9664 724.742 422.853
401 0 144.199 6.5881 950 68.8642 724.753 453.196
402 1 121.24 4.07456 494 73.3441 725.587 442.931
403 0 112.383 9.99261 1123 66.9662 725.598 441.474
404 1 145.325 4.69294 682 72.0117 725.757 455.654
405 1 106.408 6.08978 648 71.1636 725.951 446.716
406 0 108.27 5.9758 647 66.6368 725.091 469.992
