time division length width area intensity CMx CMy
0 0 53.0956 11.2627 598 82.0368 736.528 503.177
1 0 54.0434 12.3604 668 80.241 735.777 503.238
2 0 58.131 12.4202 722 79.2465 736.198 502.176
3 0 60.0739 13.6499 820 76.7951 736.08 503.132
4 0 62.1038 12.3825 769 78.9675 736.385 502.195
5 0 63.0429 12.1505 766 79.5444 736.603 502.623
6 0 66.0877 12.4078 820 78.8268 735.645 500.93
7 0 69.0911 13.8223 955 76.3927 735.408 498.312
8 0 68.1902 11.7026 798 80.1015 735.422 497.365
9 0 74.2272 12.4887 927 77.9288 735.297 497.024
10 0 77.1472 12.6382 975 77.2964 734.967 496.574
11 0 78.05 13.581 1060 76.567 735.176 494.131
12 1 41.0659 11.7129 481 76.9231 735.156 514.69
13 0 41.0584 10.1806 418 81.6675 734.79 512.541
14 0 42.0518 12.6511 532 77.3252 735.739 513.483
15 0 45.1146 12.9892 586 77.1263 735.067 510.3
16 0 47.0589 12.3887 583 77.47 734.532 511.4
17 0 50.2118 13.9808 702 73.6467 734.234 510.308
18 0 50.1082 13.5307 678 75.6578 734.146 507.981
19 0 52.0458 12.2777 639 77.4757 733.953 508.865
20 0 52.0427 12.8164 667 77.1724 733.912 506.441
21 0 56.1888 12.9563 728 75.9327 734.251 507.698
22 0 56.0817 13.0167 730 76.6164 733.938 506.056
23 0 57.0588 13.1443 750 76.164 734.236 505.881
24 0 59.0462 13.1592 777 76.1441 733.749 506.194
25 0 61.1669 12.6539 774 76.9173 733.656 503.757
26 0 63.0726 13.4765 850 75.7012 733.749 502.628
27 0 63.0736 12.7787 806 77.7878 733.7 500.701
28 0 69.0986 13.0683 903 75.8549 732.824 501.38
29 0 70.1831 13.0801 918 76.2026 733.098 500.293
30 0 72.1273 13.601 981 75.3191 733.714 499.678
31 0 72.2239 12.5305 905 77.9989 733.907 497.068
32 0 75.075 14.0659 1056 75.5568 733.415 496.235
33 0 78.0405 13.9799 1091 75.516 733.09 493.978
34 0 78.1448 13.4878 1054 76.999 732.538 495.653
35 1 40.0124 12.946 518 77.6776 732.736 513.469
36 0 40.0762 10.8294 434 81.6613 733.134 514.323
37 0 42.06 11.9353 502 80.6295 733.418 513.102
38 0 42.0253 11.6358 489 82.6483 733.217 510.691
39 0 44.0481 12.895 568 81.1391 733.389 508.887
40 0 47.0663 13.4704 634 79.0789 733.967 511.418
41 0 47.1667 13.8657 654 79.6483 733.304 508.706
42 0 49.124 13.3947 658 80.9058 734.058 507.843
43 0 49.054 12.0683 592 84.0828 733.549 508.385
44 0 50.0866 13.3169 667 82.3733 734.067 506.769
45 0 54.1389 14.3889 779 79.1926 733.956 507.012
46 0 53.073 13.4908 716 82.514 732.915 504.87
47 0 56.1687 13.5307 760 81.8763 733.432 503.655
48 0 57.0904 13.032 744 83.3952 733.411 502.038
49 0 60.2581 13.8073 832 81.8906 733.279 501.857
50 0 63.1161 13.9584 881 81.0953 733.9 501.881
51 0 64.1576 13.1551 844 82.8175 733.95 501.262
52 0 66.105 12.6919 839 84.1561 733.569 498.757
53 0 68.1063 13.6845 932 82.3916 733.548 498.567
54 0 71.164 14.9654 1065 79.4113 733.867 498.654
55 0 73.0535 14.8521 1085 79.2055 733.932 500.196
56 0 74.0647 14.4063 1067 81.5829 733.78 494.549
57 1 40.0628 12.2058 489 86.501 733.272 511.335
58 0 38.0671 11.2433 428 89.229 732.645 510.797
59 0 43.0702 12.6073 543 85.418 732.788 511.188
60 0 42.1215 11.3244 477 88.478 732.895 511.214
61 0 44.1937 12.8525 568 85.6637 733.074 510.829
62 0 45.0611 11.6065 523 88.4436 732.954 509.3
63 0 48.093 12.7669 614 85.5195 733.153 508.787
64 0 49.0264 13.2786 651 84.4685 733.244 508.831
65 0 52.1539 13 678 84.3953 732.366 508.426
66 0 52.1637 13.4001 699 84.8555 733.213 507.509
67 0 55.0851 15.4488 851 80.4078 733.126 506.831
68 0 55.12 13.389 738 84.7574 732.633 506.039
69 0 55.0711 12.62 695 86.8115 732.341 506.406
70 0 58.1313 14.02 815 83.8982 732.395 504.523
71 0 59.0964 13.1818 779 85.801 732.574 502.897
72 0 61.1219 13.6612 835 84.9784 732.649 502.493
73 0 64.1534 13.4677 864 84.3947 733.135 501.991
74 0 65.2058 12.6216 823 86.158 732.543 500.593
75 0 68.1269 13.8125 941 83.4814 733.083 500.06
76 0 68.1817 14.0947 961 83.769 733.228 499.873
77 0 72.1013 12.5379 904 85.5808 732.853 499.878
78 0 74.1622 13.2952 986 83.712 732.955 498.558
79 1 40.0597 11.9821 480 84.4604 733.327 512.877
80 0 39.1377 10.8847 426 87.2958 733.709 513.099
81 0 42.0706 11.5045 484 85.2397 733.7 511.837
82 0 41.0716 12.4417 511 84.9452 733.605 510.914
83 0 43.0584 12.4017 534 83.8333 733.257 511.878
84 0 45.1439 12.7813 577 82.8458 732.946 510.076
85 0 46.2009 11.6232 537 83.9441 732.674 510.365
86 0 46.1093 11.8848 548 85.2938 733.403 507.81
87 0 49.1144 11.5648 568 84.0299 732.894 508.493
88 0 51.1062 12.3273 630 82.7048 733.436 506.329
89 0 51.072 13.3733 683 81.6706 733.161 505.35
90 0 54.1 12.9575 701 81.3695 733.205 506.542
91 0 56.0722 13.1259 736 81.7731 733.428 504.838
92 0 57.1293 13.3732 764 81.1832 733.025 503.531
93 0 57.0936 12.5408 716 82.7779 733.242 504.254
94 0 59.0576 12.1068 715 83.0084 733.45 505.217
95 0 60.0821 12.2998 739 83.1719 733.478 503.968
96 0 61.0347 12.8779 786 82.4542 734.039 502.738
97 0 66.0776 15.2245 1006 77.0338 733.482 501.421
98 0 65.0841 13.229 861 81.6574 733.29 500.49
99 0 67.0714 13.344 895 81.2022 733.218 499.773
100 0 71.1006 12.7988 910 81.1813 733.545 498.923
101 0 71.1175 13.1472 935 81.0963 733.52 498.144
102 0 75.1088 13.6868 1028 79.3959 733.495 498.633
103 0 76.1183 13.5184 1029 80.1399 733.864 497.473
104 0 78.1051 13.4818 1053 80.3571 733.912 495.847
105 0 82.2003 13.5766 1116 79.4767 733.288 495.002
106 0 84.2082 14.5473 1225 78.2147 733.051 493.022
107 1 43.0587 10.4508 450 84.7911 734.431 512.098
108 0 45.0306 10.504 473 84.6258 733.516 510.793
109 0 48.0232 12.14 583 81.1132 733.576 510.163
110 0 50.1103 13.131 658 79.2295 733.02 508.964
111 0 51.0701 12.5318 640 80.1438 733.441 509.588
112 0 51.0919 12.2329 625 82.0208 733.469 508.278
113 0 53.0843 11.6419 618 82.5307 733.482 508.506
114 0 55.1131 12.556 692 80.8454 733.285 508.652
115 0 54.1011 12.7169 688 81.3794 733.564 507.99
116 0 58.0342 13.1302 762 80.2966 733.114 506.159
117 0 57.1804 13.0814 748 82.0374 733.304 503.925
118 0 60.0491 14.1551 850 79.7718 733.936 502.396
119 0 61.0661 14.5744 890 79.1663 733.458 502.274
120 0 62.148 12.969 806 81.8846 733.54 502.361
121 0 66.0418 14.082 930 79.3269 733.82 500.706
122 0 68.0499 13.9163 947 79.6093 733.615 499.769
123 0 67.083 13.2671 890 81.8135 732.38 498.996
124 0 72.0817 15.205 1096 77.0794 733.11 497.992
125 0 74.1432 14.1618 1050 78.401 733.031 497.784
126 0 75.0955 13.6892 1028 79.8376 732.989 496.475
127 0 77.105 13.3454 1029 80.2196 733.194 496.089
128 0 82.1123 14.5045 1191 77.3946 733.613 494.176
129 1 40.0222 10.5941 424 81.6368 733.493 514.193
130 0 41.0326 10.845 445 81.7888 733.162 513.391
131 0 44.0255 11.9703 527 78.2011 732.901 513.653
132 0 44.0659 12.8444 566 77.8145 733.297 512.991
133 0 46.0415 12.0109 553 79.7251 733.631 511.394
134 0 46.0209 11.6903 538 81.4071 734.009 511.589
135 0 46.0105 11.7799 542 81.2454 734.256 511.745
136 0 50.0178 13.0553 653 78.1378 734.436 509.734
137 0 51.0479 11.7732 601 81.1581 733.684 509.268
138 0 52.0553 14.5422 757 76.2127 733.494 507.329
139 0 52.0623 12.7155 662 79.9245 733.746 507.758
140 0 54.0231 12.291 664 79.8795 732.831 508.361
141 0 56.0242 12.5124 701 79.6534 732.994 507.114
142 0 57.0376 11.9044 679 81.3947 733.246 506.096
143 0 60.1072 13.6423 820 77.4476 732.523 505.394
144 0 60.0359 13.7251 824 77.9879 732.658 503.857
145 0 61.0567 13.5284 826 78.7349 733.201 503.074
146 0 64.0498 12.8338 822 78.9307 733.664 504.467
147 0 64.0872 13.5128 866 79.4388 733.364 500.935
148 0 67.0589 12.4368 834 80.06 733.642 503.624
149 0 69.0656 13.755 950 78.7095 733.312 499.866
150 0 70.0336 11.7229 821 82.6346 733.111 499.155
151 0 73.0844 13.0534 954 79.8417 732.548 498.26
152 1 39.0162 11.5081 449 80.294 732.909 516.501
153 0 41.0302 10.7725 442 81.9728 733.328 514.801
154 0 40.0594 11.6577 467 82.728 733.745 514.724
155 0 43.0213 12.2033 525 80.9657 733.143 513.185
156 0 44.0547 11.3722 501 82.9361 733.429 512.252
157 0 46.0669 12.1345 559 80.9481 733.254 512.281
158 0 46.0475 12.5522 578 80.5709 733.14 512.687
159 0 46.0327 11.557 532 83.7989 733.09 511.731
160 0 48.0836 13.1646 633 81.158 732.319 510.757
161 0 52.0688 13.7703 717 78.4672 732.555 509.011
162 0 49.0417 13.2336 649 82.0431 732.952 508.148
163 0 52.0627 12.8499 669 81.8027 732.91 508.19
164 0 56.0318 13.7065 768 79.043 733.113 507.53
165 0 56.0715 12.1987 684 82.7164 732.499 507.449
166 0 58.1025 13.0975 761 80.6491 732.328 505.398
167 0 58.0733 13.9651 811 80.0592 732.414 504.568
168 0 62.0614 15.2107 944 76.822 732.314 504.421
169 0 63.049 12.3396 778 82.5848 732.104 503.904
170 0 64.1018 13.8374 887 79.8523 732.352 504.561
171 0 68.0426 13.7267 934 79.5653 732.388 503.91
172 0 70.0292 13.1802 923 81.104 732.752 500.794
173 0 71.078 14.5615 1035 78.6338 732.18 500.252
174 0 73.0527 13.237 967 81.3878 732.093 499.522
175 1 37.0091 10.4839 388 86.9098 732.763 516.688
176 0 38.0137 12.627 480 83.9688 732.954 515.219
177 0 38.0239 11.1772 425 87.1506 732.873 514.791
178 0 41.1474 12.7104 523 83.9503 732.973 513.744
179 0 42.022 12.779 537 84.6853 733.318 513.074
180 0 46.0255 12.4931 575 83.2904 732.369 513.795
181 0 45.0332 12.7684 575 84.5948 731.35 512.061
182 0 45.0598 12.2282 551 86.2142 731.515 512.205
183 0 47.0158 12.868 605 84.8099 731.374 511.302
184 0 49.0214 12.8311 629 84.3975 731.486 510.051
185 0 52.0859 12.9018 672 83.9598 731.616 510.284
186 0 51.0309 13.2665 677 84.5554 731.733 508.758
187 0 52.031 11.8007 614 87.2394 731.62 509.006
188 0 55.0609 13.8574 763 82.8991 731.611 507.358
189 0 56.0413 13.615 763 84.3604 732.174 506.346
190 0 58.0445 13.0589 758 85.2744 732.161 503.954
191 0 59.0302 12.9425 764 86.212 732.395 504.865
192 0 60.0443 13.7732 827 84.5224 732.446 505.121
193 0 63.0367 12.2151 770 87.5273 732.464 503.758
194 0 66.0432 12.7341 841 85.9453 732.258 502.735
195 0 68.0931 14.7005 1001 82.2917 732.462 501.794
196 0 68.1178 13.1684 897 86.2475 732.721 502.234
197 0 71.0222 13.9815 993 84.6072 732.642 499.508
198 0 74.1165 13.128 973 85.668 732.969 499.543
199 0 76.0684 14.132 1075 84.4502 732.999 497.522
200 1 40.0499 11.5855 464 90.0819 732.694 515.043
201 0 41.0655 12.9549 532 87.6523 732.669 514.669
202 0 42.0596 11.341 477 91.6184 732.43 514.625
203 0 43.0911 11.8818 512 91.1797 732.564 513.146
204 0 47.032 14.841 698 83.3324 732.874 513.691
205 0 47.0726 13.5323 637 86.8179 731.901 512.945
206 0 49.028 12.6662 621 89.38 732.047 511.124
207 0 50.0364 14.0098 701 86.8859 732.545 511.619
208 0 51.0495 12.7915 653 87.5207 731.905 510.865
209 0 54.0506 14.8379 802 83.0012 732.145 508.93
210 0 55.0337 14.1368 778 84.581 731.692 508.806
211 0 55.015 13.6145 749 86.8318 732.338 508.216
212 0 56.0251 13.3869 750 87.488 731.851 507.583
213 0 58.0309 14.2855 829 86.0217 731.959 505.585
214 0 60.0218 13.9783 839 86.1967 731.905 506.678
215 0 63.0425 15.2437 961 83.692 731.884 504.701
216 0 64.0528 14.0821 902 86.4612 731.696 505.178
217 0 65.0428 14.206 924 87.3788 731.497 502.802
218 0 66.031 13.7814 910 88.3088 731.429 502.112
219 0 68.1147 13.1836 898 89.7751 731.984 502.335
220 0 71.073 13.9434 991 88.0918 731.536 500.341
221 0 74.059 13.9889 1036 87.0145 730.851 499.566
222 0 74.0286 13.2246 979 90.3636 731.249 499.528
223 1 40.0219 12.4182 497 92.2093 730.903 513.63
224 0 40.0481 12.9594 519 91.7553 730.946 513.227
225 0 41.0944 12.5321 515 93.4738 730.847 513.144
226 0 45.093 13.1728 594 90.1549 731.453 514.609
227 0 46.0261 12.5146 576 92.1181 731.184 514.054
228 0 45.0144 12.1517 547 93.9835 731.033 513.918
229 0 47.014 12.3155 579 94.247 731.416 513.522
230 0 50.044 14.0476 703 89.808 731.521 511.438
231 0 49.0802 13.5289 664 93.1084 731.761 511.036
232 0 52.0147 15.188 790 87.9405 731.739 511.182
233 0 51.0797 13.5279 691 93.5398 731.373 509.531
234 0 54.0538 12.4875 675 95.3215 731.24 508.259
235 0 56.1129 14.1857 796 90.9108 731.874 508.42
236 0 58.0672 13.226 768 92.7578 731.206 507.797
237 0 58.0324 13.6131 790 93.4506 731.881 506.401
238 0 59.0511 13.1581 777 94.5714 731.512 506.309
239 0 61.1308 13.0867 800 94.9375 731.84 505.51
240 0 61.0977 14.0758 860 94.2349 732.129 502.842
241 0 63.0359 12.9767 818 96.6345 732.072 502.207
242 0 64.0647 13.7361 880 94.4693 731.548 502.584
243 0 66.0241 14.2675 942 93.3355 731.188 502.035
244 0 68.0663 14.0157 954 94.3176 731.397 501.509
245 0 71.1535 13.8292 984 94.4492 731.847 500.561
246 0 72.0443 13.6444 983 95.2136 731.657 498.909
247 0 74.0337 13.9531 1033 94.0397 731.504 499.955
248 0 77.1639 14.5794 1125 93.2062 731.135 496.413
249 0 77.0554 14.0678 1084 95.3625 731.253 494.81
250 0 81.173 14.4876 1176 93.7662 731.014 493.685
251 1 42.039 12.4408 523 98.1568 731.128 511.518
252 0 42.0213 11.8987 500 100.756 731.744 513.512
253 0 48.0184 13.12 630 94.627 732.025 513.614
254 0 48.0332 12.3456 593 97.6678 731.531 512.41
255 0 51.0402 12.833 655 95.1756 731.771 512.301
256 0 50.0326 13.6711 684 95.7018 731.73 510.105
257 0 50.0443 14.2274 712 94.7992 731.506 509.479
258 0 53.0702 14.6033 775 92.8594 731.657 509.01
259 0 52.0153 13.3807 696 96.5517 732.174 509.28
260 0 56.0369 13.4554 754 95.0225 732.271 507.708
261 0 58.0413 13.7833 800 93.5725 732.102 506.529
262 0 58.0186 14.0645 816 93.777 732.274 505.384
263 0 61.0428 14.2687 871 91.5201 732.284 505.475
264 0 63.0462 12.8636 811 94.3181 732.243 505.308
265 0 63.1006 12.7733 806 95.1365 732.005 503.357
266 0 65.0314 13.4704 876 93.831 732.837 502.984
267 0 68.0403 12.8159 872 93.8142 732.197 503.49
268 0 68.0402 13.8888 945 92.4984 731.626 500.524
269 0 72.1154 14.144 1020 91.1274 732.319 499.515
270 1 34.0318 11.0191 375 96.9653 731.875 518.197
271 0 36.1055 11.8542 428 95.7033 731.706 517.262
272 0 38.0406 12.7758 486 91.6255 731.811 517.167
273 0 39.0186 13.4551 525 91 731.821 515.985
274 0 40.0273 13.3159 533 91.4503 732.557 515.266
275 0 43.0724 13.5586 584 89.2551 731.889 515.786
276 0 44.0321 13.4674 593 89.6307 732.108 513.811
277 0 44.0236 12.7659 562 92.0569 731.852 513.635
278 0 43.0795 12.4189 535 94.3009 731.628 512.045
279 0 47.0849 13.9323 656 88.0198 731.358 511.904
280 0 47.1212 13.3698 630 90.6603 731.321 512.103
281 0 46.0714 12.6326 582 93.1478 731.191 511.751
282 0 50.0245 14.4329 722 88.1759 731.346 510.686
283 0 50.0975 13.853 694 89.8574 731.872 510.125
284 0 52.0392 13.2592 690 91.2275 731.661 508.988
285 0 53.1284 13.4203 713 90.4446 731.372 509.105
286 0 56.0243 14.1189 791 87.6485 731.11 508.954
287 0 54.0288 12.6414 683 92.713 731.571 507.312
288 0 58.0237 14.8043 859 87.3481 732.065 505.868
289 0 59.1135 13.8547 819 89.453 732.33 505.965
290 0 61.0689 14.8521 907 86.9283 731.849 503.985
291 0 63.0262 13.6134 858 89.4545 732.612 505.434
292 0 68.0579 14.1644 964 86.2614 732.277 506.108
293 0 67.02 14.0704 943 88.2662 732.023 502.288
294 0 71.0705 14.1972 1009 86.3429 732.901 502.997
295 1 35.0397 12.072 423 92.3522 732.199 518.085
296 0 36.0387 12.0704 435 91.4069 732.342 518.853
297 0 38.0138 13.6266 518 88.8649 732.624 516.938
298 0 38.0128 12.7062 483 91.6253 732.298 516.306
299 0 40.0554 12.6575 507 91.3156 732.049 514.31
300 0 41.0401 13.0604 536 90.2705 731.478 514.282
301 0 42.014 13.6145 572 88.9336 732.14 513.579
302 0 43.0195 14.2493 613 88.0555 731.884 513.031
303 0 46.0551 13.4187 618 88.1165 732.081 513.892
304 0 46.0681 13.1978 608 89.551 732.021 512.301
305 0 45.0208 12.6608 570 92.2579 731.302 511.202
306 0 49.0495 13.3538 655 88.8275 730.998 511.298
307 0 48.024 13.4516 646 89.7833 731.31 510.913
308 0 50.0477 13.0475 653 89.7672 730.985 510.499
309 0 52.0918 14.1289 736 87.3451 730.999 509.837
310 0 54.0371 13.8979 751 87.8003 731.225 508.907
311 0 54.0386 12.7872 691 90.3994 730.755 509.009
312 0 56.0894 13.8351 776 88.5606 731.237 506.755
313 0 59.0898 14.3172 846 86.5449 731.294 506.33
314 0 60.0356 13.9917 840 87.1869 731.129 506.964
315 0 62.0713 14.9344 927 85.1456 731.093 503.956
316 0 64.0924 14.4791 928 87.0269 730.758 504.342
317 0 65.0655 14.2164 925 87.853 731.012 502.319
318 0 70.0299 14.1939 994 86.7616 730.668 501.238
319 1 34.0213 11.7867 401 91.601 730.167 518.127
320 0 37.055 11.7933 437 92.1693 730.062 514.995
321 0 38.0302 12.0168 457 91.1116 730.398 515.7
322 0 37.0198 13.8034 511 90.3581 731.125 514.652
323 0 40.0244 13.9415 558 89.8961 731.165 514.165
324 0 41.0185 12.7016 521 92.286 730.582 514.392
325 0 42.0455 13.4378 565 90.4796 730.95 513.03
326 0 43.0169 14.7151 633 88.6777 730.829 510.859
327 0 45.0724 14.0219 632 89.9905 731.207 511.25
328 0 46.0288 13.296 612 91.5784 731.008 510.75
329 0 47.0909 14.1216 665 90.3865 731.122 511.332
330 0 48.0372 12.5111 601 93.0482 731.443 511.877
331 0 50.0344 13.2709 664 91.4187 732.008 510.896
332 0 51.0343 14.6568 748 88.4572 731.602 510.594
333 0 52.1082 13.5871 708 90.9124 731.685 508.511
334 0 55.0794 15.7954 870 84.9207 731.483 509.792
335 0 55.0554 14.3855 792 88.7008 731.582 508.845
336 0 56.1002 14.0106 786 89.2583 731.623 509.344
337 0 57.0668 13.1951 753 92.2351 731.948 507.815
338 0 59.0329 14.8222 875 88.1383 731.696 507.161
339 0 59.0987 13.469 796 91.6357 731.188 506.448
340 0 61.0755 14.3429 876 89.0559 731.168 506.283
341 0 64.07 14.2969 916 88.8384 731.515 504.235
342 0 66.0521 14.2312 940 89.1 731.495 503.895
343 0 68.0194 14.2165 967 89.0207 731.595 502.112
344 0 68.1269 13.1372 895 91.3229 731.792 502.356
345 0 71.092 13.0113 925 91.9989 731.683 500.606
346 0 74.0589 14.1239 1046 89.2189 731.622 499.529
347 0 75.2247 13.4929 1015 90.7025 730.962 499.221
348 1 38.0339 12.3574 470 94.2064 731.113 515.985
349 0 39.0364 12.7317 497 93.2676 730.612 514.879
350 0 39.0734 12.4637 487 95.6632 730.899 513.366
351 0 43.1097 15.0546 649 88.2265 730.658 514.302
352 0 45.0651 14.3348 646 88.9551 730.689 514.141
353 0 43.0796 13.3242 574 93.4199 730.864 513.807
354 0 45.1112 13.3891 604 93.25 731.04 511.816
355 0 47.1318 13.9821 659 91.8907 731.469 511.399
356 0 49.0378 14.5602 714 89.8796 731.594 510.633
357 0 50.0205 14.2342 712 90.2317 731.177 510.205
358 0 51.0396 14.7141 751 89.0133 729.674 507.893
359 0 54.0905 15.4001 833 86.4022 730.371 509.164
360 0 54.0865 15.4752 837 87.3967 730.104 508.308
361 0 56.0858 14.9057 836 88.6531 731.077 506.523
362 0 57.094 14.2747 815 90.2478 731.491 506.334
363 0 58.0577 14.1411 821 90.2607 731.734 506.325
364 0 60.1598 14.3451 863 90.2665 731.67 504.725
365 0 62.0393 13.8138 857 91.266 731.281 504.547
366 0 65.065 15.3539 999 86.974 731.494 504.649
367 0 66.0845 14.6025 965 89.7637 731.32 502.781
368 0 68.0459 13.873 944 91.375 731.618 502.023
369 0 70.0808 13.7555 964 91.2095 731.441 502.538
370 1 35.053 12.3813 434 95.6613 731.316 516.44
371 0 37.0104 13.888 514 93.7082 730.823 515.084
372 0 39.0321 14.2447 556 92.5881 730.266 512.896
373 0 40.0399 13.3867 536 95.222 730.325 512.724
374 0 42.0209 14.5166 610 92.318 730.938 511.444
375 0 42.0289 13.229 556 96.4317 731.083 511.189
376 0 42.1575 13.2835 560 96.0214 732.02 514.586
377 0 45.063 13.1815 594 95.5438 732.104 513.657
378 0 45.065 14.0908 635 95.3685 731.998 511.654
379 0 46.1348 13.7423 634 95.6688 731.339 511.91
380 0 48.117 14.1738 682 94.3636 731.199 510.746
381 0 50.0689 14.0007 701 93.99 731.962 510.034
382 0 52.0796 16.2252 845 89.3562 731.189 510.262
383 0 53.148 15.5039 824 90.8386 731.095 509.598
384 0 53.043 13.8755 736 94.8003 731.549 507.329
385 0 57.0247 15.011 856 91.0935 731.864 507.815
386 0 57.0866 14.0488 802 93.9526 731.646 505.751
387 0 59.087 14.284 844 93.6197 731.994 505.168
388 0 61.0623 14.1659 865 93.3399 731.284 505.24
389 0 63.1322 13.6064 859 94.2189 731.917 504.66
390 0 65.0774 15.5507 1012 90.6255 731.753 502.441
391 0 67.1023 14.4853 972 93.5051 732.071 501.451
392 0 69.133 14.6674 1014 93.0069 731.672 501.972
393 0 72.102 14.951 1078 92.0751 731.512 499.55
394 0 73.0591 14.673 1072 92.3414 731.534 501.007
395 0 77.0409 14.7454 1136 91.7896 731.505 498.766
396 0 79.105 14.5629 1152 91.9227 731.608 499.291
397 0 80.048 14.2415 1140 93.0939 731.575 497.135
398 1 41.0271 14.8195 608 93.1891 731.456 514.704
399 0 43.1193 13.2887 573 94.5166 730.73 513.679
400 0 45.0936 13.9709 630 91.0683 731.189 514.119
401 0 45.0374 14.3436 646 92.0557 731.755 514.201
402 0 48.0615 13.566 652 92.316 731.673 514.14
403 0 47.0914 14.0578 662 94.3006 731.68 511.384
404 0 48.0738 13.7289 660 94.2758 731.341 511.888
