time division length width area intensity CMx CMy
0 0 57.0362 15.1483 864 55.6528 953.382 503.369
1 0 60.0452 13.9728 839 56.7259 953.123 503.928
2 0 59.0609 13.7824 814 57.9447 952.797 500.971
3 0 62.0711 13.114 814 57.9533 953.156 502.225
4 0 63.0388 14.7528 930 56.3398 952.592 498.323
5 0 66.0503 13.8228 913 56.8499 952.46 501.619
6 0 70.1319 15.0431 1055 55.6047 952.416 500.184
7 0 69.0963 14.7041 1016 57.0167 952.053 497.591
8 0 70.0465 13.7908 966 58.8375 952.595 495.595
9 1 38.0428 10.9088 415 58.5084 952.2 513.788
10 0 39.1049 11.4564 448 56.7366 951.949 516.603
11 0 40.0692 10.8313 434 58.2696 952.373 514.219
12 0 39.0197 11.7633 459 58.159 952.471 514.224
13 0 41.0487 10.6703 438 60.2922 952.356 512.769
14 0 43.0412 12.9178 556 56.9173 951.822 514.12
15 0 43.0573 12.3788 533 59.3827 952.632 509.454
16 0 47.1141 13.0959 617 57.5008 952.075 511.446
17 0 45.0193 11.0619 498 61.0221 952.436 512.072
18 0 47.0345 12.2888 578 58.7111 951.696 512.116
19 0 47.0797 11.2575 530 60.0717 951.957 511.125
20 0 49.0242 13.014 638 58.7884 952.243 510.198
21 0 50.0361 11.8314 592 60.0422 952.044 508.502
22 0 54.0903 13.1817 713 57.3282 951.414 508.648
23 0 53.0961 11.0554 587 60.2436 950.644 508.719
24 0 56.0706 14.2856 801 56.8215 951.694 506.958
25 0 55.0558 13.0413 718 59.454 950.962 503.734
26 0 57.0339 13.9391 795 58.4402 951.158 503.147
27 0 57.0387 12.3776 706 60.7918 952.336 502.405
28 0 60.0581 12.6045 757 60.5139 951.683 502.523
29 0 61.0403 12.7293 777 59.8726 951.647 504.458
30 0 63.0898 11.6818 737 61.118 952.109 504.634
31 0 65.1131 11.4877 748 62.0013 952.135 501.106
32 0 67.0564 11.6767 783 62.0856 952.517 499.349
33 0 68.0753 12.4715 849 62.0989 952.115 497.888
34 0 71.0675 12.664 900 61.4222 952.511 499.793
35 0 72.0435 13.4641 970 61.2608 952.358 496.324
36 0 74.1698 14.1297 1048 60.9198 953.419 494.791
37 0 78.103 13.1365 1026 61.7719 952.85 495.601
38 0 79.2142 12.1064 959 63.0104 952.084 496.683
39 0 80.0653 12.24 980 63.3918 952.149 493.55
40 0 80.1124 12.3327 988 63.9646 953.122 491.695
41 0 85.1023 12.9139 1099 62.6142 952.316 493.186
42 0 87.1642 12.6313 1101 63.1662 953.283 493.188
43 0 89.0325 12.6471 1126 63.3446 952.694 492.372
44 0 90.065 11.7138 1055 64.7763 953.392 491.982
45 1 49.0168 10.425 511 63.9158 952.765 510.317
46 0 49.1792 11.0006 541 64.6747 953.59 507.843
47 0 53.1374 12.3077 654 62.6621 955.095 509.408
48 1 98.2212 10.6698 1048 66.8406 953.888 488.21
49 0 105.137 13.2018 1388 64.5151 954.107 484.667
50 0 106.093 15.1188 1604 63.2413 954.191 481.983
51 0 109.236 12.7156 1389 65.7257 954.429 481.265
52 0 113.161 12.7782 1446 65.11 953.974 482.75
53 0 116.163 12.6977 1475 66.72 954.527 476.605
54 0 120.115 13.1374 1578 65.8302 954.682 477.771
55 0 123.241 12.7798 1575 67.334 954.328 474.839
56 0 128.159 13.8344 1773 66.3339 954.029 473.591
57 0 132.215 13.3419 1764 67.8322 954.878 471.214
58 0 135.151 13.459 1819 68.47 955.322 467.931
59 0 138.198 13.3938 1851 69.0065 954.644 465.423
60 0 142.289 14.2246 2024 68.79 955.019 465.927
61 1 79.1015 14.02 1109 66.7313 954.388 498.352
62 0 80.173 13.2713 1064 68.9361 954.166 495.564
63 0 80.1243 13.5789 1088 69.3079 954.748 496.229
64 0 79.0757 10.041 794 72.2821 954.189 498.936
65 0 86.1295 12.1677 1048 72.2901 954.199 493.716
66 0 89.12 13.1845 1175 73.0715 954.533 489.046
67 1 171.105 13.4829 2307 73.7052 954.551 452.503
68 0 176.222 14.1072 2486 73.5978 953.844 451.758
69 0 180.22 13.4669 2427 75.9831 953.932 447.04
70 0 185.256 14.1264 2617 74.6076 953.567 448.977
71 0 189.18 13.5162 2557 75.5495 953.791 448.846
72 0 193.281 12.2464 2367 77.6438 953.436 448.775
73 1 154.211 12.3532 1905 77.2898 952.691 465.758
74 0 162.206 14.6974 2384 74.8888 952.768 457.406
75 0 161.204 12.2019 1967 79.0519 953.121 458.665
76 0 168.131 13.5787 2283 77.3254 953.737 454.456
77 0 175.202 15.0798 2642 75.4568 953.832 450.967
78 0 179.175 14.2152 2547 76.5045 953.903 450.368
79 0 185.113 13.1271 2430 78.8247 953.633 446.519
80 0 190.273 13.118 2496 78.8057 953.303 446.686
81 0 198.151 14.2821 2830 78.3618 954.125 438.386
82 0 206.297 14.8282 3059 76.9987 954.214 439.07
83 0 210.24 14.6927 3089 78.3108 953.7 434.684
84 0 214.275 12.9833 2782 81.4001 953.976 435.367
85 0 224.353 15.1859 3407 78.7173 954.404 429.662
86 0 228.46 13.7311 3137 81.1951 954.406 426.052
87 0 237.303 14.9345 3544 79.0482 954.54 425.569
88 1 166.164 13.2399 2200 81.9223 954.59 452.627
89 0 173.167 14.6217 2532 78.9064 955.088 451.012
90 0 177.294 14.0501 2491 79.7202 953.719 449.209
91 0 182.13 13.0127 2370 81.9089 954.274 447.431
92 1 141.185 14.2791 2016 79.0119 954.773 463.746
93 0 145.188 13.5893 1973 79.9138 954.553 463.261
94 0 150.252 13.8301 2078 79.1434 955.006 463.172
95 0 154.152 13.7656 2122 79.6423 954.879 459.598
96 0 160.156 14.1986 2274 78.7713 953.998 458.036
97 0 165.293 14.0841 2328 79.6757 954.61 453.838
98 0 170.246 13.9915 2382 79.9051 955.079 454.157
99 0 175.394 15.3026 2684 78.5306 954.353 448.781
100 0 182.275 14.127 2575 80.2478 954.058 447.393
101 0 189.243 14.3467 2715 80.0751 954.666 445.842
102 0 193.315 13.5892 2627 81.2375 954.495 444.062
103 0 199.25 16.1054 3209 78.1985 955.016 436.862
104 0 205.383 15.1181 3105 80.1994 955.142 432.97
105 0 211.218 13.853 2926 82.4778 954.273 432.733
106 0 216.256 14.5014 3136 81.6371 954.643 433.21
107 0 222.416 13.2095 2938 84.6385 954.719 426.866
108 0 227.322 14.0505 3194 83.8338 954.527 423.518
109 0 234.359 14.1493 3316 83.0947 954.899 425.16
110 0 239.349 14.3598 3437 83.918 953.26 416.121
111 0 248.235 14.6071 3626 83.3784 953.003 416.808
112 1 207.181 13.1286 2720 85.4996 953.492 434.058
113 0 213.407 13.6078 2904 84.6133 954.098 429.296
114 0 220.226 13.2183 2911 85.2597 953.699 427.436
115 1 176.238 14.4975 2555 81.1092 954.032 449.723
116 0 179.167 14.6958 2633 80.7546 953.755 449.31
117 0 186.209 14.9885 2791 80.1082 954.505 445.377
118 1 140.145 13.7928 1933 81.1004 954.938 463.445
119 0 143.185 14.5616 2085 80.8686 955.256 462.605
120 0 148.094 13.2348 1960 81.8326 954.802 462.865
121 0 152.315 14.4503 2201 79.9191 954.603 459.952
122 0 154.229 13.8106 2130 81.3723 955.154 456.909
123 0 159.215 13.2902 2116 81.6541 954.765 458.307
124 0 165.234 14.0649 2324 80.534 955.084 455.35
125 0 170.181 14.8254 2523 80.3646 953.959 449.355
126 0 175.32 13.6664 2396 82.0459 953.766 450.465
127 0 179.242 13.1442 2356 83.2211 953.712 445.798
128 0 185.214 12.3641 2290 84.0576 954.332 445.568
129 0 194.339 15.828 3076 80.6164 955.311 438.005
130 0 199.238 14.3949 2868 82.1112 954.097 438.717
131 0 205.216 14.1802 2910 83.0567 953.761 436.504
132 0 211.272 15.0612 3182 81.9918 954.224 432.808
133 0 216.21 14.7819 3196 83.4978 954.935 430.763
134 0 221.229 14.0398 3106 85.6204 954.411 425.484
135 1 182.246 14.5792 2657 83.3572 954.198 449.349
136 0 184.247 14.106 2599 85.905 954.701 446.022
137 0 189.14 14.4602 2735 85.4921 954.631 444.5
138 0 193.199 14.8966 2878 85.4329 954.518 440.756
139 0 198.164 14.9876 2970 85.7673 954.166 438.305
140 0 204.219 13.7548 2809 88.0192 955.239 437.135
141 0 210.217 14.8942 3131 86.5822 955.006 434.029
142 0 216.354 15.2897 3308 85.0632 955.255 434.644
143 0 224.277 16.2255 3639 84.1374 954.051 426.76
144 0 230.247 15.8873 3658 85.0139 953.634 424.659
145 0 236.342 15.7314 3718 85.4349 954.685 421.053
146 1 187.428 14.635 2743 86.4214 954.099 444.501
147 0 191.259 14.2895 2733 88.0106 953.772 442.608
148 0 197.305 14.4446 2850 87.3796 953.672 442.295
149 0 202.391 14.0125 2836 88.2288 953.508 439.094
150 0 208.389 13.8683 2890 89.0055 953.545 438.516
151 0 215.397 15.7755 3398 85.545 954.523 439.091
152 0 219.242 14.4179 3161 88.9168 953.824 431.969
153 0 226.31 14.6834 3323 89.6256 953.441 427.581
154 0 232.343 16.2002 3764 86.5109 953.926 427.315
155 0 239.344 15.6678 3750 87.9789 954.21 419.596
156 0 245.259 15.5183 3806 89.145 955.032 417.28
157 0 252.587 16.6437 4204 87.1275 954.621 413.502
158 0 259.387 16.1535 4190 87.5955 954.55 414.407
159 0 267.319 17.0807 4566 87.141 954.375 410.171
160 0 272.554 15.9858 4357 89.594 955.426 405.526
161 0 278.341 17.0439 4744 88.4157 955.374 406.817
162 0 284.564 16.5622 4713 90.0435 954.848 400.288
163 0 290.496 15.2705 4436 92.5555 954.822 402.66
164 0 295.425 15.8111 4671 91.9617 955.386 400.726
165 0 302.493 15.5343 4699 92.9025 955.116 397.125
166 0 308.562 16.2496 5014 92.9918 955.698 388.127
167 0 317.489 15.3013 4858 94.2077 955.796 390.274
168 1 229.204 15.2789 3502 96.1405 955.978 423.573
169 0 236.386 16.4773 3895 93.963 955.488 423.522
170 0 239.396 14.7663 3535 97.0458 954.779 426.462
171 0 246.268 14.7319 3628 97.3137 954.998 420.596
172 0 254.492 16.3031 4149 94.6353 954.674 416.041
173 0 263.413 15.8497 4175 95.4129 955.425 416.236
174 1 215.252 16.6827 3591 96.0643 955.051 432.281
175 0 221.393 16.2155 3590 96.1699 954.849 433.95
176 0 226.257 14.1963 3212 99.4004 953.548 434.802
177 0 232.485 14.7192 3422 99.4661 953.529 430.335
178 0 240.297 16.6128 3992 96.5649 953.942 423.581
179 0 247.265 17.2245 4259 95.3923 954.761 423.015
180 0 253.255 16.4261 4160 97.2618 954.259 416.649
181 0 261.387 15.7697 4122 99.1521 953.532 413.318
182 0 267.33 16.5638 4428 98.0558 953.418 409.232
183 0 272.198 15.9296 4336 100.575 952.254 407.306
184 0 284.535 16.3706 4658 99.1576 952.021 406.087
185 0 290.463 15.5028 4503 101.298 951.71 400.29
186 0 299.314 16.9989 5088 99.2561 952.106 394.711
187 0 307.354 16.8372 5175 98.9573 951.881 396.521
188 1 273.46 14.7846 4043 104.396 951.664 415.297
189 0 279.446 14.6111 4083 104.473 951.732 415.408
190 0 288.401 16.2448 4685 102.784 951.132 400.866
191 1 258.323 16.1232 4165 104.164 950.211 413.897
192 0 264.48 17.6573 4670 100.475 950.114 419.379
193 0 270.422 16.2746 4401 104.414 951.048 412.974
194 0 277.321 16.1113 4468 104.388 950.24 413
195 1 237.388 16.0412 3808 107.223 950.065 426.629
196 0 242.322 15.8384 3838 107.567 950.423 425.779
197 0 250.366 17.3826 4352 103.665 950.579 422.275
198 0 257.275 16.7175 4301 105.999 950.202 416.857
199 0 264.342 16.7094 4417 106.263 950.233 412.843
200 0 271.35 16.7791 4553 105.79 950.55 408.705
201 0 278.698 16.8856 4706 105.248 949.944 412.008
202 0 286.313 16.0349 4591 106.738 949.437 407.581
203 0 294.29 16.2085 4770 105.785 949.521 402.546
204 0 304.286 15.9488 4853 106.545 950.006 401.537
205 0 313.521 16.6592 5223 104.977 949.685 392.781
206 0 315.453 13.9038 4386 106.055 949.907 422.9
207 1 269.352 16.5434 4456 106.589 950.21 417.744
208 0 278.598 15.8365 4412 106.928 950.397 419.517
209 0 288.395 15.9573 4602 106.588 950.714 411.374
210 1 229.429 16.7546 3844 107.399 949.794 436.353
211 0 234.675 15.7068 3686 108.606 949.944 436.89
212 0 243.215 17.0467 4146 106.109 949.557 429.68
213 0 250.315 16.5312 4138 107.455 949.196 423.344
214 0 257.273 16.4961 4244 106.709 948.952 426.723
215 0 265.367 17.9148 4754 104.544 948.486 421.294
216 0 274.357 16.854 4624 106.589 948.133 415.68
217 1 239.315 16.4888 3946 109.237 948.022 431.227
218 0 246.541 16.0176 3949 110.314 947.098 425.066
219 0 254.226 16.3752 4163 107.683 948.023 427.829
220 0 262.463 16.5242 4337 108.361 948.118 418.335
221 0 269.282 17.7101 4769 105.576 948.25 415.429
222 0 277.497 17.6614 4901 105.618 948.483 409.262
223 0 283.439 16.7585 4750 107.975 948.867 407.641
224 0 289.545 17.4446 5051 105.749 947.949 409.093
225 0 296.581 17.3342 5141 106.895 948.367 402.77
226 0 303.316 17.7142 5373 105.185 948.288 399.455
227 0 313.528 17.7975 5580 104.202 948.094 397.28
228 0 321.486 17.136 5509 106.265 948.606 387.952
229 0 332.483 19.1318 6361 100.841 948.533 384.833
230 0 342.55 18.5462 6353 101.298 948.573 380.197
231 0 352.407 17.4117 6136 103.055 948.454 372.696
232 1 366.429 24.0947 8829 89.1723 949.072 354.536
233 1 260.475 15.7597 4105 108.671 948.75 420.811
234 0 268.452 16.8298 4518 106.251 947.785 416.391
235 0 275.584 16.6664 4593 106.617 947.526 412.193
236 0 283.273 15.8575 4492 108.072 948.12 408.25
237 0 290.264 15.1758 4405 108.768 948.121 403.406
238 1 325.412 12.5472 4083 108.24 948.197 419.419
239 0 324.439 14.5513 4721 106.286 948.775 402.561
240 0 323.341 17.3223 5601 103.237 948.291 386.598
241 0 333.718 15.7828 5267 105.361 947.999 382.978
242 0 346.592 17.9346 6216 100.48 948.74 378.523
243 1 213.462 16.2418 3467 110.355 949.215 435.032
244 0 221.298 16.8416 3727 108.869 947.761 433.317
245 0 220.432 15.0886 3326 112.749 948.389 439.284
246 1 233.446 16.7319 3906 109.436 948.415 431.674
247 0 237.404 16.6088 3943 110.514 948.194 429.285
248 0 246.535 16.8009 4142 109.723 948.308 424.857
249 0 253.306 16.8295 4263 109.142 949.38 425.204
250 0 262.358 16.8053 4409 109.206 948.618 416.937
251 0 271.535 17.773 4826 106.225 949.236 417.274
252 0 277.264 17.9179 4968 106.241 949.724 408.84
253 0 289.542 17.355 5025 106.808 949.148 409.079
254 0 297.486 17.8429 5308 106.094 949.822 402.717
255 0 307.416 18.5416 5700 104.187 949.808 395.956
256 0 317.487 17.7046 5621 106.009 949.435 393.953
257 0 327.504 17.444 5713 106.163 949.769 385.335
258 1 339.517 17.3187 5880 105.73 949.701 383.156
259 1 218.357 15.9326 3479 110.492 948.165 444.272
260 0 223.294 15.8849 3547 111.944 949.476 438.379
261 0 233.513 15.7679 3682 109.917 949.765 438.569
262 0 238.428 14.9647 3568 111.619 949.061 434.224
263 0 246.32 15.9386 3926 109.669 949.391 430.827
264 0 254.336 16.3681 4163 108.739 948.892 428.151
265 0 262.436 15.8858 4169 109.497 948.949 423.212
266 0 270.535 15.3289 4147 109.438 948.346 418.11
267 0 278.609 15.4984 4318 107.904 948.154 419.504
268 0 286.365 14.5548 4168 110.462 948.85 411.112
269 1 349.419 10.0195 3501 111.757 949.166 432.141
270 1 246.603 15.7095 3874 107.744 947.887 427.944
271 1 184.312 16.5426 3049 107.752 948.706 456.696
272 0 188.319 16.3233 3074 108.897 948.701 453.852
273 0 193.3 16.9271 3272 106.883 948.009 453.198
274 0 199.438 16.5766 3306 106.577 947.624 451.023
275 0 204.248 16.2156 3312 107.28 947.938 445.136
276 0 210.321 16.2894 3426 106.367 948.625 444.377
277 0 216.245 16.338 3533 106.194 948.045 440.161
278 0 222.389 15.7966 3513 106.954 947.632 437.681
279 0 229.166 15.8793 3639 106.144 947.877 436.673
280 0 233.311 14.8814 3472 108.244 947.151 432.956
281 1 207.242 15.8317 3281 105.486 947.669 449.104
282 0 211.418 15.6373 3306 107.457 947.859 444.182
283 0 220.337 16.5428 3645 105.265 947.176 436.701
284 0 227.462 16.029 3646 105.821 946.981 432.769
285 0 233.43 15.7135 3668 105.37 946.587 430.786
286 0 241.424 15.6074 3768 104.818 947.193 429.315
287 0 248.506 16.6354 4134 102.427 947.455 425.368
288 0 253.342 15.4889 3924 105.634 947.188 420.111
289 1 182.247 14.4859 2640 105.812 947.604 459.975
290 0 187.162 13.9077 2603 107.111 947.056 453.425
291 0 195.382 15.9636 3119 101.539 947.502 454.399
292 0 198.363 12.9964 2578 106.827 947.142 455.964
293 0 205.28 13.4597 2763 106.462 947.547 445.266
294 0 212.39 14.737 3130 103.232 947.451 442.012
295 0 220.51 14.6978 3241 103.124 947.097 436.507
296 1 145.349 15.0603 2189 100.852 947.389 470.053
297 0 151.143 14.9329 2257 100.316 946.783 468.423
298 0 152.276 13.9286 2121 102.901 946.976 465.992
299 0 159.17 14.1547 2253 100.567 946.699 466.427
300 0 165.309 15.4075 2547 97.9965 947.183 461.909
301 0 170.33 15.0414 2562 98.5195 947.217 458.38
302 0 176.26 15.341 2704 97.0906 945.568 456.453
303 0 178.256 13.8228 2464 99.6291 946.152 456.327
304 0 183.377 14.2003 2604 98.1978 946.12 453.327
305 0 190.224 14.9718 2848 96.0351 946.058 448.919
306 0 198.184 14.8852 2950 96.0346 945.927 444.235
307 1 111.156 14.5111 1613 92.92 946.27 487.624
308 0 115.156 14.5976 1681 92.9488 946.913 484.215
309 0 117.173 14.1414 1657 93.2812 946.395 481.425
310 0 123.118 16.0253 1973 89.7162 946.925 480.274
311 0 129.201 14.9458 1931 90.6282 947.198 478.165
312 0 131.219 14.4567 1897 90.7275 946.284 477.477
313 0 134.19 14.5465 1952 90.9093 946.355 474.943
314 0 139.298 13.7691 1918 90.9744 946.452 473.21
315 0 144.142 13.57 1956 91.4489 946.546 468.418
316 0 147.122 13.4106 1973 91.5601 946.536 469.776
317 0 154.161 15.0946 2327 88.0606 946.96 467.361
318 1 41.0952 15.1356 622 89.5498 946.677 516.703
319 0 43.0898 13.3674 576 90.6615 946.806 516.644
320 0 43.0329 14.7794 636 89.5833 946.462 515.613
321 0 44.0146 13.7909 607 91.7298 946.246 515.412
322 0 47.0304 13.8208 650 90.3015 947.5 516.042
323 0 46.0305 14.8597 684 89.9883 947.078 513.927
324 0 49.2189 14.3035 704 91.0767 946.29 513.2
325 0 51.2457 14.0109 718 89.7033 946.946 514.324
326 0 53.1161 14.4401 767 89.9505 947.348 511.065
327 0 53.1143 13.9134 739 89.9729 946.714 512.434
328 0 55.1093 14.9158 822 88.6338 947.135 512.045
329 0 56.0157 15.085 845 88.0083 946.872 512.304
330 0 58.1517 14.1698 824 88.8095 946.968 511.66
331 0 66.0924 12.4674 824 89.9393 947.422 508.689
332 0 67.0624 12.6449 848 88.9976 946.637 509.55
333 0 66.0367 13.3865 884 88.9129 946.838 508.049
334 0 67.1196 14.2432 956 88.0293 947.044 506.905
335 0 69.1063 14.1232 976 88.4221 946.262 504.232
336 0 70.0925 14.8233 1039 87.1482 946.768 503.174
337 0 73.1195 15.1259 1106 86.1989 946.577 501.292
338 0 78.0824 16.0856 1256 83.3089 946.664 499.796
339 0 79.036 14.1454 1118 86.3506 947.666 501.315
340 0 83.1958 15.0609 1253 84.5874 947.476 498.091
341 0 85.083 15.8669 1350 82.8 947.515 497.575
342 0 88.1388 15.5777 1373 83.638 946.764 494.183
343 0 90.1393 15.1321 1364 83.9993 947.173 495.279
344 0 95.2031 17.0058 1619 79.5701 947.276 493.737
345 0 98.0975 15.5661 1527 81.539 946.883 493.936
346 0 100.179 15.2627 1529 83.2217 946.869 490.304
347 0 100.163 13.8873 1391 86.4414 947.957 489.658
348 0 104.203 15.681 1634 83.7472 947.263 485.332
349 0 109.118 15.5703 1699 83.1136 946.602 485.378
350 0 113.169 16.3296 1848 81.5552 947.704 483.144
351 0 115.132 15.5387 1789 83.7982 947.879 480.987
352 0 119.226 15.1729 1809 82.8275 947.728 482.176
353 1 58.0843 13.9453 810 85.3222 947.527 508.428
354 0 61.0995 14.7792 903 82.2746 947.116 509.556
355 0 63.0785 14.474 913 82.8499 947.484 507.819
356 0 64.0571 14.9242 956 82.296 947.08 505.48
357 0 67.0704 14.8202 994 82.6338 947.495 505.379
358 0 70.0763 13.4853 945 84.1873 947.824 504.417
359 0 70.0424 13.1777 923 85.4301 947.884 501.835
360 0 73.0596 14.4129 1053 81.8775 947.43 503.257
361 0 75.0462 14.6976 1103 81.981 947.656 499.636
362 0 79.1558 13.9851 1107 81.7001 947.16 500.483
363 0 81.083 14.331 1162 81.6411 948.147 497.662
364 1 38.0277 14.0687 535 82.314 948.516 515.318
365 0 42.0341 14.7024 618 80.2362 947.725 514.021
366 0 42.0289 12.6342 531 81.6629 948.401 516.612
367 0 45.0939 14.5031 654 79.4006 948.457 513.647
368 0 45.0481 13.8741 625 79.8864 948.693 514.203
369 0 45.1713 13.5263 611 80.3142 948.35 514.794
370 0 47.0485 14.5594 685 79.835 947.749 511.692
371 0 51.0982 15.0886 771 76.7367 947.848 513.163
372 0 51.0799 15.5051 792 76.8081 947.724 513.413
373 0 52.0618 14.5596 758 79.0066 947.157 511.851
374 0 54.0842 15.0876 816 77.6667 948.406 511.081
375 0 55.0486 14.1693 780 79.6115 948.935 510.538
376 0 58.0814 14.7551 857 78.2836 948.827 509.096
377 0 60.0846 14.6294 879 78.8453 948.411 507.107
378 0 60.0896 14.8278 891 78.9001 947.82 506.997
379 0 62.0754 14.2246 883 80.4168 947.801 506.734
380 0 64.078 14.654 939 79.7764 947.698 505.207
381 0 68.0909 14.9653 1019 78.5358 947.448 504.427
382 0 67.0513 13.9893 938 81.5682 946.994 502.724
383 0 70.0722 13.4433 942 81.3047 947.628 503.556
384 0 74.073 14.7287 1091 79.594 948.296 501.225
385 0 75.1046 15.2188 1143 79.9825 947.912 500.382
386 0 79.0781 14.0368 1110 80.5522 948.249 499.666
387 0 80.1095 13.6064 1090 81.7752 947.907 497.202
388 0 83.071 15.4807 1286 78.7068 947.498 496.903
389 0 86.0816 14.4979 1248 80.2476 947.659 495.47
390 1 39.0885 13.7636 538 80.71 948.435 516.582
391 0 39.1256 14.0317 549 79.8324 948.248 517.1
392 0 41.1356 12.9815 534 80.9925 948.64 516.775
393 0 43.1261 14.8402 640 78.2656 947.398 515.841
394 0 43.0635 12.3306 531 82.2994 947.441 516.407
395 0 43.0761 14.3235 617 80.363 947.175 514.856
396 0 44.1556 15.1963 671 79.7452 947.408 514.66
397 0 46.0712 14.7164 678 80.5708 948.01 513.676
