time division length width area intensity CMx CMy
0 0 79.0486 14.0546 1111 71.8317 1268.35 487.208
1 0 78.0465 11.9544 933 75.5563 1267.97 486.832
2 0 78.0465 12.0569 941 149.916 1267.95 486.766
3 0 85.0725 14.2232 1210 71.8934 1267.5 484.035
4 0 89.0604 13.6087 1212 73.1205 1267.88 484.151
5 0 92.1326 13.7628 1268 72.3233 1267.93 485.121
6 1 46.0353 10.1444 467 75.9293 1266.78 506.842
7 0 46.0353 10.0358 462 149.652 1265.79 506.846
8 0 49.076 12.3686 607 74.8863 1266.98 502.794
9 0 51.0221 12.3868 632 74.6566 1266.74 503.32
10 0 54.0387 13.7309 742 72.6429 1266.55 501.687
11 0 53.0476 11.5934 615 76.974 1266.47 500.914
12 0 53.0476 11.6688 619 152.107 1265.46 500.971
13 0 58.0605 12.8487 746 74.0174 1266.88 501.883
14 0 58.0283 12.0114 697 75.9154 1266.35 499.815
15 0 62.0809 12.1777 756 74.4299 1266.19 499.447
16 0 62.0716 12.8078 795 74.2717 1266.25 496.32
17 0 64.0324 13.4776 863 72.934 1266.24 495.598
18 0 66.0324 12.9785 857 73.5216 1266.75 496.019
19 0 66.0581 11.4596 757 76.1057 1266.5 494.881
20 0 71.0497 13.1035 931 72.5285 1265.92 493.902
21 0 70.0394 12.75 893 146.181 1264.97 493.063
22 0 72.0392 11.5909 835 75.8084 1265.75 491.218
23 0 76.1458 13.1327 1000 73.165 1266.17 489.399
24 0 79.066 13.0144 1029 73.0447 1266.42 489.858
25 0 83.1324 14.098 1172 70.9881 1266.08 487.214
26 0 85.0886 12.6456 1076 73.5297 1265.13 487.584
27 0 86.1299 12.516 1078 74.552 1265.18 482.431
28 0 90.0821 13.5654 1222 72.0524 1265.36 485.469
29 0 91.1424 14.406 1313 71.7677 1265.26 481.264
30 1 49.033 10.5439 517 69.5319 1265.6 506.919
31 0 48.025 9.16189 440 74.0773 1265.11 504.109
32 0 53.0517 12.0071 637 67.8179 1265.17 505.523
33 0 52.0294 10.84 564 70.9681 1264.92 503.199
34 0 54.075 11.8724 642 69.8489 1264.92 501.64
35 0 54.1118 10.6261 575 71.9496 1265.16 500.661
36 0 58.0322 12.338 716 68.3184 1264.86 500.739
37 0 58.0248 10.5645 613 71.46 1265.52 499.347
38 0 59.028 11.4861 678 70.9204 1264.26 496.442
39 0 59.0574 11.3449 670 71.7254 1264.62 496.27
40 0 62.0597 10.8122 671 71.766 1265.02 496.976
41 0 65.0967 10.999 716 70.7472 1264.6 497.018
42 0 67.0402 11.8287 793 69.377 1263.99 495.116
43 0 65.0462 11.438 744 71.0874 1263.97 493.441
44 0 68.0486 12.0796 822 70.8601 1264.11 491.001
45 0 71.1116 12.1077 861 69.0801 1264.88 494.217
46 0 74.1505 11.4362 848 69.5755 1264.61 493.777
47 0 77.0654 12.4959 963 68.432 1264.85 490.375
48 0 78.0766 13.1025 1023 67.9795 1264.6 486.183
49 0 80.1421 11.2924 905 70.2287 1264.8 487.802
50 0 84.0689 11.5501 971 70.0371 1265.25 487.011
51 0 86.3508 15.935 1376 37.4251 1260.88 479.644
52 1 42.0648 9.46158 398 67.294 1265.31 506.799
53 0 44.0445 11.7835 519 65.1869 1264.74 506.487
54 0 47.0752 11.1311 524 66.458 1265.17 506.918
55 0 46.0562 11.7465 541 67.4991 1265.37 504.906
56 0 47.032 11.2689 530 68.2868 1264.9 502.928
57 0 49.0619 12.4537 611 66.311 1264.92 503.313
58 0 50.0509 11.3285 567 66.5326 1263.67 503.176
59 0 51.036 11.9132 608 66.6776 1263.37 501.204
60 0 52.0181 11.0539 575 67.3844 1263.66 503.908
61 0 53.0492 10.8013 573 68.0768 1264.14 503.417
62 0 55.0259 11.7218 645 66.3892 1264.13 502.891
63 0 55.1779 11.5082 635 67.8016 1264.28 499.844
64 0 57.0802 10.2487 585 69.6547 1263.56 498.27
65 0 58.0987 10.878 632 70.6392 1263.57 498.682
66 0 61.0336 11.3708 694 69.4035 1264.09 498.622
67 0 65.0755 12.4932 813 67.3506 1264.02 495.507
68 0 64.0482 11.5226 738 68.6599 1264.42 497.237
69 0 67.0876 11.3732 763 68.7851 1264.27 495.488
70 0 66.027 10.0716 665 71.2376 1263.87 493.75
71 0 68.0852 10.7659 733 70.0068 1263.28 491.95
72 0 70.0639 10.4333 731 69.6977 1263.73 492.8
73 0 75.077 12.0809 907 66.4675 1263.92 492.276
74 0 77.1103 12.4756 962 65.5863 1264.05 491.136
75 0 78.1224 11.1748 873 68.0241 1264.43 490.093
76 0 79.1008 10.5941 838 69.611 1263.28 489.058
77 0 81.1926 10.6537 865 69.5283 1263.78 487.738
78 0 81.1926 10.666 866 140.133 1264.8 487.849
79 1 46.0812 9.15776 422 68.3886 1262.97 507.571
80 0 47.0666 9.15724 431 69.6984 1264.44 506.893
81 0 50.049 9.95025 498 69.9297 1264.74 503.452
82 0 50.0751 11.4228 572 67.8427 1264.95 504.713
83 0 51.0927 10.432 533 69.409 1264.75 503.139
84 0 54.0828 12.0556 652 66.4586 1264.57 502.871
85 0 56.0341 12.3496 692 66.7644 1264.07 499.455
86 0 57.0372 11.1331 635 68.9591 1264.38 500.723
87 0 59.0613 11.3272 669 68.4873 1264.65 500.326
88 0 58.0973 10.3963 604 70.0298 1264.26 500.656
89 0 61.0417 9.48532 579 71.1157 1264.34 500.579
90 0 62.0804 12.21 758 68.0726 1263.94 496.459
91 0 64.1274 11.2744 723 69.5726 1263.37 497.347
92 0 64.1089 10.1858 653 70.8438 1263.7 497.211
93 0 68.0949 11.5574 787 69.047 1263.12 493.925
94 0 71.2452 10.7376 765 69.7399 1263.71 494.674
95 0 74.0636 11.4766 850 68.7482 1264.16 493.165
96 0 75.1785 11.7188 881 68.6016 1264.16 492.288
97 0 75.1793 11.5324 867 69.3068 1264.13 490.734
98 0 76.0945 10.7235 816 70.3162 1264.26 491.327
99 0 81.0711 11.2247 910 69.0033 1263.79 489.771
100 0 82.0876 11.0613 908 69.8965 1263.68 486.813
101 0 85.1297 10.7835 918 69.9368 1264.51 488.794
102 0 88.0788 12.6705 1116 67.3943 1265.05 485.481
103 1 47.0646 9.62508 453 69.6622 1264.26 505.384
104 0 49.1136 10.4045 511 68.4227 1264.41 505.728
105 0 49.1136 10.323 507 130.852 1263.41 505.761
106 0 51.1173 11.4834 587 68.7411 1264.57 501.765
107 0 53.0545 11.1583 592 69.6368 1265.04 502.003
108 0 53.0204 10.562 560 70.7036 1264.87 500.811
109 0 54.0756 10.8737 588 70.4371 1264.2 500.294
110 0 56.0664 11.7896 661 69.7837 1264.3 499.139
111 0 58.0417 10.9576 636 70.7107 1264.36 498.572
112 0 59.0899 11.3387 670 70.0134 1264.07 499.158
113 0 59.1092 11.4534 677 70.9143 1263.87 495.331
114 0 63.0833 12.8719 812 68.617 1264.2 496.887
115 0 66.154 13.0604 864 67.7523 1264.26 497.73
116 0 65.0782 12.9075 840 69.9071 1263.48 493.793
117 0 68.1264 12.6383 861 69.2474 1264.47 495.594
118 0 69.0503 12.976 896 69.3549 1263.75 493.83
119 0 69.1136 12.6893 877 70.488 1264.02 492.212
120 0 72.0782 12.8194 924 70.1667 1263.88 489.253
121 0 74.086 12.688 940 70.1915 1264.12 491.8
122 0 75.0882 12.5452 942 70.7696 1263.63 490.083
123 0 79.0682 13.5073 1068 69.3736 1263.89 488.393
124 0 78.1885 10.8328 847 73.8843 1263.71 487.789
125 0 84.1615 12.8087 1078 70.102 1264.26 487.493
126 0 84.1412 12.5741 1058 71.6815 1263.68 486.286
127 0 88.1677 13.4516 1186 69.9123 1263.58 485.255
128 0 89.1051 13.8937 1238 70.0234 1264.39 483.258
129 0 92.1189 14.1122 1300 70.0408 1264.49 482.22
130 0 94.1661 12.7753 1203 72.6509 1264.92 480.788
131 0 97.2047 13.9088 1352 70.9467 1265.05 479.982
132 0 100.186 14.0638 1409 70.8105 1264.68 477.918
133 0 100.157 13.2991 1332 72.3453 1264.97 479.172
134 0 105.184 14.1181 1485 70.9926 1264.84 480.057
135 1 59.1222 11.9414 706 73.7026 1265.32 502.409
136 0 62.0737 11.7441 729 73.4829 1264.91 502.099
137 0 63.1175 11.1696 705 76.4128 1264.95 498.989
138 0 66.0447 13.0366 861 74.1336 1264.54 497.784
139 0 67.0681 12.8377 861 74.8688 1264.09 496.52
140 0 68.1006 13.1276 894 75.057 1264.01 493.54
141 0 71.0454 13.8362 983 73.882 1264.48 492.74
142 0 71.0342 12.4588 885 76.7492 1264.49 492.313
143 0 76.067 13.9482 1061 73.755 1263.83 492.444
144 0 77.0738 14.1163 1088 73.7252 1264.86 490.165
145 0 78.0392 13.993 1092 74.0797 1264.11 491.335
146 0 80.1166 13.056 1046 76.0229 1263.94 488.464
147 0 84.1888 14.7763 1244 73.1254 1264.11 487.141
148 0 85.0483 14.4036 1225 73.5698 1264.82 490.135
149 0 87.0576 12.7502 1110 77.3351 1264.13 484.254
150 0 91.0555 14.288 1301 73.6787 1263.72 487.305
151 0 92.104 13.539 1247 75.9872 1264.2 483.455
152 1 44.0101 11.6564 513 75.4912 1264 508.246
153 0 44.0743 11.4579 505 77.6475 1264.25 506.125
154 0 45.0297 10.9483 493 78.4767 1264.91 507.371
155 0 50.0605 12.2851 615 75.8146 1264.76 505.564
156 0 52.0859 13.7081 714 73.1541 1264.1 504.262
157 0 51.0743 13.6664 698 75.1347 1263.96 502.304
158 0 51.055 11.6541 595 78.1966 1264.16 503.484
159 0 53.0614 12.3442 655 76.7649 1264.2 504.611
160 0 55.0563 13.7859 759 74.332 1263.69 502.755
161 0 57.0363 13.43 766 75.0065 1263.57 500.843
162 0 58.104 12.2883 714 77.1639 1264.18 499.291
163 0 59.1131 11.774 696 77.3348 1265.26 500.533
164 0 63.0515 13.9886 882 73.39 1264.12 498.051
165 0 63.1592 13.6955 865 74.5468 1264.25 496.608
166 0 67.0286 13.1735 883 74.3035 1264.62 497.231
167 0 67.0573 13.1827 884 74.7704 1264.47 497.239
168 0 70.0527 14.1179 989 72.5824 1264.53 497.116
169 0 71.0715 13.395 952 74.8603 1264.81 493.094
170 0 73.103 14.5274 1062 73.1968 1263.64 491.877
171 0 76.0782 13.9199 1059 73.8999 1264.49 493.875
172 1 41.069 11.1033 456 75.818 1264.84 509.873
173 0 42.0321 12.2525 515 74.5165 1265.02 508.845
174 0 42.0321 13.7514 578 72.4187 1263.9 509.069
175 0 43.0816 11.0024 474 77.3312 1264.02 506.954
176 0 45.0693 11.9816 540 75.5241 1264.14 508.174
177 0 46.0753 13.2609 611 74.2226 1264.01 506.696
178 0 48.0422 13.5922 653 73.9066 1263.98 505.219
179 0 47.0365 11.6718 549 78.0911 1264.37 505.018
180 0 47.0515 11.8806 559 78.4025 1264.26 505.014
181 0 49.0091 12.2834 602 77.3588 1263.31 505.874
182 0 50.0946 12.3566 619 77.4556 1263.14 504.33
183 0 55.0472 11.9352 657 77.0213 1263.98 503.382
184 0 54.0547 11.5439 624 78.0673 1264.02 503.183
185 0 54.0603 11.7831 637 78.9137 1264.29 500.606
186 0 58.0417 13.5075 784 75.5574 1264.45 500.52
187 0 60.0449 13.2068 793 75.8159 1264.8 499.289
188 0 60.131 11.5581 695 78.6835 1264.59 498.55
189 0 64.0584 13.9248 892 73.8161 1263.42 498.339
190 0 66.0577 12.5042 826 76.2869 1263.61 496.076
191 1 29.0088 9.96248 289 77 1264.48 514.851
192 0 33.0702 11.4302 378 74.7328 1264.53 513.402
193 0 32.0161 11.3381 363 74.9614 1264.2 513.683
194 0 31.0899 10.55 328 78.75 1264.47 512.491
195 0 34.0354 12.1638 414 75.1159 1264.82 512.374
196 0 36.039 11.4876 414 75.7995 1264.73 511.828
197 0 36.0324 10.4906 378 78.2698 1264.21 510.77
198 0 37.0384 11.7176 434 76.8111 1264.65 508.839
199 0 40.0202 13.2433 530 73.1038 1264.82 510.085
200 0 41.0879 13.7023 563 72.7549 1264.72 508.739
201 0 39.0225 11.8906 464 77.6703 1264.93 509.44
202 0 42.0481 13.1992 555 75.1802 1265.17 508.728
203 0 44.0471 12.4185 547 76.9049 1264.26 507.647
204 0 45.0788 13.665 616 75.625 1264.54 506.286
205 0 46.0246 12.5802 579 77.3247 1263.99 507.109
206 0 47.0438 13.1154 617 76.8201 1264 507.229
207 0 49.0684 12.9207 634 77.0852 1263.65 506.24
208 0 50.0455 14.1871 710 73.8099 1263.65 503.817
209 0 52.0424 13.5467 705 74.3021 1263.84 505.072
210 0 50.0515 12.7469 638 77.7351 1264.12 502.793
211 0 53.0313 14.0483 745 75.2 1264.14 500.819
212 0 55.1052 13.6648 753 75.089 1264 500.996
213 0 56.0636 12.682 711 77.7876 1264.2 500.703
214 0 58.0782 12.5348 728 77.4863 1264.02 500.68
215 0 60.0633 13.4192 806 75.9541 1263.9 498.895
216 0 62.0727 13.0653 811 76.6116 1263.91 498.344
217 0 64.0324 14.5707 933 73.8435 1263.92 498.176
218 0 65.0839 13.1984 859 76.993 1264.13 496.536
219 0 68.0292 13.6265 927 75.6343 1264.34 496.234
220 0 70.0286 13.9514 977 75.2989 1264.1 494.829
221 0 71.0611 12.637 898 77.8051 1263.23 494.108
222 0 73.1115 13.5546 991 76.3461 1263.42 492.846
223 0 75.0437 13.3655 1003 77.0708 1263.28 492.112
224 1 39.0489 12.8045 500 78.304 1263.03 507.562
225 0 40.0385 11.9885 480 79.2438 1263.09 507.84
226 0 43.0632 12.8648 554 78.0018 1263.43 507.496
227 0 42.0427 10.6796 449 82.588 1263.74 508.421
228 0 46.0355 12.0559 555 79.582 1263.5 506.332
229 0 47.196 13.285 627 76.7895 1263.54 507.14
230 0 47.0381 13.8186 650 77.1154 1262.38 506.485
231 0 48.0415 12.2602 589 81 1263.04 504.723
232 0 51.019 13.7792 703 77.1963 1262.73 503.324
233 0 49.0432 12.4788 612 80.9461 1262.66 504.819
234 0 53.1498 13.0574 694 79.562 1262.17 502.006
235 0 57.0583 13.9506 796 76.3103 1262.89 503.437
236 0 55.1137 12.0297 663 81.4495 1263.29 502.91
237 0 57.0744 12.4574 711 80.9001 1263.35 501.243
238 0 59.026 12.5538 741 81.031 1263.57 498.571
239 0 60.0237 13.8945 834 78.9964 1263.26 496.613
240 0 64.0432 13.6626 875 77.888 1262.89 497.767
241 0 66.069 15.1206 999 74.968 1263.46 496.75
242 0 65.1186 13.6059 886 78.5158 1262.99 494.876
243 0 71.1214 13.5543 964 77.1909 1263.08 493.87
244 0 68.0906 13.5408 922 78.7462 1263.02 493.799
245 0 72.0484 12.8941 929 79.2379 1263.32 492.034
246 0 74.088 13.565 1005 77.2547 1263.36 492.93
247 0 76.1078 13.2969 1012 77.9802 1262.99 491.896
248 1 40.0392 11.7885 472 80.6504 1263.31 507.79
249 0 42.0263 11.3738 478 81.0356 1262.67 505.835
250 0 41.0173 11.7755 483 81.1553 1263.16 505.718
251 0 45.0666 13.2249 596 78.1795 1263.49 503.497
252 0 44.0682 13.0253 574 80.0035 1262.72 503.915
253 0 49.0776 13.061 641 77.0359 1263.28 505.988
254 0 50.0241 13.4135 671 76.2697 1262.59 505.772
255 0 51.0575 13.6317 696 76.6825 1263.23 503.762
256 0 52.0297 12.6082 656 78.8125 1263.09 503.57
257 0 53.1379 13.5497 720 76.5375 1263.32 503.293
258 0 55.1283 14.1851 782 76.0013 1263.47 501.418
259 0 56.0792 13.4988 757 77.321 1262.57 499.923
260 0 58.0652 14.0532 816 76.1238 1263.57 499.809
261 0 58.0752 13.362 776 77.7564 1263.1 498.38
262 0 61.0956 14.3218 875 74.6983 1262.86 498.48
263 0 64.0864 15.5259 995 71.6302 1263.2 497.295
264 0 64.0637 14.7041 942 73.1656 1263.26 497.97
265 0 66.1275 13.3076 880 75.9693 1263.22 495.777
266 0 69.0817 14.3598 992 73.9113 1263.29 494.427
267 0 70.0714 13.9572 978 74.3701 1263.19 493.805
268 0 71.0685 14.1131 1003 74.2682 1263.43 493.053
269 0 75.0516 14.6432 1099 72.9181 1263.51 491.227
270 0 76.1103 13.822 1052 74.5228 1263.83 490.552
271 0 77.1416 14.1947 1095 74.3151 1263.25 489.068
272 0 80.0728 13.9248 1115 74.4718 1262.87 487.909
273 1 40.0197 11.3194 453 77.9558 1263.36 507.119
274 0 43.0393 11.7102 504 77.2282 1263.93 507.052
275 0 44.102 12.063 532 77.2218 1263.53 506.028
276 0 44.0301 11.106 489 79.3865 1263.67 506.219
277 0 46.0488 11.6833 538 78.9349 1263.12 505.348
278 0 46.0461 11.5536 532 79.6579 1263.39 505.16
279 0 49.0172 14.1787 695 75.1237 1262.94 502.21
280 0 52.1152 13.5853 708 74.9449 1263 503.767
281 0 50.0759 12.2414 613 78.9625 1262.38 503.602
282 0 54.0285 13.6409 737 76.2904 1262.96 501.697
283 0 52.0411 12.9321 673 79.0565 1263.32 500.695
284 0 56.0702 14.0538 788 76.0508 1262.89 501.725
285 0 57.0725 14.0698 803 77.1606 1263.02 499.1
286 0 58.0768 12.1219 704 80.7685 1262.86 500.03
287 0 61.0553 13.4632 822 77.6411 1262.68 498.214
288 0 62.0259 13.7523 853 77.5475 1262.28 497.853
289 0 63.0745 13.0798 825 79.5079 1262.26 495.264
290 0 66.082 14.255 942 77.1231 1262.68 494.973
291 0 67.0449 14.9005 999 75.8018 1263.01 497.642
292 0 70.1009 14.4934 1016 76.4035 1262.9 495.087
293 0 71.0386 13.9924 994 78.2565 1263.24 494.23
294 0 73.0732 14.1913 1037 77.7859 1262.6 493.683
295 0 74.1026 13.9536 1034 78.9894 1262.76 491.982
296 1 39.0142 11.7906 460 81.2239 1262.37 509.565
297 0 41.0167 11.922 489 81.501 1262.49 509.389
298 0 41.0079 12.461 511 82.0059 1262.7 508.327
299 0 44.0351 12.6036 555 80.8901 1262.66 508.207
300 0 44.0378 12.6482 557 81.7181 1262.58 506.645
301 0 46.0566 13.7005 631 79.9525 1262.96 505.54
302 0 48.025 14.305 687 77.8865 1263.04 506.463
303 0 49.0775 13.876 681 79.9501 1262.76 504.003
304 0 50.0483 12.5279 627 83.1276 1262.92 503.871
305 0 51.0328 14.5005 740 80.0311 1262.73 502.877
306 0 52.0324 13.3186 693 81.798 1262.6 504.841
307 0 54.0412 13.3417 721 82.8114 1262.82 502.645
308 0 56.0495 12.7387 714 83.8768 1263 502.724
309 0 57.0475 14.0059 799 81.9224 1262.69 500.917
310 0 58.0664 12.1413 705 85.9986 1262.6 500.997
311 0 61.0864 14.1275 863 82.1553 1262.46 499.085
312 0 63.0465 15.0048 946 80.4926 1262.16 499.367
313 0 65.0317 14.0393 913 83.3034 1262.97 498.282
314 0 67.0387 13.7682 923 83.8527 1262.95 498.395
315 0 67.1433 13.3446 896 85.4665 1263.52 497.182
316 0 69.101 14.6886 1015 83.2709 1262.21 496.537
317 0 72.0722 13.8472 998 85.2194 1262.53 494.272
318 0 75.0905 14.3826 1080 84.3704 1261.75 493.12
319 0 75.1519 14.9564 1124 84.3114 1262.03 489.558
320 0 77.1876 14.0567 1085 86.9567 1261.44 487.41
321 0 81.1424 15.2818 1240 84.2371 1262.29 486.481
322 1 42.0782 11.6212 489 90.9591 1262.39 507.014
323 0 44.0191 12.0857 532 89.235 1262.92 507.18
324 0 46.0484 11.9874 552 89.3188 1262.75 507.382
325 0 48.0548 13.0268 626 87.7029 1262.4 504.864
326 0 50.0427 13.3086 666 86.6276 1262.09 504.102
327 0 49.0152 13.2 647 88.8269 1262.35 502.912
328 0 51.0218 12.6025 643 90.4386 1262.23 501.695
329 0 54.0671 13.8532 749 86.7744 1262.7 502.971
330 0 56.0531 12.845 720 88.0833 1262.58 502.879
331 0 57.0315 14.904 850 84.2529 1263.03 501.76
332 0 59.0615 13.7653 813 86.3948 1262.91 501.39
333 0 60.0505 14.2547 856 86.0234 1263.25 500.171
334 0 62.0805 14.0141 870 86.0103 1262.22 501.379
335 0 64.0701 13.9535 894 85.491 1262.61 501.352
336 0 66.0936 15.0695 996 83.0944 1262.88 499.384
337 0 67.0779 14.1775 951 85.5331 1262.66 497.358
338 0 68.0946 13.4519 916 87.0841 1261.98 496.571
339 0 71.085 15.1227 1075 83.1851 1262.03 496.749
340 0 74.1075 13.3185 987 85.9889 1261.75 494.186
341 0 76.059 14.2652 1085 84.1309 1262.14 493.998
342 0 79.1308 14.3812 1138 84.333 1262.88 491.004
343 0 80.1266 12.8297 1028 87.2519 1262.89 491.456
344 1 39.04 11.0399 431 89.7448 1262.84 510.673
345 0 41.0487 12.4974 513 87.0994 1262.66 510.322
346 0 41.0141 12.8736 528 87.5985 1262.79 509.225
347 0 43.0362 11.7343 505 88.5366 1262.92 509.424
348 0 43.1126 13.1516 567 88.1958 1263.35 507.358
349 0 46.0234 13.6235 627 85.7592 1263.06 507.201
350 0 47.08 13.955 657 85.5236 1262.56 506.14
351 0 47.025 13.2483 623 87.9037 1263.14 505.284
352 0 47.0274 12.6097 593 89.747 1262.81 505.381
353 0 51.0697 13.5109 690 85.6275 1262.95 505.69
354 0 51.0556 13.4755 688 86.5945 1263.02 504.699
355 0 54.0374 14.5825 788 83.8756 1262.99 502.643
356 0 55.0998 13.3939 738 86.5935 1263.42 500.947
357 0 58.0882 13.5656 788 85.4759 1262.71 500.401
358 0 59.0298 14.552 859 83.6624 1263.04 498.473
359 0 58.1181 12.7499 741 87.8381 1262.54 498.377
360 0 63.0468 15.1792 957 81.7043 1262.84 497.698
361 0 62.2231 13.9177 866 85.2298 1262.7 497.291
362 0 68.0722 14.7344 1003 81.1565 1262.38 496.915
363 0 67.0945 14.4572 970 82.7237 1262.51 496.316
364 0 71.0987 14.726 1047 80.8854 1262.52 496.524
365 0 71.0875 13.2091 939 84.8786 1262.42 492.89
366 0 74.0859 14.3752 1065 82.1183 1262.19 494.32
367 0 77.0848 15.1521 1168 80.6053 1262.19 492.049
368 0 78.1299 14.3607 1122 82.4902 1262.58 491.848
369 0 80.117 13.4678 1079 84.089 1262.75 491.458
370 1 42.0667 12.9556 545 84.1596 1262.34 509.105
371 0 44.0343 12.3767 545 85.011 1263.09 507.884
372 0 45.1068 13.723 619 82.525 1262.52 505.838
373 0 46.0165 12.7998 589 84.9542 1262.56 505.143
374 0 48.0251 14.8464 713 80.7349 1262.25 503.275
375 0 47.0354 14.2659 671 83.1177 1262.5 503.911
376 0 50.0238 13.8334 692 82.1445 1262.88 504.633
377 0 51.0897 13.5252 691 82.9971 1263.05 504.876
378 0 53.1692 14.388 765 81.5922 1263.06 503.115
379 0 52.0223 13.821 719 84.025 1262.94 502.978
380 0 55.0326 13.283 731 83.922 1262.89 502.357
381 0 56.1108 14.3466 805 82.287 1262.95 501.222
382 0 58.0868 14.5816 847 81.4085 1262.3 500.549
383 0 60.0561 14.27 857 81.3792 1262.68 502.361
384 0 59.0653 13.1041 774 83.969 1262.42 500.68
385 0 63.0508 14.4328 910 80.5077 1262.75 499.2
386 0 63.0632 15.3497 968 79.6105 1262.52 496.196
387 0 67.064 14.27 957 80.325 1262.27 498.109
388 0 69.102 13.5162 934 81.0407 1262.02 497.201
389 0 70.0962 13.2104 926 82.1944 1262.06 495.157
390 0 74.0864 15.5899 1155 77.4433 1262.38 492.028
391 0 76.0933 14.4296 1098 79.2468 1262.31 493.161
392 1 37.0602 12.4662 462 83.5281 1261.36 511.459
393 0 38.0269 13.0697 497 82.992 1262.08 510.205
394 0 40.0122 14.6206 585 78.2735 1261.71 510.118
395 0 40.0451 13.5597 543 81.3904 1262.6 508.389
396 0 43.1011 13.5495 584 79.5308 1262.8 509.44
397 0 43.0274 12.6664 545 82.1927 1262.91 508.624
398 0 46.035 15.2927 704 76.0724 1262.94 508.53
399 0 47.0771 15.5277 731 75.6963 1262.92 507.276
400 0 47.0371 13.9464 656 79.2027 1262.99 504.982
401 0 50.0327 14.6104 731 76.948 1262.11 505.48
402 0 52.0519 15.0043 781 75.3931 1262.47 504.631
403 0 52.0346 12.4148 646 79.8591 1262.19 505.009
404 0 51.0466 12.9294 660 80.3364 1262.25 503.297
