time division length width area intensity CMx CMy
0 0 48.1523 11.879 572 63.3986 807.086 527.177
1 0 50.0725 13.4805 675 60.637 806.865 527.698
2 0 50.0836 12.3793 620 62.3371 807.124 527.85
3 0 54.11 13.9161 753 59.7078 807.675 527.645
4 0 55.1496 12.457 687 61.4934 807.355 526.358
5 0 56.1178 11.6362 653 62.2312 806.452 527.865
6 0 57.1756 12.8901 737 60.8969 806.877 524.752
7 0 58.0789 12.2764 713 61.7461 806.827 523.952
8 0 61.0799 11.2639 688 63.0785 806.783 521.474
9 0 62.098 14.3161 889 58.865 807.476 521.615
10 0 64.1912 15.4383 991 56.7275 806.739 523.145
11 0 65.2043 12.7292 830 60.5867 806.643 519.492
12 0 68.1347 12.5487 855 60.2129 807.322 521.912
13 0 70.2664 12.6519 889 60.0686 807.319 519.665
14 0 71.116 11.6851 831 60.7268 806.792 521.473
15 0 73.1407 13.3305 975 59.1549 806.237 519.77
16 0 75.1513 12.375 930 60.0957 806.274 520.126
17 0 76.0996 13.2852 1011 60.4965 807.035 516.415
18 0 78.0772 14.0118 1094 58.8729 806.353 518.167
19 0 82.0958 13.9471 1145 58.793 806.287 516.13
20 0 84.047 13.2307 1112 59.9128 806.174 517.396
21 0 85.1038 13.3014 1132 60.6519 806.362 512.245
22 0 87.0955 12.9858 1131 60.5296 806.522 513.658
23 0 90.1115 13.1171 1182 59.4915 805.03 514.53
24 1 47.0587 11.7725 554 60.0126 806.051 533.074
25 0 48.0446 10.8441 521 61.7582 807.084 530.839
26 0 47.0484 12.0727 568 61.4648 807.254 529.34
27 0 50.0529 14.225 712 59.1208 807.374 528.92
28 0 51.065 11.2602 575 62.1896 806.958 529.367
29 0 51.0556 11.6931 597 62.5209 807.229 529.327
30 0 53.0838 13.9779 742 60.2062 806.497 527.337
31 0 53.0992 12.2789 652 62.3374 806.644 527.509
32 0 55.091 12.1798 671 62.468 806.784 526.44
33 0 56.0404 12.7944 717 62.0502 806.413 527.24
34 0 59.1008 10.8966 644 63.868 806.839 528.269
35 0 59.0948 13.7745 814 61.9705 808.012 525.258
36 0 60.0649 11.704 703 64.3883 807.586 525.903
37 0 63.0438 12.8006 807 63.8724 807.403 523.862
38 0 66.0404 12.0684 797 64.7503 807.817 523.685
39 0 68.0966 13.3193 907 63.6946 806.716 522.611
40 0 69.0731 12.5374 866 64.8141 807.718 522.477
41 0 71.103 13.0656 929 63.6868 807.324 523.362
42 0 72.1048 12.7869 922 65.6399 807.923 520.739
43 0 72.0801 12.4306 896 66.9777 807.421 519.459
44 0 77.0906 12.9588 999 65.6066 807.685 520.506
45 0 78.064 12.7331 994 67.3561 807.988 518
46 0 78.0449 12.0828 943 68.8515 807.845 516.183
47 0 83.1177 12.1996 1014 68.429 807.819 518.291
48 0 83.1435 12.1838 1013 70.0869 808.705 515.044
49 0 85.0986 11.7628 1001 71.6653 808.547 512.812
50 0 90.1738 12.3872 1117 70.1003 808.447 512.754
51 0 92.1745 12.715 1172 70.0529 808.592 511.382
52 0 95.0958 12.7135 1209 70.3309 808.49 512.152
53 0 93.228 10.1901 950 71.7505 808.299 517.255
54 0 100.151 12.591 1261 71.4298 807.871 507.707
55 0 103.207 12.5767 1298 71.7982 808.648 505.708
56 0 105.217 12.2129 1285 72.3245 808.107 505.689
57 0 104.162 11.3093 1178 74.5815 808.706 504.211
58 1 54.0331 11.7336 634 70.6877 809.129 526.92
59 0 55.0253 11.7037 644 69.6584 808.73 527.342
60 0 58.0741 11.0376 641 70.6412 809.468 526.721
61 0 60.0383 11.4927 690 69.9522 809.374 525.722
62 0 61.0969 12.6193 771 69.585 808.913 522.486
63 0 65.1499 12.3254 803 68.457 808.081 524.42
64 0 67.0797 12.2243 820 69.7341 808.446 521.62
65 0 69.1132 12.5157 865 70.074 809.437 519.816
66 0 72.0888 11.9991 865 69.9503 808.803 519.618
67 0 71.0965 11.4914 817 72.4333 808.163 517.153
68 0 75.0401 11.7804 884 71.0068 808.386 518.786
69 0 76.0731 10.411 792 73.5657 807.871 516.605
70 0 79.0958 12.9337 1023 70.9961 807.979 512.797
71 0 81.1684 12.357 1003 71.5125 807.535 513.495
72 0 86.0736 13.0702 1125 70.3973 807.899 513.06
73 0 88.0906 12.6915 1118 71.1503 808.143 510.267
74 0 90.1079 11.0867 999 73.8128 807.716 509.188
75 1 46.0369 10.535 485 69.2598 808.548 531.901
76 0 45.0294 9.23842 416 72.1346 809.356 530.962
77 0 47.03 10.6953 503 69.835 808.036 530.068
78 0 50.1595 11.1644 560 69.6714 808.377 528.011
79 0 51.0522 12.1444 620 69.1081 809.165 526.123
80 0 54.0354 12.0107 649 68.5901 808.995 526.143
81 0 56.018 11.8712 665 68.8767 809.232 525.394
82 0 55.0549 11.6248 640 69.875 809.831 524.523
83 0 59.1276 12.6506 748 68.2874 808.211 523.644
84 0 59.0844 11.3397 670 70.7672 809.345 524.309
85 0 62.0246 11.2859 700 70.0729 808.731 524.436
86 0 63.0954 12.5049 789 69.2776 809.719 519.531
87 0 66.0648 12.5029 826 69.569 809.878 517.35
88 0 68.1084 11.0559 753 70.8672 808.837 518.697
89 0 73.0486 12.7586 932 67.5333 809.616 517.299
90 0 73.1511 10.7449 786 70.3219 808.59 517.851
91 0 77.127 13.5102 1042 67.3397 808.573 514.635
92 0 79.0863 12.6697 1002 69.1956 809.451 512.912
93 0 80.1108 11.896 953 70.6946 809.352 513.085
94 0 83.1453 12.0993 1006 70.4105 808.865 509.917
95 0 87.0417 11.6726 1016 70.6122 809.252 508.818
96 1 46.0476 8.55637 394 70.0964 809.404 532.612
97 0 46.0581 9.74855 449 71.118 809.316 527.187
98 0 51.0218 12.2693 626 66.3371 808.922 528.195
99 0 50.0679 10.6455 533 69.7749 809.448 525.377
100 0 52.0343 10.6084 552 69.3442 809.71 526.502
101 0 53.0429 10.0296 532 70.2049 809.483 524.921
102 0 55.0784 11.2385 619 68.1454 809.01 524.785
103 0 56.1329 10.4395 586 68.9983 809.358 522.939
104 0 56.0706 11.111 623 68.8587 809.637 520.31
105 0 58.0844 10.2265 594 69.6852 809.551 521.407
106 0 63.0473 11.42 720 67.0472 808.86 520.893
107 0 63.0907 9.93807 627 69.5183 809.756 520.293
108 0 65.1142 10.5507 687 68.5953 809.049 517.063
109 0 66.1307 10.57 699 69.0916 809.639 517.459
110 0 70.1547 10.6907 750 68.216 809.273 517.027
111 0 72.0678 11.8222 852 63.0763 808.482 516.045
112 0 74.1988 11.0918 823 68.2722 808.657 511.306
113 0 77.2591 10.7172 828 68.6268 808.661 511.245
114 0 82.2281 12.6113 1037 64.8235 808.735 510.951
115 0 83.2141 11.7408 977 67.2293 809.26 506.466
116 1 45.1341 10.7014 483 64.3975 809.333 529.938
117 0 45.0585 8.89955 401 66.2743 810.322 529.756
118 0 47.1863 9.21879 435 65.7586 810.954 528.768
119 0 47.0356 11.7145 551 64.0309 810.336 525.817
120 0 49.0683 10.842 532 64.3515 809.9 528.073
121 0 51.0571 12.7896 653 61.9617 808.881 525.53
122 0 52.0859 11.0395 575 64.5096 809.287 526.757
123 0 53.0484 10.6129 563 65.4796 808.563 524.813
124 0 57.0827 12.8936 736 61.8166 808.971 522.829
125 0 57.1329 11.377 650 64.4446 809.229 522.611
126 0 59.0699 11.1224 657 64.5312 809.597 523.271
127 0 60.1537 10.7392 646 64.8282 809.101 521.839
128 0 64.0914 11.6552 747 63.1285 808.857 521.651
129 0 64.0856 11.2662 722 64.4252 809.288 520.857
130 0 66.1181 12.8104 847 62.7898 809.378 517.488
131 0 66.1475 12.7896 846 63.4693 809.31 515.609
132 0 71.1248 12.3726 880 63.0136 809.812 515.52
133 0 70.1609 10.7467 754 65.9363 809.24 513.812
134 0 74.1612 11.9604 887 64.1826 809.751 512.768
135 0 77.1548 12.0537 930 63.1183 809.463 512.137
136 0 78.2121 10.7912 844 65.2844 809.623 508.002
137 1 39.0831 9.13439 357 64.3978 809.961 530.493
138 0 41.0162 9.48406 389 63.2699 809.589 530.159
139 0 42.0598 11.1983 471 61.4119 809.709 529.913
140 0 42.0681 10.3166 434 63.1912 810.7 528.378
141 0 46.1525 11.202 517 60.971 810.493 527.99
142 0 47.1692 11.4694 541 60.2292 810.56 528.226
143 0 48.1208 12.1153 583 61.2624 811.184 525.693
144 0 49.0933 11.2032 550 63.3036 810.662 523.958
145 0 51.0302 11.503 587 62.1721 811.412 525.615
146 0 52.0626 11.3517 591 63.1574 811.227 523.249
147 0 55.0171 12.2507 674 61.6691 810.899 523.27
148 0 55.0355 10.5387 580 63.7086 809.84 523.853
149 0 56.0401 9.72518 545 65.1505 810.05 521.807
150 0 56.0692 11.1291 624 63.8718 810.377 520.756
151 0 59.0753 11.3584 671 63.07 810.833 521.569
152 0 60.0162 11.3803 683 63.3734 809.739 518.666
153 0 62.24 10.2828 640 64.525 810.295 518.369
154 0 64.0635 12.1598 779 61.7754 810.059 516.913
155 0 66.1699 10.7148 709 63.3286 810.292 517.13
156 0 69.0679 12.5239 865 60.5711 811.77 517.387
157 0 70.0729 11.0171 772 61.5246 811.228 517.517
158 0 73.1442 10.4861 767 62.412 810.782 513.858
159 1 37.0401 9.71918 360 60.8528 812.258 533.294
160 0 39.2085 9.8703 387 60.8579 812.178 530.543
161 0 41.0655 10.2763 422 61.1469 812.339 528.14
162 0 43.0562 10.916 470 59.4213 811.738 529.157
163 0 44.0569 11.7121 516 58.7984 811.331 527.69
164 0 45.2002 12.3008 556 58.2698 811.746 526.822
165 0 45.1409 9.61434 434 62.0714 811.816 526.813
166 0 46.0666 10.9407 504 60.3631 812.778 525.127
167 0 48.0628 9.8829 475 61.5853 812.613 525.297
168 0 50.048 10.9295 547 60.7294 812.832 523.693
169 0 50.0925 11.339 568 60.8327 811.762 521.213
170 0 52.0426 10.1263 527 61.6755 811.423 523.288
171 0 52.1327 9.74436 508 62.5098 811.234 520.437
172 0 54.0419 9.56665 517 62.4275 811.031 520.625
173 0 57.1135 10.2953 588 61.415 810.609 519.26
174 0 61.1336 10.3053 630 60.8032 809.737 519.222
175 0 61.0769 10.8552 663 60.2866 809.472 518.409
176 0 64.2049 10.887 699 59.8283 809.167 517.921
177 0 63.1957 10.6495 673 61.0149 809.282 515.688
178 0 66.1565 11.367 752 60.1449 808.851 514.227
179 0 69.1866 12.2567 848 58.6014 809.66 514.767
180 0 71.2565 11.213 799 59.5707 809.36 513.961
181 0 72.2163 9.73464 703 60.8905 808.758 514.32
182 0 75.1484 12.788 961 58.0749 809.726 509.92
183 0 77.2333 10.5783 817 60.8568 808.876 510.705
184 0 81.3334 13.168 1071 57.3212 808.101 509.475
185 1 44.1194 10.6756 471 58.4289 808.86 528.344
186 0 45.0796 10.4925 473 57.7907 808.727 529.326
187 0 46.1227 11.2526 519 57.9094 807.931 526.99
188 0 49.0616 11.0677 543 58.2228 807.282 525.298
189 0 51.069 11.8271 604 57.8063 807.488 523.74
190 0 51.1509 11.1435 570 59.2737 806.991 522.689
191 0 54.0906 12.8673 696 57.2256 807.052 523.843
192 0 54.0153 13.1444 710 57.5817 806.89 521.738
193 0 56.0768 13.8382 776 57.1366 807.072 522.839
194 0 58.0278 11.8219 686 59.3513 806.937 522.332
195 0 58.0783 10.0898 586 61.8669 807.092 521.232
196 0 64.0481 11.6319 745 59.3879 807.287 522.309
197 0 63.1092 11.5197 727 59.619 806.869 521.118
198 0 65.0609 11.3893 741 60.1579 806.756 520.563
199 0 68.079 12.3092 838 59.0716 806.504 518.185
200 0 70.0707 10.9033 764 59.7343 805.579 521.348
201 0 73.132 10.2964 753 60.9894 805.817 518.899
202 0 75.0942 11.2525 845 59.7692 806.064 518.525
203 0 77.1268 10.5152 811 60.4846 805.293 517.224
204 0 79.0631 9.78965 774 61.4251 805.826 517.094
205 0 81.037 10.4767 849 60.9588 806.118 514.895
206 0 83.0807 10.8328 900 61.1722 806.573 511.786
207 0 88.0491 12.936 1139 58.273 806.145 511.809
208 1 43.0672 9.70576 418 60.4043 805.749 533.222
209 0 44.0308 10.5154 463 60.0022 805.497 532.806
210 0 46.0391 11.7292 540 58.287 804.774 532.698
211 0 47.0763 9.87759 465 60.3527 804.755 531.931
212 0 49.0415 11.6432 571 59.2609 805.489 530.9
213 0 52.0546 12.4677 649 58.4345 804.732 530.487
214 0 53.0558 11.1392 591 60.423 804.294 529.552
215 0 52.022 9.55366 497 63.1569 804.859 528.475
216 0 54.0446 10.2693 555 61.7081 803.564 528.714
217 0 56.0775 11.6089 651 60.8495 803.369 526.214
218 0 61.1674 11.0843 678 60.8304 803.791 525.829
219 0 60.0899 11.3829 684 60.9927 804.13 525.867
220 0 63.1019 9.04886 571 63.5114 803.384 526.625
221 0 64.1129 11.4486 734 60.8106 803.307 524.161
222 0 66.1601 11.9861 793 61.8146 803.845 520.386
223 0 68.2595 12.1155 827 61.5417 804.57 518.557
224 0 70.2532 11.302 794 62.7997 804.301 517.845
225 0 73.2452 13.3934 981 60.3619 804.094 516.226
226 0 74.1169 13.5462 1004 60.4223 803.462 514.205
227 1 41.1344 9.94302 409 62.2445 802.961 532.335
228 0 39.0448 9.27141 362 62.5912 803.417 534.285
229 0 41.0432 9.98948 410 62.1659 803.912 532.92
230 0 41.0189 11.3119 464 60.9547 804.597 531.256
231 0 44.101 10.7254 473 60.7759 803.163 530.774
232 0 45.1098 12.1481 548 59.7536 805.624 528.334
233 0 47.0324 12.3957 583 60.1304 805.573 530.194
234 0 46.0583 10.8992 502 62.8625 804.725 527.777
235 0 47.1009 10.382 489 63.7996 805.217 527.716
236 0 51.0738 11.7085 598 61.194 805.478 528.007
237 0 51.1079 10.3898 531 63.3578 804.563 524.198
238 0 50.1185 10.1958 511 64.0841 804.317 526.127
239 0 53.0877 9.98348 530 64.1491 804.377 525.406
240 0 55.0817 10.1304 558 63.9857 804.5 524.823
241 0 55.0547 9.84475 542 64.928 803.943 521.1
242 0 59.0505 11.0583 653 63.6187 803.695 520.985
243 0 60.0673 10.2385 615 64.3935 803.99 521.494
244 0 62.1081 10.8199 672 64.1369 804.533 517.906
245 0 64.0484 11.0854 710 63.5803 804.455 517.385
246 0 67.0824 12.4474 835 61.2192 804.72 516.116
247 0 66.1031 10.6198 702 64.9544 805.436 517.11
248 0 69.038 10.7477 742 64.1199 804.929 516.73
249 0 71.1432 11.0622 787 64.075 805.377 516.653
250 0 74.0249 10.5235 779 64.6406 805.615 513.628
251 0 75.2142 10.9687 825 64.1758 805.905 513.583
252 0 78.1657 10.4522 817 63.4406 804.798 514.088
253 0 82.0835 11.9147 978 62.1616 804.992 514.191
254 1 42.0106 8.45025 355 63.1662 805.189 533.465
255 0 44.0493 11.5552 509 61.222 805.063 530.917
256 0 46.1055 10.1506 468 63.3269 805.682 531.355
257 0 47.2131 10.1455 479 63.0772 805.762 532.088
258 0 48.2071 10.4134 502 63.1892 805.293 529.41
259 0 50.1311 10.5324 528 61.5777 805.46 529.824
260 0 52.1061 9.92206 517 62.9149 804.443 529.35
261 0 51.0915 10.217 522 62.9157 804.247 530.701
262 0 53.0736 9.68466 514 63.2237 805.399 527.704
263 0 55.096 12.4873 688 60.0349 806.217 527.741
264 0 56.0964 9.82237 551 63.7423 805.757 527.851
265 0 59.098 12.5554 742 59.7385 805.313 523.946
266 0 61.0795 10.7401 656 61.2912 805.23 526.273
267 0 62.1027 11.6903 726 60.5579 805.282 524.978
268 0 63.113 11.2497 710 61.1859 804.745 523.599
269 0 66.1301 10.9481 724 61.6961 805.093 522.264
270 0 67.1964 11.5929 779 60.7882 804.72 521.19
271 0 66.1287 9.82931 650 63.9062 805.269 520.102
272 0 68.28 11.4089 779 62.3261 803.978 516.757
273 0 72.2593 11.777 851 61.2632 804.226 514.456
274 0 74.37 10.9722 816 62.0613 804.564 516.218
275 0 77.3108 10.7747 833 62.1128 804.324 515.507
276 0 76.215 10.3392 788 63.4569 804.745 512.865
277 0 81.5164 11.6786 952 61.5588 805.034 509.831
278 0 83.3664 10.8797 907 62.9923 804.148 509.311
279 1 41.3632 8.41328 348 62.3937 804.569 533.267
280 0 43.3214 9.25639 401 61.0374 804.865 534.142
281 0 46.274 8.86026 410 61.5293 805.249 534.293
282 0 44.2331 9.58558 424 62.6887 804.585 531.25
283 0 44.1205 8.47678 374 63.7032 804.35 529.516
284 0 48.2335 11.5687 558 59.1756 803.303 529.206
285 0 51.1336 12.2229 625 58.5328 803.584 530.658
286 0 52.1162 12.5489 654 58.6422 802.916 530.373
287 0 53.0996 10.791 573 60.5236 802.792 527.859
288 0 54.0821 10.0773 545 61.3064 802.71 526.972
289 0 55.1565 10.6968 590 61.1153 803.185 525.644
290 0 56.0755 11.7342 658 59.8739 802.84 526.866
291 0 57.1471 11.4091 652 60.6028 803.549 524.794
292 0 57.0669 10.6542 608 61.7648 803.669 525.257
293 0 61.1903 11.358 695 60.2662 804.447 522.544
294 0 64.0971 11.4514 734 59.6213 804.563 524.251
295 0 66.1116 10.6335 703 60.3144 803.916 524.38
296 0 65.1229 10.3497 674 60.954 803.366 522.976
297 0 68.2731 12.0692 824 58.8216 802.839 519.177
298 0 72.1203 9.91399 715 60.8252 803.334 520.103
299 1 34.1072 9.85129 336 60.9375 804.018 535.295
300 0 37.0345 10.0987 374 59.3128 804.187 536.249
301 0 37.0413 9.4219 349 59.9198 803.077 533.779
302 0 39.0278 8.96797 350 61.3771 803.549 531.423
303 0 39.0279 9.94162 388 60.6572 803.247 532.129
304 0 41.0249 11.4808 471 57.9342 802.798 533.31
305 0 41.1377 10.793 444 58.7995 803.029 532.212
306 0 44.0647 11.3243 499 57.8958 803.299 532.647
307 0 46.0231 11.7115 539 57.1985 802.479 531.302
308 0 45.0543 9.85477 444 60.1104 802.874 532.858
309 0 44.1286 10.832 478 60.1946 802.46 528.741
310 0 47.0549 12.6873 597 57.7102 802.255 528.476
311 0 49.0881 10.8377 532 60.2237 802.857 529.562
312 0 50.2209 12.5645 631 58.1601 802.759 525.678
313 0 53.0786 12.2272 649 57.9892 802.22 527.086
314 0 55.0294 12.1753 670 57.9448 802.581 527.584
315 0 55.098 13.0132 717 57.5286 802.789 524.538
316 0 57.1284 12.3406 705 57.7759 802.616 528.098
317 0 57.06 11.409 651 59.7558 803.247 527.089
318 0 60.0682 12.619 758 58.223 802.612 524.19
319 0 60.1719 12.4477 749 58.7276 803.322 522.865
320 0 61.0777 10.6258 649 60.7827 803.73 523.678
321 0 64.1661 12.9663 832 58.2344 803.541 520.141
322 0 64.1386 13.3773 858 57.9301 802.946 520.276
323 0 64.0803 11.0642 709 60.7602 802.537 519.896
324 0 67.1715 11.4483 769 60.3147 802.365 519.649
325 0 71.12 12.9359 920 58.9967 803.111 517.411
326 0 74.1107 13.7092 1016 58.0837 803.728 515.326
327 0 75.1208 12.42 933 59.8585 802.787 518.329
328 0 77.1132 12.0732 931 61.5102 802.749 514.786
329 0 80.0761 13.0751 1047 60.3314 802.961 515.087
330 1 38.013 10.8384 412 62.1335 803.24 533.379
331 0 40.0292 11.1668 447 61.396 804.19 532.745
332 0 41.0599 10.3994 427 62.4848 803.808 534.377
333 0 43.0373 10.2702 442 62.1018 804.219 534.353
334 0 43.0373 12.2684 528 60.4943 802.883 531.513
335 0 44.0646 13.049 575 60.4383 801.967 528.984
336 0 47.0771 11.3006 532 61.8947 802.656 530.18
337 0 48.0815 12.562 604 60.6772 802.028 528.361
338 0 48.038 11.9905 576 60.9757 802.321 531.042
339 0 50.0482 12.0484 603 60.8458 803.012 529.534
340 0 50.0537 11.3478 568 62.368 803.597 527.329
341 0 53.0821 12.2829 652 61.4156 804.037 526.054
342 0 54.0805 12.0561 652 61.9356 804.087 526.459
343 0 55.0508 11.7891 649 62.3713 803.883 525.006
344 0 54.0771 10.5035 568 64.5335 804.364 523.998
345 0 57.1469 11.6017 663 62.994 803.866 523.888
346 0 60.0793 11.9342 717 62.9331 803.163 522.965
347 0 62.0545 14.0522 872 60.4415 803.094 521.356
348 0 63.0935 12.3309 778 62.91 803.65 520.634
349 0 64.0678 12.518 802 62.9863 803.466 519.042
350 0 68.0743 12.8389 874 62.4165 803.055 519.086
351 0 68.0441 12.7123 865 63.6647 803.209 516.747
352 0 71.0516 12.4698 886 62.9639 803.45 517.889
353 0 74.1572 12.3252 914 63.4606 804.373 516.807
354 0 74.138 11.1144 824 65.9199 804.479 515.716
355 1 41.0553 11.6672 479 63.929 803.664 531.77
356 0 42.061 12.6721 533 63.5441 804.803 528.557
357 0 43.0825 12.3948 534 64.191 803.706 530.397
358 0 45.0261 10.5939 477 66.0587 804.138 530.182
359 0 45.0598 11.5624 521 65.7274 804.155 529.357
360 0 46.0749 10.8302 499 66.7174 804.04 527.683
361 0 50.0551 12.3464 618 64.8301 804.057 526.917
362 0 52.1135 12.2425 638 64.8809 804.491 527.034
363 0 52.1004 12.2648 639 65.9781 804.401 524.044
364 0 54.0573 12.6347 683 65.0337 804.066 524.032
365 0 56.1356 11.8998 668 65.4132 804.382 524.275
366 0 58.1263 11.8363 688 66.1047 804.789 523.926
367 0 60.0639 12.1038 727 65.6781 804.915 523.103
368 0 59.0772 12.2044 721 66.6033 805.06 520.581
369 0 62.2249 11.8924 740 66.7162 804.904 521.335
370 0 65.0953 12.3665 805 66.2 804.811 519.133
371 0 66.0608 12.5339 828 66.3647 803.859 516.256
372 0 69.1021 13.0532 902 65.4113 803.586 517.665
373 0 72.516 13.4729 977 64.1853 804.01 518.197
374 0 73.1455 12.1812 891 66.6779 803.924 513.918
375 1 38.0382 9.93739 378 65.6376 804.325 533.966
376 0 41.0383 9.91756 407 65.0614 803.968 535.047
377 0 42.0257 13.0396 548 62.5693 804.976 531.697
378 0 43.0403 10.5715 455 66.3253 804.371 529.941
379 0 43.0689 11.0521 476 65.6345 805.153 529.311
380 0 46.0717 11.634 536 64.1791 804.397 529.093
381 0 47.0442 10.4795 493 65.8235 804.081 528.959
382 0 48.0587 10.7577 517 65.7466 803.219 526.95
383 0 48.1473 9.20093 443 66.6569 804.187 527.122
384 0 51.2058 10.2918 527 64.7647 803.721 528.125
385 0 52.1537 10.6416 555 64.4342 802.823 527.944
386 0 52.1376 10.0695 525 65.6781 803.61 522.952
387 0 54.0542 11.6365 629 63.2162 803.695 522.665
388 0 55.1098 9.65345 532 65.8139 803.483 521.494
389 0 58.0895 12.102 703 62.3869 803.36 520.865
390 0 59.1056 10.5235 622 64.254 804.09 519.246
391 0 63.1215 10.3768 655 63.6153 804.397 519.632
392 0 63.1457 11.0221 696 63.0517 803.866 518.195
393 0 65.1167 10.796 703 62.9587 804.38 516.428
394 0 69.0584 11.1934 773 61.9586 804.136 517.136
395 0 70.1083 10.3269 724 62.4669 804.732 515.525
396 0 72.0597 9.76968 704 63.0384 804.545 512.594
397 0 72.0951 9.72326 701 63.1227 804.414 511.793
398 1 37.0376 10.3949 385 60.1403 804.501 529.156
399 0 39.0424 8.96461 350 61.24 804.649 530.257
400 0 38.0185 9.10082 346 60.7803 804.428 529.974
401 0 40.1178 9.72136 390 60.3692 804.387 526.931
402 0 42.0632 9.12912 384 61.2057 804.797 527.099
403 0 43.0393 8.8756 382 61.2801 805.39 528.063
404 0 47.1056 10.3809 489 59.3701 805.241 525.941
