time division length width area intensity CMx CMy
0 0 62.1144 9.88499 614 63.7427 1180.46 451.658
1 0 66.0222 11.0872 732 61.8265 1180.68 451.131
2 0 67.0405 11.8436 794 60.806 1181.12 451.28
3 0 67.0686 9.72138 652 63.5905 1181.27 450.827
4 0 70.1723 11.5003 807 61.5316 1181.12 448.067
5 0 72.0535 9.95093 717 62.6123 1181.37 451.071
6 0 75.1569 11.6024 872 61.2592 1181.23 448.575
7 0 78.0433 11.0323 861 61.2009 1180.29 449.876
8 0 82.017 11.266 924 60.8019 1180.58 447.491
9 0 82.0608 12.113 994 60.7254 1180.37 444.999
10 0 84.078 12.6549 1064 60.2481 1179.4 442.589
11 0 86.0653 10.3875 894 63.3456 1178.98 442.996
12 0 89.0863 11.4496 1020 62.2412 1179.15 440.633
13 1 45.0796 8.34079 376 64.0532 1179.44 463.524
14 0 48.09 11.0002 529 61.673 1179.36 460.117
15 0 50.0263 10.4145 521 61.9463 1178.96 462.509
16 0 51.0661 9.4975 485 63.4763 1178.79 458.938
17 0 54.0225 11.8469 640 60.325 1179.15 459.573
18 0 55.17 11.6368 642 60.5031 1178.89 457.735
19 0 56.0412 11.4915 644 60.9425 1179.18 457.856
20 0 59.0403 11.5176 680 60.9676 1179.63 457
21 0 61.0512 13.1201 801 58.628 1179.99 457.381
22 0 62.0396 10.9607 680 61.6735 1179.52 453.537
23 0 66.0863 14.5265 960 57.6208 1179.15 452.288
24 0 64.0191 11.4185 731 61.0246 1179.23 454.49
25 0 65.1112 10.5972 690 62.8014 1179.54 451.364
26 0 69.1473 9.51592 658 63.4894 1179.39 450.59
27 0 71.0435 12.5979 895 60.0436 1178.73 449.63
28 0 72.0854 8.91998 643 64.521 1178.64 449.047
29 0 75.0596 12.3102 924 60.6353 1179.07 446.917
30 0 79.0875 12.3534 977 59.8321 1178.42 450.024
31 0 81.0826 11.0011 892 61.9933 1178.44 446.759
32 1 45.049 10.2333 461 60.3991 1177.84 464.607
33 0 48.0441 9.82431 472 60.8411 1178.33 462.197
34 0 47.0207 8.31548 391 62.6343 1178.72 463.639
35 0 49.0466 10.0925 495 61.5414 1178.56 459.665
36 0 52.1353 12.2949 641 59.7582 1179.09 460.073
37 0 53.0228 11.7119 621 60.1546 1178.92 460.643
38 0 52.0573 10.5653 550 62.9564 1178.72 455.464
39 0 56.0321 11.8147 662 60.6208 1178.78 457.68
40 0 57.1024 10.6826 610 62.5672 1178.54 455.052
41 0 60.0325 10.7275 644 62.1988 1178.85 456.62
42 0 63.1085 12.2804 775 60.2865 1179.06 453.706
43 0 62.0328 9.65619 599 64.4775 1178.88 452.721
44 0 63.024 10.1231 638 63.9749 1178.72 453.174
45 0 67.0706 11.063 742 62.4879 1178.52 449.425
46 0 69.1416 11.6572 806 62.1625 1178.45 449.986
47 0 73.1061 12.6255 923 59.6425 1178.2 453.538
48 0 72.0666 12.8631 927 60.384 1178.13 451.42
49 0 74.0586 10.8293 802 63.303 1177.81 447.097
50 0 77.0304 12.4886 962 61.2048 1177.69 446.508
51 0 81.1205 11.7603 954 61.8239 1178.15 446.165
52 0 82.1168 10.5094 863 62.8806 1177.29 445.975
53 0 86.0665 9.96903 858 64.2657 1178 443.993
54 0 86.0508 10.3195 888 64.1779 1177.83 442.602
55 0 93.212 12.8846 1201 60.2215 1177.7 441.134
56 0 95.1039 12.439 1183 61.2959 1177.7 436.974
57 1 48.0227 10.3076 495 62.8283 1177.87 459.897
58 0 52.0303 9.95573 518 62.1062 1177.98 461.145
59 0 54.0755 11.3175 612 60.4248 1177.23 459.204
60 0 55.0304 10.5941 583 61.9605 1177.84 459.218
61 0 57.0551 13.1802 752 58.9309 1177.41 456.814
62 0 57.0433 11.6052 662 60.6662 1177.31 458.935
63 0 58.0719 11.6752 678 61.5546 1177.26 457.437
64 0 59.0527 10.6176 627 62.8884 1177.72 456.018
65 0 62.1532 11.89 739 60.9188 1177.5 456.747
66 0 63.0948 12.0612 761 61.0512 1177.49 455.464
67 0 66.0746 10.7454 710 61.907 1176.96 454.718
68 0 69.2147 13.3209 922 58.8785 1176.32 452.797
69 0 69.1773 11.5645 800 61.1063 1177.55 453.429
70 0 73.1249 12.5949 921 60.2682 1177.4 450.91
71 0 74.0609 12.4357 921 60.6254 1177.32 447.861
72 0 75.0707 13.2142 992 59.8065 1177.14 448.403
73 0 77.1166 12.3709 954 61.0241 1177.53 444.742
74 0 81.1055 12.3543 1002 60.4381 1177.66 448.673
75 0 80.0954 10.0006 801 64.2659 1178.42 446.607
76 0 84.0858 12.844 1080 60.7037 1177.22 445.034
77 0 87.1325 12.5097 1090 61.1697 1176.96 442.521
78 0 89.1017 11.7618 1048 62.4723 1176.83 441.918
79 0 89.1017 11.7731 1049 139.154 1176.82 441.919
80 0 95.1187 12.2689 1167 62.2879 1177.71 437.301
81 0 100.103 13.4162 1343 60.3448 1178.2 440.155
82 0 102.081 13.0092 1328 62.0286 1178.29 436.259
83 0 104.125 12.5234 1304 62.9678 1178.02 433.722
84 0 106.148 12.3884 1315 63.4426 1177.56 432.546
85 0 111.048 11.8057 1311 63.8322 1177.52 430.947
86 1 59.0353 11.7726 695 62.4532 1178.21 457.891
87 0 59.0525 12.599 744 62.4059 1177.69 457.341
88 0 61.0807 11.7386 717 62.5955 1177.31 457.109
89 0 62.1994 11.3184 704 63.8509 1177.78 456.686
90 0 64.0452 10.5238 674 64.8902 1177.62 454.325
91 0 69.0371 12.4715 861 61.8595 1177.93 454.894
92 0 69.1413 10.4279 721 64.8044 1178.06 452.383
93 0 71.0254 11.4325 812 63.3781 1178.17 452.115
94 0 71.0811 11.4095 811 63.9162 1178.27 450.441
95 0 76.0447 10.507 799 63.6871 1178.11 452.931
96 0 78.1098 12.9689 1013 61.2389 1178.02 446.361
97 0 81.0768 12.9137 1047 60.9589 1178.08 448.602
98 0 83.071 13.7714 1144 59.8103 1178.15 448.059
99 0 85.1343 12.4274 1058 61.2864 1177.68 445.74
100 0 87.1791 10.5415 919 63.7334 1178.07 445.46
101 1 46.0195 10.2348 471 61.4119 1178.06 464.454
102 0 46.0508 9.94555 458 62.1659 1177.82 464.061
103 0 48.0281 12.1804 585 59.0991 1177.99 465.509
104 0 48.1242 10.8885 524 62.4656 1178.02 460.952
105 0 50.1392 11.9667 600 60.4217 1177.54 461.955
106 0 52.0497 12.5841 655 59.5908 1177.11 461.4
107 0 53.0519 10.8008 573 62.6963 1177.22 460.024
108 0 54.0377 11.9546 646 60.3003 1177.5 461.76
109 0 57.0615 12.3376 704 60.1335 1177.8 460.114
110 0 58.0464 12.3694 718 60.8816 1178.02 458.801
111 0 60.0833 10.3689 623 62.6661 1178.22 460.213
112 0 61.0453 11.1393 680 62.3603 1177.38 456.784
113 0 64.0685 11.597 743 61.5585 1177.35 455.956
114 0 65.1118 11.5033 749 61.5928 1177.19 456.347
115 0 64.1049 9.60925 616 64.3734 1177.32 456.469
116 0 70.1075 13.1227 920 59.5239 1177.51 453.504
117 0 69.0476 10.4421 721 63.7018 1177.69 452.836
118 0 74.2179 12.0591 895 61.057 1177.82 452.914
119 0 74.182 11.8358 878 61.5273 1177.43 451.448
120 0 74.0751 10.0979 748 63.6243 1177.78 451.817
121 0 78.0739 10.5797 826 62.5654 1177.79 451.531
122 0 81.0935 11.6779 947 61.4995 1177.28 447.748
123 0 83.0685 10.6539 885 61.8655 1177.77 450.31
124 1 43.0274 11.2719 485 59.3835 1178.23 467.649
125 0 45.0269 11.8152 532 59.3008 1178.3 466.338
126 0 47.0636 11.6013 546 59.859 1177.9 464.233
127 0 47.0421 14.3488 675 57.1467 1177.08 464.006
128 0 48.0168 12.4956 600 58.9583 1177.32 463.427
129 0 50.1521 12.1431 609 58.4696 1177.05 464.023
130 0 52.0872 12.6135 657 58.9072 1177.06 461.659
131 0 53.0605 11.0251 585 60.5538 1177.13 462.561
132 0 54.1044 12.3465 668 59.012 1177.58 460.501
133 0 55.0586 12.7864 704 59.2045 1177.79 458.045
134 0 55.0246 12.3763 681 59.5844 1177.5 460.176
135 0 58.0463 10.75 624 60.8365 1177.78 460.433
136 0 57.056 12.6542 722 59.4861 1177.63 459.247
137 0 59.0481 10.991 649 61.1649 1176.81 459.274
138 0 61.0696 13.3127 813 58.754 1177.51 456.438
139 0 62.2685 9.97294 621 62.6184 1177.11 455.952
140 0 64.0215 12.2147 782 59.7916 1176.23 454
141 0 67.0459 13.0657 876 58.6712 1176.74 454.25
142 0 67.0747 11.3157 759 60.8195 1176.84 452.722
143 0 69.1232 11.8484 819 60.3516 1176.5 450.888
144 0 71.1029 12.5171 890 59.0303 1176.87 450.778
145 0 75.0817 11.4808 862 60.5023 1178.11 449.816
146 0 76.0528 14.0955 1072 57.389 1178.63 450.024
147 0 77.2525 11.9608 924 60.1299 1178.35 447.818
148 0 81.2353 12.2361 994 59.7143 1178.07 445.017
149 0 84.133 11.8978 1001 60.2687 1177.72 445.355
150 0 86.0577 13.0959 1127 59.1482 1177.5 442.006
151 0 87.0694 11.3128 985 61.2944 1177.68 441.835
152 0 90.1014 10.5659 952 61.9989 1178.04 442.939
153 0 92.0908 11.5321 1062 61.4256 1177.91 438.685
154 0 94.174 11.5637 1089 61.3783 1177.64 436.516
155 0 101.139 13.2392 1339 58.6744 1177.8 438.122
156 0 104.072 12.3569 1286 59.8779 1178.17 435.782
157 0 105.135 12.4316 1307 60.6251 1178.25 431.186
158 0 109.132 11.3257 1236 61.5663 1178.21 435.13
159 0 111.118 11.7083 1301 61.6426 1178.11 431.593
160 0 116.08 12.0606 1400 60.9643 1177.11 427.406
161 0 119.212 12.2639 1462 60.6553 1176.73 426.307
162 0 122.102 13.8245 1688 59.3525 1177.33 423.086
163 0 126.116 12.1079 1527 61.6614 1177.05 419.621
164 1 60.0666 10.8546 652 61.1825 1177.23 454.483
165 0 64.1295 9.83947 631 61.2377 1176.54 456.621
166 0 64.1127 12.1037 776 59.6959 1176.61 453.557
167 0 65.0907 10.1243 659 62.041 1177.34 454.833
168 0 69.1066 11.3159 782 60.5 1177.35 453.939
169 0 70.0813 10.816 758 61.6385 1177.6 452.296
170 0 74.0366 12.6829 939 59.4515 1177.58 449.05
171 0 77.1768 12.3224 951 59.2702 1177.57 450.785
172 0 80.2075 11.969 960 59.5052 1176.88 450.327
173 0 80.1478 10.3184 827 61.5865 1176.55 448.17
174 0 85.1596 11.7309 999 60.2392 1176.87 445.197
175 0 88.0591 11.1402 981 60.9246 1176.83 444.631
176 0 93.1222 14.1642 1319 57.2108 1177.77 443.182
177 1 41.0308 11.7716 483 58.7143 1177.94 466.692
178 0 42.0389 10.7282 451 60.4235 1177.84 465.071
179 0 42.0262 9.87479 415 61.3518 1177.66 466.446
180 0 45.0633 11.0733 499 60.6253 1176.87 463.269
181 0 47.0354 11.5232 542 59.6199 1177.42 464.577
182 0 48.0621 12.4214 597 59.2747 1177.52 463.168
183 0 50.1079 11.6349 583 60.4082 1177.94 462.4
184 0 49.0645 12.7791 627 60.1276 1177.34 460.04
185 0 50.1262 11.3713 570 61.1035 1177.24 462.156
186 0 53.0615 12.0426 639 60.7872 1176.97 459.546
187 0 55.0673 13.0749 720 59.2417 1177.3 458.913
188 0 57.053 10.9197 623 61.6998 1177.55 459.096
189 0 57.1058 11.8377 676 61.2559 1177.67 457.623
190 0 59.1597 11.9 704 60.8835 1177.47 457.432
191 0 59.0579 11.1078 656 62.4345 1177.49 455.271
192 0 62.0584 12.8589 798 59.401 1177.5 456.516
193 0 64.0598 11.9576 766 60.7441 1177.57 453.709
194 0 67.1121 12.8144 860 59.5128 1177.97 453.992
195 0 68.041 12.566 855 59.7661 1177.75 453.253
196 0 70.0804 13.1706 923 59.1636 1178.03 452.724
197 0 73.0874 11.0553 808 61.4208 1178.22 451.729
198 0 74.1067 12.1312 899 60.1858 1177.91 451.496
199 1 39.0344 11.6052 453 59.7461 1178.03 465.565
200 0 39.0489 11.9082 465 59.3957 1177.46 467.613
201 0 41.0648 12.809 526 58.6217 1177.02 465.738
202 0 41.129 11.5004 473 60.5095 1177.12 465.148
203 0 44.0309 12.2187 538 59.448 1177.42 463.649
204 0 46.1773 11.1094 513 61.0819 1177.7 462.76
205 0 44.0806 10.6169 468 62.2222 1177.3 460.532
206 0 47.036 11.6081 546 60.9066 1177.99 461.599
207 0 48.1456 10.676 514 60.5253 1178.13 462.304
208 0 51.0838 11.4909 587 58.8807 1177.45 460.06
209 0 51.0517 11.6548 595 58.6286 1177.33 461.027
210 0 54.0494 10.6939 578 60.0052 1177.16 458.128
211 0 54.0531 11.5257 623 59.0835 1177.72 459.587
212 0 57.0856 10.7383 613 60.0163 1177.76 457.292
213 0 60.0229 11.4456 687 58.8734 1177.83 456.348
214 0 59.0413 10.9415 646 59.7399 1177.75 453.599
215 0 63.0844 11.3182 714 58.1947 1177.77 456.196
216 0 63.1601 11.9537 755 58.551 1177.59 454.546
217 0 65.0769 11.448 745 58.5544 1176.85 453.703
218 0 68.0703 10.7683 733 59.3533 1177.05 453.468
219 0 68.113 10.0568 685 60.0088 1177.12 450.634
220 0 71.0784 11.4099 811 58.5869 1177.19 449.751
221 0 72.0355 12.1051 872 58.1594 1176.44 445.658
222 0 75.0427 12.0598 905 58.1536 1177.11 446.713
223 0 78.0914 11.9604 934 58.2345 1176.65 445.231
224 0 80.1356 10.5696 847 59.6068 1176.19 439.74
225 1 42.0697 10.5539 444 58.0586 1176.44 462.063
226 0 43.1392 11.5904 500 57.464 1177.11 463.79
227 0 45.017 10.5738 476 57.3613 1177.34 464.821
228 0 45.0387 11.6566 525 57.8362 1177.05 460.059
229 0 46.0668 11.7004 539 57.6456 1177.72 461.913
230 0 46.0707 10.5924 488 59.75 1177.9 459.756
231 0 48.0809 11.4806 552 58.4221 1177.76 458.877
232 0 49.0692 11.3717 558 58.6631 1177.62 459.539
233 0 49.0356 10.1967 500 60.092 1177.26 460.256
234 0 54.111 11.8091 639 57.6463 1177.54 457.87
235 0 55.0786 13.7258 756 56.0926 1177.9 456.259
236 0 55.0553 11.6973 644 58.3944 1177.42 457.688
237 0 56.0546 9.95458 558 60.1254 1177.06 459.005
238 0 56.0423 13.0972 734 57.6226 1177.08 455.331
239 0 55.1659 9.82492 542 61.6956 1176.79 456.009
240 0 59.082 11.9664 707 59.2419 1176.84 455.117
241 0 60.0763 11.269 677 60.1787 1177.02 452.601
242 0 60.038 11.7592 706 59.7139 1176.93 453.472
243 0 64.0323 13.3526 855 58.1193 1176.41 451.414
244 0 65.1148 10.3049 671 60.8033 1176.3 454.057
245 0 68.0835 11.4859 782 59.3146 1176.08 455.324
246 0 69.0273 12.9659 895 59.0335 1176.18 449.43
247 0 72.1044 11.5111 830 60.1614 1176.26 450.44
248 0 73.0944 12.4633 911 59.9638 1175.95 449.398
249 0 73.0897 12.1631 889 60.6794 1176.11 446.72
250 0 78.1039 11.9328 932 60.8412 1176.53 445.768
251 0 80.1699 11.1264 892 62.0717 1176.72 446.168
252 0 84.0599 12.1461 1021 61.2723 1176.99 445.074
253 0 83.1449 11.9791 996 61.5432 1177.27 446.252
254 0 88.1569 11.1392 982 62.5214 1176.66 443.771
255 0 91.1635 12.3185 1123 61.244 1176.29 443.05
256 0 93.0567 11.5199 1072 62.2136 1176.32 442.979
257 0 97.1577 10.3234 1003 63.5274 1175.81 442.927
258 0 100.185 13.1557 1318 60.9454 1176.68 439.359
259 0 105.135 13.4875 1418 60.3575 1176.93 440.202
260 1 61.1241 11.3867 696 63.4741 1176.89 457.399
261 0 62.1222 12.1213 753 62.6813 1176.97 456.675
262 0 64.0394 13.3355 854 61.4801 1176.71 455.684
263 0 67.0265 11.5477 774 63.0904 1176.81 456.482
264 0 65.0591 11.6663 759 64.3794 1175.61 452.609
265 0 69.085 13.4762 931 62.0451 1176.14 454.557
266 0 70.167 12.6555 888 63.1903 1176.63 452.378
267 0 70.0279 11.3812 797 65.6813 1176.13 450.563
268 0 75.1383 12.0578 906 63.9691 1175.7 452.418
269 0 79.2112 11.9175 944 64.5222 1176.49 450.41
270 0 77.0716 12.8711 992 64.371 1176.83 450.857
271 0 80.0783 12.0257 963 65.8505 1176.78 447.306
272 0 83.1375 13.7363 1142 63.4834 1176.76 446.952
273 0 85.1112 13.3472 1136 64.184 1176.46 445.53
274 0 87.1831 12.0436 1050 66.1533 1176.57 444.887
275 0 89.1192 13.5998 1212 64.7913 1176.49 443.794
276 0 90.1294 11.2838 1017 67.9164 1176.46 443.484
277 0 93.0977 11.3537 1057 67.9177 1176.86 442.962
278 0 100.104 12.6968 1271 66.5696 1176.22 440.235
279 0 98.0925 11.6217 1140 68.836 1175.98 438.733
280 0 102.128 13.9727 1427 66.0624 1176.19 437.275
281 0 108.113 12.2927 1329 67.526 1176.05 440.516
282 0 109.209 13.1765 1439 67.7769 1175.85 434.66
283 0 111.091 15.7979 1755 64.6222 1175.28 432.642
284 0 114.17 14.0142 1600 67.5469 1174.88 432.001
285 0 117.199 12.995 1523 69.6244 1174.7 430.323
286 1 57.0444 9.71173 554 72.0199 1175.11 460.664
287 0 60.0322 10.7609 646 70.5108 1175.68 459.698
288 0 63.0509 10.5153 663 71.0407 1176.4 460.181
289 0 64.0511 13.6141 872 68.2523 1176.26 455.852
290 0 66.0421 11.3867 752 70.4574 1176.5 458.717
291 0 64.0534 12.0837 774 71.4044 1176.36 456.562
292 0 69.0809 12.1452 839 71.6615 1176.51 454.446
293 0 70.111 11.5959 813 72.3001 1176.27 454.977
294 0 71.0786 11.438 813 72.0959 1176.34 457.438
295 0 72.1177 11.19 807 73.3866 1176.63 453.198
296 0 76.0286 12.4427 946 71.0296 1176.25 453.067
297 0 78.0885 11.7687 919 72.7356 1176.49 449.578
298 0 80.0553 11.8793 951 73.408 1176.94 447.169
299 0 82.1034 12.5452 1030 72.4039 1177.11 448.294
300 0 87.1178 12.7184 1108 71.4865 1176.57 447.873
301 0 88.1668 12.2949 1084 72.9391 1177.11 446.185
302 0 90.0892 12.421 1119 73.1626 1176.61 444.215
303 0 93.1285 11.5217 1073 74.0447 1176.31 445.156
304 0 97.0764 12.8662 1249 72.6245 1176.46 443.235
305 0 99.0881 11.7169 1161 74.5401 1176.06 441.124
306 0 100.113 11.2373 1125 75.88 1176.51 439.459
307 0 103.085 12.9408 1334 73.8081 1176.53 438.971
308 0 108.176 12.4057 1342 74.1364 1176.78 439.501
309 0 110.21 12.0951 1333 75.096 1176.61 436.833
310 0 111.094 11.2608 1251 77.2822 1175.54 433.731
311 0 115.114 13.2304 1523 74.7827 1176.43 430.223
312 0 121.135 13.0681 1583 74.2211 1176.35 432.299
313 0 120.128 12.0039 1442 77.0305 1176.15 427.94
314 0 123.135 11.9219 1468 76.3794 1175.93 431.315
315 1 61.0288 11.1587 681 74.1865 1176.29 462.388
316 0 62.0492 12.7963 794 72.7229 1176 458.14
317 0 63.0286 11.0109 694 75.3674 1175.8 457.024
318 0 64.0331 12.2749 786 73.5076 1175.83 455.919
319 0 65.2195 11.883 775 73.7535 1175.74 456.332
320 0 66.0252 12.0409 795 74.444 1175.7 452.508
321 0 69.08 12.1453 839 73.2205 1175.77 454.998
322 0 71.0697 11.1299 791 73.885 1176.42 455.657
323 0 73.1255 12.9914 950 72.06 1175.58 451.056
324 0 74.0794 12.8376 951 71.5047 1175.36 452.223
325 0 78.1317 12.4789 975 72.0349 1175.7 449.997
326 0 78.0868 11.897 929 73.451 1175.74 448.756
327 0 81.0967 11.7391 952 72.9359 1175.88 448.887
328 0 80.0437 9.55728 765 75.1569 1175.53 451.889
329 0 84.0919 10.9166 918 74.4641 1175.38 446.784
330 0 86.1557 10.806 931 74.9388 1175.17 443.393
331 0 90.1583 11.4576 1033 72.9042 1175.57 444.728
332 0 93.065 11.6693 1086 73.1252 1176.16 441.152
333 0 97.1438 12.6513 1229 71.4557 1175.62 441.624
334 0 100.099 11.3088 1132 72.2429 1175.77 442.891
335 0 100.12 11.4662 1148 73.6733 1175.89 438.003
336 0 106.249 12.066 1282 72.2441 1176.54 437.715
337 1 55.0642 10.8601 598 71.4732 1177.44 461.58
338 0 58.0407 12.4051 720 69.6694 1177.15 460.383
339 0 58.1557 10.9705 638 71.7461 1176.35 460.354
340 0 59.087 11.3223 669 72.5172 1176.96 456.661
341 0 60.0817 10.3526 622 73.3794 1177.42 457.484
342 0 66.1152 11.0413 730 70.7329 1177.72 457.951
343 0 65.027 10.5033 683 73.1728 1177.31 452.663
344 0 68.0386 12.7869 870 69.454 1177.24 451.276
345 0 68.0532 10.0803 686 73.8309 1177.24 450.175
346 0 69.0827 10.7842 745 72.5087 1176.7 447.703
347 0 75.0691 12.0955 908 69.7214 1176.44 448.018
348 0 76.0734 11.2917 859 70.8754 1176.13 445.137
349 0 76.0455 12.2164 929 70.0936 1175.79 444.919
350 0 82.0668 11.3444 931 69.8528 1176.04 445.547
351 0 85.056 10.6283 904 70.7876 1175.78 442.608
352 0 85.1749 10.8013 920 70.1946 1175.67 441.08
353 1 41.0351 9.65028 396 69.1212 1175.73 464.803
354 0 41.0577 9.20656 378 69.9312 1176.34 462.389
355 0 41.1132 9.63194 396 70.4268 1176.89 460.245
356 0 43.049 9.43112 406 68.8473 1177.17 462.549
357 0 46.1417 10.4027 480 67.6312 1176.45 459.344
358 0 46.0507 10.5319 485 67.9361 1175.52 457.99
359 0 48.0358 10.8044 519 67.2081 1176.43 458.225
360 0 50.0168 9.73672 487 68.1622 1176.35 458.768
361 0 50.0277 10.3143 516 67.9903 1176.65 456.545
362 0 54.1139 12.1965 660 65.1348 1176.59 456.065
363 0 56.0947 9.78702 549 67.7978 1177.16 457.51
364 0 57.0769 10.4946 599 66.3222 1176.96 457.706
365 0 59.0481 10.5169 621 66.6409 1176.09 453.415
366 0 61.0504 10.7288 655 66.0443 1176.68 453.834
367 0 60.0818 9.67015 581 68.1807 1176.59 451.375
368 0 64.0574 10.0379 643 67.2364 1176.63 450.586
369 0 69.1122 10.7796 745 65.5638 1176.72 451.619
370 0 70.0361 9.78067 685 66.3664 1176.28 450.905
371 0 71.0558 10.1329 720 66.9694 1175.87 446.724
372 0 75.1443 11.0188 828 65.4372 1176.22 447.343
373 0 77.0399 9.85203 759 67.1897 1175.8 443.603
374 0 81.2301 11.3382 921 65.1857 1176.05 444.704
375 1 42.0132 12.2342 514 61.9981 1176.54 465.13
376 0 43.0594 11.8673 511 64.2759 1176.5 459.644
377 0 45.0298 10.6596 480 64.8375 1176.36 461.754
378 0 45.0349 10.4363 470 66.1128 1175.99 460.555
379 0 49.0241 11.7901 578 63.8322 1176.26 460.133
380 0 50.0421 10.9508 548 65.8504 1176.64 458.172
381 0 51.041 12.1863 622 63.8151 1176.75 457.404
382 0 51.0405 13.6754 698 62.3138 1176.04 457.278
383 0 55.1258 12.2629 676 63.5266 1176.1 456.481
384 0 56.1018 12.2991 690 63.087 1176.42 456.149
385 0 57.0299 12.1515 693 63.4127 1176.41 454.372
386 0 60.0411 12.3082 739 62.9418 1176.6 453.908
387 0 61.0961 9.64055 589 66.8081 1176.23 453.531
388 0 64.0598 11.4736 735 63.7061 1176.4 453.982
389 0 67.1318 12.9596 870 61.4897 1176.52 452.947
390 0 67.1228 11.2182 753 63.5007 1176.37 453.501
391 0 68.145 12.4587 849 62.4122 1176.83 451.476
392 0 72.0722 12.0296 867 62.0819 1176.98 453.532
393 0 75.0394 12.087 907 62.5755 1176.85 449.934
394 0 77.1509 10.4082 803 64.9178 1176.37 446.762
395 1 41.0483 10.3049 423 64.4492 1176.87 464.217
396 0 41.0449 12.4254 510 62.351 1176.41 463.486
397 0 44.135 11.6008 512 62.0957 1176.72 465.135
398 0 43.0525 11.1492 480 63.7188 1176.33 462.544
399 0 45.0344 12.1241 546 62.3791 1176.55 462.658
400 0 48.0253 11.6605 560 63.0625 1176.6 460.696
401 0 48.043 11.6146 558 62.8781 1176.82 461.477
402 0 51.0201 12.4265 634 61.1814 1176.98 459.454
