time division length width area intensity CMx CMy
0 0 79.1301 13.3198 1054 67.0019 128.977 349.21
1 0 83.0827 12.8787 1070 68.0869 128.747 343.974
2 0 82.1213 11.824 971 69.8568 128.966 344.987
3 0 86.1131 12.7158 1095 69.116 128.521 344.681
4 1 46.0993 10.4557 482 70.1411 129.056 366.676
5 0 47.0823 11.533 543 70.6575 128.56 364.076
6 0 49.0646 11.1486 547 70.3857 128.355 364.872
7 0 52.2053 12.1061 632 70.1424 127.41 361.975
8 0 52.0941 11.7672 613 70.9103 127.674 360.643
9 0 53.0553 12.911 685 69.1664 127.765 361.696
10 0 57.0346 12.9395 738 68.6558 128.038 359.07
11 0 60.0565 12.355 742 69.4111 127.749 358.741
12 0 62.0719 13.3555 829 67.3293 127.593 358.55
13 0 61.0959 11.6047 709 70.7715 127.2 359.333
14 0 66.0279 13.3125 879 67.4994 127.689 358.304
15 0 67.1299 13.3621 897 67.3835 127.33 358.969
16 0 68.0564 12.5484 854 69.1311 127.535 357.916
17 0 74.1177 14.504 1075 65.48 126.631 356.698
18 0 76.0343 14.1384 1075 66.2558 127.087 354.308
19 0 78.1429 13.6673 1068 67.1395 127.247 354.9
20 0 81.1447 13.1986 1071 68.5574 127.415 349.705
21 0 82.0836 12.4629 1023 70.0411 126.988 349.953
22 0 86.0555 14.5487 1252 67.2668 127.106 347.423
23 0 87.0852 12.5969 1097 70.0447 127.224 348.801
24 1 48.0462 10.3858 499 71.1162 127.335 369.844
25 0 50.0914 12.0979 606 69.3944 126.441 368.267
26 0 53.0857 12.2632 651 70.149 126.604 365.833
27 0 52.0271 11.6478 606 71.8515 126.8 365.479
28 0 58.0517 13.2813 771 68.2451 126.479 364.089
29 0 59.0835 13.574 802 67.1584 126.706 365.579
30 0 59.1114 12.2481 724 69.9088 127.222 363.961
31 0 62.1257 13.1186 815 67.7472 126.838 364.791
32 0 63.0607 13.7011 864 68.1829 126.613 362.041
33 0 62.037 12.5087 776 70.1817 126.265 361.07
34 0 67.0804 13.1782 884 67.94 126.005 361.538
35 0 69.0648 13.9145 961 67.1748 125.781 358.772
36 0 71.0426 13.4426 955 68.0199 126.379 358.605
37 0 74.1281 14.0972 1045 66.7474 126.601 357.431
38 0 76.0954 13.8642 1055 67.3318 126.88 355.643
39 0 81.2918 14.4787 1177 65.407 127.329 356.394
40 0 82.0823 14.6682 1204 65.4286 127.091 355.606
41 0 83.1849 12.8028 1065 68.4563 126.966 354.87
42 1 43.052 10.406 448 69.4152 127.225 374.759
43 0 45.1613 10.9829 496 69.9859 126.8 372.105
44 0 46.0572 12.3108 567 68.2275 126.988 372.136
45 0 48.1558 12.4388 599 68.1636 127.326 372.154
46 0 50.1023 12.215 612 68.8546 126.696 370.475
47 0 52.1565 11.5997 605 69.438 127.041 371.296
48 0 53.1206 12.481 663 68.4072 127.437 370.649
49 0 53.1034 12.0708 641 70.0983 127.371 368.927
50 0 56.0619 12.1651 682 68.6364 127.384 371.098
51 0 57.0927 12.4709 712 69.6124 127.368 366.257
52 0 61.1108 12.9273 790 67.319 127.415 367.3
53 0 61.0961 13.7488 840 66.506 127.495 367.063
54 0 64.1363 14.0794 903 65.6999 127.685 366.495
55 0 65.0892 12.3216 802 69.1546 127.551 364.436
56 0 68.0903 13.2912 905 67.2597 127.57 362.607
57 0 71.1728 14.2892 1017 65.6578 127.242 360.228
58 0 70.1721 10.6453 747 71.2008 126.799 360.001
59 0 75.1174 14.271 1072 65.6222 126.821 358.582
60 0 76.2371 13.5892 1036 66.6892 126.342 357.984
61 0 80.0949 14.745 1181 63.9822 126.547 360.946
62 0 82.1905 14.1136 1160 65.0509 126.129 358.54
63 0 84.132 12.8489 1081 67.0666 126.07 357.913
64 0 88.2086 12.7765 1127 66.5963 126.949 357.344
65 0 90.1069 12.7959 1153 66.8951 126.732 354.538
66 1 47.0299 11.0993 522 66.933 127.525 374.603
67 0 47.0534 10.7962 508 68.5846 127.425 371.927
68 0 50.038 10.7518 538 68.0706 126.565 372.794
69 0 52.0556 11.8527 617 67.1994 126.467 367.582
70 0 53.0533 11.8372 628 66.7213 126.76 367.736
71 0 54.0634 12.3929 670 66.4463 126.199 365.973
72 0 55.0516 10.808 595 69.3697 126.501 362.634
73 0 57.0401 11.0799 632 68.6377 126.366 363.604
74 0 62.0483 12.4258 771 65.8197 126.031 362.433
75 0 64.0239 11.9643 766 66.2102 126.443 362.222
76 0 64.1573 13.6695 877 63.7788 126.231 362.2
77 0 65.1681 13.4882 879 64.7941 126.084 359.14
78 0 70.1131 13.5495 950 64.4716 126.052 358.218
79 0 70.1392 13.0027 912 66.0351 126.018 356.136
80 0 75.1483 12.5086 940 65.8138 126.666 356.802
81 0 77.1163 12.6692 977 66.1024 126.696 354.398
82 0 80.1129 13.9428 1117 63.4127 125.951 357.553
83 0 81.1415 11.9667 971 66.4449 125.784 355.272
84 0 83.1202 12.6925 1055 66.2436 125.898 350.639
85 1 42.0279 11.7541 494 64.2166 126.196 373.976
86 0 44.0269 11.1069 489 66.1636 126.765 371.685
87 0 44.094 11.0673 488 68.6291 126.863 368.449
88 0 47.0803 12.1919 574 66.4268 126.535 368
89 0 49.0693 14.1637 695 63.6806 125.711 366.66
90 0 47.0911 11.0424 520 69.2288 126.215 365.808
91 0 52.1516 13.4799 703 64.9403 125.799 364.748
92 0 54.0808 13.1285 710 65.3592 125.985 364.911
93 0 54.1449 12.4666 675 67.603 125.899 361.421
94 0 57.047 12.9016 736 66.3098 126.13 363.436
95 0 58.0704 12.6226 733 67.4666 126.229 360.997
96 0 60.0476 12.2403 735 67.6517 126.352 360.547
97 0 59.0642 11.7499 694 68.6902 126.076 360.223
98 0 63.0599 11.8142 745 67.5664 125.921 361.42
99 0 65.1242 12.7909 833 66.3697 125.741 358
100 0 66.0616 12.0645 797 67.7804 125.799 356.335
101 0 67.111 11.2053 752 69.0559 125.895 355.797
102 0 72.0469 11.895 857 67.6581 126.092 354.954
103 0 72.2201 12.9881 938 66.5874 125.763 351.404
104 0 76.0611 12.6346 961 66.6941 126.427 352.389
105 0 80.0872 12.836 1028 65.9183 126 351.299
106 0 79.1382 11.4357 905 68.6464 125.915 349.697
107 1 45.0801 10.8695 490 67.7367 126.959 369.063
108 0 46.057 12.1588 560 65.7857 126.046 368.259
109 0 48.0769 13.6032 654 64.0612 126.355 368.431
110 0 50.0697 13.1017 656 65.4924 125.277 366.512
111 0 51.0611 11.7898 602 67.2159 125.919 367.995
112 0 52.1122 13.1447 685 65.1912 126.361 367.758
113 0 55.0243 13.7939 759 65.4611 126.202 364.042
114 0 56.0782 12.7322 714 66.6134 126.056 365.7
115 0 58.0412 11.8364 687 68.6332 126.876 364.351
116 0 58.0967 12.3415 717 68.5063 125.449 362.812
117 0 60.0966 13.5615 815 65.9006 125.827 363.853
118 0 62.0155 13.674 848 65.783 126.117 362.86
119 0 64.0959 15.1336 970 64.5701 125.149 360.139
120 0 64.0901 11.9831 768 69.1081 125.374 360.113
121 0 68.0959 11.9978 817 68.1395 125.662 360.275
122 0 72.0375 14.8117 1067 62.4049 125.676 362.007
123 0 72.0362 11.994 864 68.044 125.902 356.825
124 0 74.1364 15.2152 1128 63.1516 125.071 357.12
125 0 77.1308 12.6149 973 67.3484 125.46 353.39
126 0 83.0447 11.6684 969 67.7688 125.756 351.44
127 0 84.2682 13.3621 1126 65.9076 125.49 350.991
128 1 43.0325 9.66711 416 71.137 125.858 368.075
129 0 46.0909 10.7613 496 69.2137 126.861 368.151
130 0 50.1027 13.5721 680 64.4868 126.326 367.307
131 0 50.0163 11.4363 572 68.8654 125.897 365.528
132 0 52.0911 12.2286 637 67.9262 126.159 364.942
133 0 54.0393 11.9913 648 67.6975 126.338 365.699
134 0 52.0871 11.8839 619 69.7787 127.141 364.359
135 0 56.1382 14.5356 816 64.5882 127.134 364.646
136 0 58.0493 12.8167 744 67.4261 127.047 362.399
137 0 60.0943 13.3457 802 66.7843 127.439 360.642
138 0 61.0812 12.0823 738 67.7629 126.962 363.686
139 0 65.0433 13.2066 859 66.2538 126.295 359.678
140 0 65.0514 13.6661 889 65.7278 126.107 360.64
141 0 68.0418 14.8585 1011 63.7319 126.187 359.345
142 0 69.0522 12.353 853 66.9261 126.353 360.023
143 0 71.0556 12.2299 869 66.8205 126.368 357.984
144 0 75.0622 13.1491 987 65.4529 126.565 356.16
145 0 77.0844 12.1555 937 66.1025 126.074 356.598
146 0 79.1496 12.7859 1012 65.6354 126.511 354.327
147 0 82.11 12.7025 1043 65.4295 126.355 352.786
148 0 82.0916 12.9733 1065 65.3887 126.62 352.903
149 1 44.0292 12.7643 562 65.3452 126.053 367.897
150 0 46.0399 11.4031 525 65.7448 126.076 369.103
151 0 47.0478 13.3056 626 64.2396 126.506 366.102
152 0 46.0687 11.9604 551 66.9619 126.711 364.844
153 0 49.0231 13.1774 646 64.9582 126.731 364.495
154 0 49.0556 10.9672 538 68.0335 127.245 364.015
155 0 51.0847 14.4857 740 62.3027 127.096 365.285
156 0 55.0195 12.0321 662 65.855 126.736 362.47
157 0 53.0248 12.051 639 67.892 126.502 359.64
158 0 56.0481 11.954 670 66.9836 126.378 360.424
159 0 59.064 13.206 780 63.791 126.655 361.955
160 0 59.0833 12.9478 765 65.0876 126.234 359.467
161 0 63.0914 13.7895 870 63.2828 126.236 357.983
162 0 64.0411 12.5388 803 65.4707 126.869 355.684
163 0 66.1073 13.2663 877 63.9213 127.304 355.97
164 0 68.1198 12.5221 853 65.1583 127.03 354.94
165 0 70.0529 13.5326 948 63.6297 126.873 353.756
166 0 72.149 13.389 966 63.589 126.867 353.767
167 0 73.0257 11.6534 851 65.9941 126.761 353.557
168 0 78.0606 14.3735 1122 62.049 126.709 351.301
169 0 78.1046 12.4448 972 64.6595 126.204 350.235
170 0 84.0672 12.9658 1090 63.5119 126.471 349.153
171 1 45.077 12.046 543 64.3941 126.974 364.783
172 0 47.0533 11.5401 543 65.0645 127.254 365.77
173 0 48.0564 14.3789 691 62.0767 126.703 363.999
174 0 50.0263 14.6323 732 61.6079 126.052 363.855
175 0 51.0778 12.4907 638 64.4436 126.127 362.533
176 0 54.076 13.0187 704 63.3423 126.594 362.753
177 0 55.0615 12.2227 673 64.529 126.392 363.41
178 0 57.0531 12.3394 704 65.0597 125.93 361.384
179 0 60.0995 12.9452 778 63.8278 125.842 361.055
180 0 61.1605 14.2739 873 61.9954 125.572 362.99
181 0 63.116 13.7841 870 62.8391 124.823 360.901
182 0 66.0363 14.7646 975 61.6564 124.995 360.019
183 0 68.0415 13.9915 952 62.3162 125.349 361.263
184 0 69.0999 13.068 903 64.3677 125.444 359.286
185 0 71.0835 13.5334 962 63.5114 125.26 358.921
186 0 74.0861 13.1469 974 63.7248 125.995 358.358
187 0 76.1474 13.6577 1040 63.5433 126.212 356.75
188 0 80.1531 13.8111 1107 62.935 125.941 353.558
189 0 83.1354 13.0269 1083 63.5946 126.059 354.97
190 0 84.107 14.5053 1220 62.1992 126.193 352.203
191 0 87.1154 13.0287 1135 64.2476 126.4 349.848
192 1 48.1046 11.3087 544 64.6213 126.612 369.785
193 0 49.0157 11.2413 551 66.0563 126.802 367.924
194 0 51.0829 12.0001 613 65.1892 126.788 367.129
195 0 51.031 12.659 646 66.2539 126.954 364.878
196 0 55.037 13.3365 734 64.5191 127.356 364.807
197 0 56.0566 13.0047 729 65.7942 126.679 361.524
198 0 57.0447 14.1994 810 65.1531 127.34 359.856
199 0 59.0338 13.721 810 65.7185 126.822 359.727
200 0 59.0541 11.7858 696 68.9339 126.864 360.039
201 0 62.1239 13.3604 830 67.388 126.572 358.267
202 0 65.0679 13.2477 862 66.7367 126.567 359.132
203 0 66.0935 14.3282 947 65.736 126.032 357.622
204 0 69.1277 14.3502 992 65.6048 126.373 355.545
205 0 72.0639 14.0015 1009 65.4975 126.204 356.361
206 0 74.1033 14.1964 1052 65.4914 125.982 354.706
207 0 76.0569 13.9501 1061 65.3959 125.844 350.615
208 0 76.0741 13.3685 1017 65.8741 126.198 352.319
209 0 81.1738 13.7729 1118 64.8122 126.288 349.514
210 0 83.0617 16.7105 1388 61.134 126.117 348.532
211 0 85.0867 13.9505 1187 64.5687 125.623 349.45
212 0 88.0798 13.2039 1163 65.736 125.659 349.265
213 0 91.0542 14.2882 1301 64.7894 125.765 346.328
214 1 49.0478 13.497 662 64.6752 125.84 365.994
215 0 51.1869 12.1125 620 66.0484 125.985 365.911
216 0 52.0884 12.9587 675 65.8696 126.154 365.225
217 0 54.117 12.9349 700 66.0243 126.284 363.389
218 0 55.0478 12.8434 707 66.8628 126.078 361.239
219 0 58.0453 13.8513 804 64.8234 126.021 360.981
220 0 60.1152 13.1082 788 65.8668 125.816 361.668
221 0 61.1039 14.0908 861 64.4994 125.524 360.873
222 0 63.0393 13.9913 882 64.9399 125.633 359.053
223 0 63.0409 12.6902 800 67.17 125.36 357.993
224 0 67.0903 12.9378 868 66.2512 125.872 358.028
225 0 69.0322 13.7907 952 65.0221 125.795 356.692
226 0 70.0544 13.6608 957 65.7398 126.008 356.259
227 0 74.0978 14.4809 1073 64.1845 125.367 355.915
228 0 76.1056 14.966 1139 63.4407 125.504 356.399
229 0 77.0311 13.6179 1049 65.0019 125.39 358.194
230 0 78.0707 13.9873 1092 65.7134 125.126 354.535
231 1 42.0303 11.3252 476 68.4307 125.3 369.595
232 0 44.0517 11.0098 485 67.7464 125.082 372.845
233 0 47.1307 12.5396 591 65.1218 126.059 372.54
234 0 45.0936 11.9529 539 67.5622 126.365 370.954
235 0 45.0738 12.4463 561 67.8895 126.34 370.824
236 0 49.091 12.9148 634 66.4338 126.276 369.656
237 0 50.0986 13.7529 689 65.7881 126.627 367.479
238 0 52.0421 12.2785 639 67.7136 126.577 368.257
239 0 53.0211 12.6176 669 67.6846 126.552 368.034
240 0 55.0612 12.7131 700 67.3643 126.021 368.439
241 0 57.0918 13.0316 744 67.2944 126.277 366.566
242 0 58.0615 12.4006 720 68.5319 126.026 366.464
243 0 62.0872 14.4474 897 65.4894 125.62 365.464
244 0 61.0869 13.5053 825 68.4594 125.855 363.381
245 0 64.0571 13.6753 876 67.3288 126.025 366.047
246 0 64.101 13.4319 861 69.0836 126.136 363.132
247 0 67.0667 13.7773 924 68.2911 125.915 363.778
248 0 69.0659 13.1034 905 69.5072 125.672 361.057
249 0 70.0395 12.5643 880 71.2886 125.744 358.775
250 0 73.0873 13.3539 976 70.2746 125.723 357.454
251 0 76.085 13.3141 1013 70.0089 126.019 358.534
252 0 80.1409 13.5012 1082 69.6608 126.085 358.468
253 0 81.0657 13.5569 1099 69.4595 125.856 359.02
254 0 81.1979 12.4634 1012 72.0692 125.768 357.084
255 0 86.0856 14.1371 1217 68.7108 125.823 357.035
256 0 90.0562 14.4021 1297 68.781 125.719 354.86
257 0 93.1762 13.8447 1290 69.7186 125.594 353.811
258 0 94.1573 14.1784 1335 70.1071 125.775 350.737
259 0 97.2005 14.3518 1395 70.0746 125.875 347.841
260 0 99.2125 14.2422 1413 70.4579 125.861 346.946
261 0 104.078 14.9984 1561 68.3133 126.024 350.082
262 0 106.044 14.4091 1528 69.8973 125.759 344.827
263 0 110.12 14.4206 1588 69.9093 125.882 340.827
264 0 113.085 15.201 1719 68.8185 125.652 340.419
265 0 115.105 16.6282 1914 66.6322 126.538 340.102
266 0 119.117 14.8257 1766 69.1308 126.512 340.615
267 0 121.135 16.1391 1955 67.2189 125.974 337.263
268 0 124.085 14.2725 1771 69.5285 126.125 338.061
269 1 71.0532 11.4281 812 71.548 127.309 363.4
270 0 72.0595 11.8097 851 70.2409 127.041 364.135
271 0 74.0911 13.7533 1019 69.1933 126.884 358.692
272 0 77.0461 14.8353 1143 67.2371 126.91 359.087
273 0 79.0295 11.211 886 72.509 126.843 356.139
274 0 81.1097 12.7975 1038 69.8362 127.189 357.107
275 0 83.0493 13.8472 1150 68.8817 126.693 355.914
276 0 87.0962 13.4793 1174 69.207 126.633 354.04
277 0 90.1252 13.5478 1221 68.5823 126.401 353.262
278 0 94.0619 13.3317 1254 68.378 125.878 353.076
279 0 96.0847 12.3329 1185 70.2346 125.566 351.153
280 0 98.1505 13.0208 1278 69.8216 126.2 350.185
281 0 103.14 13.2344 1365 69.7245 125.492 348.723
282 1 56.0575 11.2385 630 69.9317 125.527 370.875
283 0 57.0978 13.4506 768 68.6862 126.038 368.781
284 0 58.0583 11.988 696 71.3132 125.866 367.961
285 0 60.0493 11.5072 691 72.1129 126.139 366.234
286 0 63.0444 13.1177 827 69.1536 125.88 366.534
287 0 65.0995 13.4563 876 68.5947 126.815 365.539
288 0 68.0826 12.3967 844 70.2239 126.143 365.03
289 0 70.1121 14.2344 998 66.999 126.437 363.613
290 0 70.0529 13.4755 944 69.3167 125.965 361.637
291 0 73.0673 13.7134 1002 68.483 126.666 362.466
292 0 76.0556 12.6618 963 69.7425 126.286 362.573
293 0 77.1641 13.2704 1024 69.3037 126.803 360.673
294 0 80.1265 12.942 1037 70.161 126.863 359.264
295 0 82.0939 12.1325 996 71.6827 126.51 357.473
296 1 44.1175 10.6987 472 69.4513 126.602 377.097
297 0 42.0225 11.0179 463 70.9028 126.657 374.898
298 0 44.0498 10.8287 477 69.8302 126.556 376.266
299 0 47.0603 10.9434 515 70.0272 126.212 376.179
300 0 47.0722 11.1531 525 70.9752 125.916 373.029
301 0 50.074 12.0422 603 69.7695 126.594 372.501
302 0 52.0394 12.1062 630 69.1413 126.563 371.697
303 0 53.0754 12.7178 675 68.2444 127.01 371.339
304 0 54.0997 12.0149 650 68.8538 127.068 371.06
305 0 57.1123 11.8889 679 68.8351 127.044 370.243
306 0 57.1658 12.4375 711 68.391 126.044 368.9
307 0 60.0817 13.3984 805 66.7205 126.303 367.23
308 0 61.2506 11.2652 690 69.4217 126.107 367.059
309 0 63.093 11.2215 708 69.2387 126.305 367.201
310 0 66.1072 13.7201 907 63.9779 126.204 368.574
311 0 66.0948 12.5577 830 66.6012 125.54 366.343
312 0 67.1392 12.4666 837 66.589 126.271 364.809
313 0 72.1312 11.5761 835 67.2383 127.223 364.474
314 0 71.0688 11.1441 792 68.7386 126.922 362.835
315 0 72.1894 10.8603 784 69.3916 126.616 361.681
316 0 75.107 10.4118 782 69.6087 126.035 358.953
317 1 43.0869 8.51767 367 69.248 126.008 374.864
318 0 42.0469 9.96507 419 68.6754 125.351 372.425
319 0 46.0401 11.0121 507 67.4103 125.568 371.25
320 0 48.0315 10.5347 506 67.5277 125.219 372.419
321 0 49.0954 12.2822 603 63.9121 125.682 371.774
322 0 51.0519 11.1847 571 65.0228 126.461 373.403
323 0 52.1336 12.2761 640 64.6063 126.403 369.775
324 0 53.0659 10.9487 581 67.1721 126.565 368.098
325 0 56.0512 12.9168 724 63.6312 126.634 368.145
326 0 57.1251 12.6389 722 64.3864 125.886 367.558
327 0 58.1504 11.7626 684 66.0936 126.041 367.085
328 0 59.0231 11.3515 670 67.3269 126.44 364.242
329 0 62.1967 13.5859 845 63.0178 126.462 367.398
330 0 63.0538 12.4973 788 64.0977 126.689 366.388
331 0 65.0727 11.71 762 65.5026 126.839 361.188
332 0 69.0825 11.4501 791 65.4678 127.035 361.057
333 0 69.2215 12.1205 839 64.3945 127.354 362.455
334 0 72.1405 11.4083 823 65.3378 126.447 360.05
335 0 75.1032 11.6906 878 64.2289 126.732 359.663
336 0 77.0982 12.7759 985 62.2081 126.619 361.132
337 0 80.1097 11.4343 916 64.5786 126.831 357.586
338 0 81.1488 11.3865 924 64.3236 125.986 359.248
339 0 84.1092 9.49956 799 65.8886 125.756 359.347
340 0 89.0969 12.1777 1085 62.1972 125.689 355.732
341 1 47.0339 10.333 486 64.9012 126.15 373.44
342 0 49.0329 13.0932 642 61.1075 126.43 372.916
343 0 50.0368 12.7506 638 62.2962 126.313 370.987
344 0 51.0555 10.5375 538 64.9033 126.13 370.55
345 0 53.0329 11.4646 608 62.8174 126.171 372.928
346 0 55.184 11.072 611 63.8805 126.561 369.645
347 0 56.0608 13.0751 733 61.8881 126.172 366.656
348 0 60.0617 12.1209 728 62.3654 125.986 367.422
349 0 62.0879 11.1133 690 64.0957 126.162 366.806
350 0 63.1064 13.1049 827 62.2019 125.747 363.129
351 0 65.1121 12.8855 839 62.0524 125.775 363.143
352 0 68.0692 12.2669 835 63.0587 125.521 361.004
353 0 71.0909 12.3504 878 62.6264 125.051 361.305
354 0 72.0406 14.3114 1031 60.3482 125.676 357.467
355 0 75.0877 12.5187 940 62.2436 125.922 357.307
356 0 77.1085 12.3462 952 62.8981 126.549 356.708
357 0 81.1438 11.6337 944 63.0095 126.459 357.566
358 0 80.1576 10.8037 866 65.1732 125.732 353.838
359 1 42.0114 9.66405 406 65.4606 125.798 373.367
360 0 43.0583 11.798 508 62.5039 126.091 373.274
361 0 45.0833 10.8909 491 63.4562 126.422 372.625
362 0 46.0057 10.9552 504 64.498 126.446 371.345
363 0 51.0838 14.1141 721 59.3537 127.326 372.778
364 0 50.0164 11.9961 600 63.6067 126.85 370.152
365 0 51.0394 11.4813 586 63.7867 126.299 371.323
366 0 53.0406 13.1974 700 61.6371 126.976 370.719
367 0 55.0468 11.9535 658 63.9179 126.976 369.152
368 0 55.0275 13.4842 742 63.1792 126.751 364.875
369 0 57.048 12.5684 717 63.8591 126.464 363.996
370 0 59.1441 10.7703 637 66.0565 125.945 363.414
371 0 60.0935 13.0963 787 63.5222 126.72 359.877
372 0 62.0667 11.4554 711 65.1449 126.286 360.471
373 0 65.0695 13.8467 901 62.4772 126.492 356.888
374 0 68.2048 13.3422 910 62.7626 126.09 356.615
375 0 69.24 14.4136 998 61.6974 126.572 354.845
376 0 71.0451 13.231 940 63.6 126.788 349.8
377 0 72.0944 13.6488 984 63.3892 126.565 348.15
378 0 74.0951 13.1318 973 64.5807 126.092 344.901
379 0 76.0917 12.7215 968 65.3967 125.902 344.268
380 0 81.0474 13.5476 1098 63.6311 125.449 343.526
381 1 41.0591 12.616 518 65.6004 125.662 360.403
382 0 46.0411 11.0988 511 65.2446 125.616 361.64
383 0 46.0728 11.2214 517 67.2824 125.7 360.598
384 0 49.0887 13.5062 663 63.5189 125.673 360.775
385 0 50.0249 12.8336 642 63.1931 126.321 363.542
386 0 51.0896 11.7637 601 65.7238 126.306 361.686
387 0 52.0731 12.8281 668 64.6467 126.108 361.46
388 0 53.0627 10.7609 571 67.4764 125.623 361.128
389 0 57.1143 14.3747 821 61.2667 126.057 362.865
390 0 59.0861 12.7949 756 63.996 126.5 359.329
391 0 60.1023 11.73 705 65.844 126.335 357.932
392 0 62.0483 12.7642 792 63.3283 125.99 359.09
393 0 64.0984 13.7289 880 62.4375 126.492 356.235
394 0 66.1556 12.259 811 64.0666 126.539 356.194
395 0 67.1302 12.7513 856 63.5689 126.528 353.449
396 0 71.0559 14.2986 1016 60.5108 125.491 354.209
397 0 71.1065 12.0102 854 63.9766 125.919 353.637
398 0 75.1519 13.0269 979 61.8458 125.934 353.611
399 0 76.0981 13.8374 1053 61.7588 125.092 348.508
400 0 78.032 11.5978 905 64.4287 125.655 348.077
401 0 79.0861 10.8742 860 65.586 125.624 348.567
402 0 84.0537 12.7419 1071 62.7768 125.77 348.659
403 1 44.1045 11.1326 491 62.8941 125.67 367.829
