time division length width area intensity CMx CMy
0 0 72.1469 11.5597 834 57.0743 886.556 508.007
1 0 72.1114 10.0677 726 58.4077 886.636 509.183
2 1 38.0923 11.1309 424 54.3491 886.191 526.55
3 0 39.0938 9.92485 388 56.5876 885.858 525.219
4 0 39.0294 10.2231 399 56.5639 885.817 524.596
5 0 40.0285 10.4426 418 55.8421 885.766 524.321
6 0 42.0458 10.3934 437 55.1854 885.053 526.314
7 0 43.0501 9.75608 420 56.8429 885.433 523.495
8 0 44.0711 10.2108 450 55.3711 885.504 525.798
9 0 46.0639 10.9847 506 55.2826 886.265 522.395
10 0 48.0585 11.5484 555 54.5099 886.405 523.564
11 0 50.0541 11.108 556 55.25 886.277 522.887
12 0 52.1351 11.8922 620 54.5742 886.145 519.677
13 0 54.0588 12.3014 665 53.418 886.573 523.586
14 0 53.0635 9.98803 530 56.9094 885.36 522.97
15 0 56.0981 12.2642 688 54.5422 885.102 522.089
16 0 56.1197 10.834 608 56.4309 884.87 521.586
17 0 59.1302 12.65 748 54.9345 885.528 519.449
18 0 59.0252 13.723 810 54.0444 885.678 516.638
19 0 59.0545 10.1601 600 57.57 885.275 519.402
20 0 62.0914 12.1434 754 56.1804 884.94 517.179
21 0 65.0639 13.5866 884 54.2036 885.055 516.274
22 0 65.1208 12.2849 800 56.2275 884.616 515.16
23 0 67.0548 11.6472 781 57.0896 885.52 512.672
24 0 68.1764 11.4849 783 57.1277 885.12 514.439
25 0 73.0863 11.2333 821 56.5847 885.812 516.21
26 0 74.0791 12.9321 958 56.5042 885.822 509.683
27 0 76.0938 13.7068 1043 55.6836 885.734 510.543
28 0 78.1843 12.8159 1002 57.0639 884.649 508.812
29 0 79.048 9.62706 761 60.8279 885.993 510.955
30 0 82.0884 12.8398 1054 57.796 885.346 509.786
31 0 85.1268 12.0879 1029 58.9125 885.258 506.728
32 1 43.0377 12.4542 536 57.2201 885.597 527.763
33 0 41.0199 9.94638 408 61.0221 886.451 526.309
34 0 44.0616 13.2542 584 57.2928 886.584 525.829
35 0 45.0146 10.6632 480 59.7417 886.588 526.35
36 0 46.1534 11.7434 542 59.0314 885.775 525.456
37 0 47.0299 12.8429 604 58.7053 886.356 522.571
38 0 47.0556 9.94567 468 62.2244 886.628 523.906
39 0 49.1261 11.8878 584 59.7791 886.176 522.205
40 0 52.107 12.2824 640 59.4234 887.2 522.267
41 0 50.0322 10.7131 536 61.0299 887.382 522.647
42 0 54.2567 11.3903 618 60.5696 887.568 521.521
43 0 55.0566 12.0421 663 60.6033 886.906 519.451
44 0 57.032 12.5544 716 60.2207 887.522 518.511
45 0 58.0518 11.3175 657 60.7565 886.985 520.28
46 0 60.0608 12.0711 725 60.2538 887.341 519.143
47 0 62.0686 12.5023 776 60.1972 887.573 518.233
48 0 64.1445 11.1155 713 61.101 887.755 519.959
49 0 65.1297 13.5422 882 60.2381 887.881 515.431
50 0 67.0822 12.4921 838 61.2148 887.378 515.325
51 0 69.091 11.7237 810 63.2926 887.098 512.264
52 0 71.1691 11.6062 826 62.9939 887.133 511.598
53 0 74.1701 13.132 974 62.0565 887.805 510.924
54 0 77.0609 12.3279 950 62.9853 887.325 511.616
55 0 77.1266 13.5621 1046 63.4646 887.64 508.505
56 0 80.0723 9.71622 778 67.3265 887.788 506.54
57 0 85.0696 13.5771 1155 62.8519 887.529 508.006
58 1 45.0395 11.3456 511 64.9119 888.074 525.023
59 0 47.0569 11.688 550 64.0836 888.493 525.756
60 0 46.0556 12.7889 589 64.2377 888.53 523.681
61 0 48.0341 12.2829 590 64.7102 887.541 523.253
62 0 50.0534 11.4478 573 65.5288 887.48 521.551
63 0 50.0206 9.81595 491 67.3136 887.442 521.578
64 0 52.036 11.5689 602 65.809 887.583 518.703
65 0 54.0407 12.3056 665 65.0165 888.595 519.37
66 0 55.14 10.8814 600 66.825 887.487 519.702
67 0 57.0587 11.9701 683 65.7408 887.921 518.473
68 0 60.1022 11.131 669 66.0493 887.892 519.48
69 0 62.069 12.325 765 65.1307 887.88 518.578
70 0 65.0914 13.0586 850 64.68 887.462 517.741
71 0 66.0729 12.2895 812 67.0246 887.539 514.836
72 0 69.0684 13.1609 909 65.5622 887.855 513.785
73 0 68.0713 12.2078 831 67.1552 887.917 513.647
74 0 73.0541 13.2368 967 65.6949 887.577 512.614
75 0 73.0659 11.3596 830 67.9458 886.867 513.005
76 0 77.1689 12.9456 999 67.028 887.935 509.972
77 0 78.1408 12.3495 965 67.2694 887.486 511.917
78 0 82.0683 12.6967 1042 67.6708 887.243 509.683
79 0 84.0967 12.8067 1077 68.5042 887.73 506.84
80 0 85.0688 12.6721 1078 69.0668 888.273 507.914
81 1 38.017 10.9951 418 68.7273 888.665 528.34
82 0 40.0498 11.1861 448 69.3705 889.342 527.529
83 0 42.015 10.3772 436 69.8486 889.174 528.415
84 0 44.0903 12.6785 559 68.3435 888.887 526.066
85 0 44.0348 13.2395 583 68.3276 888.755 526.479
86 0 46.0355 11.817 544 69.3879 888.752 525.877
87 0 45.032 12.258 552 69.8279 888.42 525.178
88 0 49.0323 12.9098 633 68.5545 888.297 524.324
89 0 51.0425 12.4602 636 69.5236 888.814 523.517
90 0 51.2196 13.4128 687 68.7351 888.854 523.029
91 0 52.0208 13.3024 692 70.2153 888.069 519.915
92 0 55.0889 13.6325 751 69.0573 889.161 520.635
93 0 58.187 13.8003 803 68.8443 889.107 521.13
94 0 60.0471 12.69 762 70.9619 889.542 519.731
95 0 60.0902 12.1318 729 71.439 889.247 520.158
96 0 62.079 13.1284 815 71.0908 888.663 517.912
97 0 64.0902 12.4668 799 72.597 888.663 516.189
98 0 66.0873 12.6651 837 71.8041 888.606 517.969
99 0 67.0536 11.9158 799 73.3792 888.748 513.046
100 0 70.0661 13.0734 916 71.1321 888.564 514.414
101 0 71.0893 12.1959 867 72.7532 888.947 512.61
102 0 74.0656 12.6914 940 71.8202 889.09 512.756
103 0 74.1574 11.988 889 73.6524 889.147 510.411
104 1 36.02 10.3276 372 73.5511 889.484 527.535
105 0 40.0393 12.8873 516 69.5116 888.725 525.87
106 0 39.0417 11.2188 438 71.9292 888.868 526.205
107 0 40.0152 11.6955 468 72.0235 888.143 525.419
108 0 41.0182 11.2145 460 72.0848 888.126 524.893
109 0 42.1106 13.2033 556 69.6061 888.286 523.275
110 0 45.0491 11.7649 530 69.7151 888.394 525.647
111 0 45.0468 12.0541 543 71.1179 888.492 522.912
112 0 44.0514 9.42081 415 73.8627 888.145 523.186
113 0 45.0731 9.67317 436 74.0459 888.849 520.326
114 0 49.0563 11.8232 580 71.0379 888.66 520.45
115 0 50.0256 10.1348 507 72.6982 888.759 522.667
116 0 48.1847 10.6258 512 73.9043 888.922 520.789
117 0 54.0809 11.4458 619 71.8659 888.997 519.669
118 0 54.068 11.4116 617 72.7164 888.742 516.658
119 0 53.028 10.3719 550 74.6018 889.127 517.3
120 0 59.0468 11.3977 673 72.208 888.828 517.749
121 0 59.0332 11.5359 681 71.9736 889.357 517.888
122 0 64.0381 11.3838 729 71.7791 888.492 516.598
123 0 61.1016 12.4547 761 72.0933 888.026 514.411
124 0 65.0525 12.2363 796 71.1068 888.569 515.812
125 0 65.0739 11.2334 731 73.6101 888.793 514.29
126 0 71.0519 12.1038 860 72.3558 888.56 512.61
127 0 71.1565 12.9292 920 72.0641 888.848 512.118
128 0 70.0404 11.1507 781 74.5467 888.005 512.625
129 0 75.1034 12.3563 928 73.9774 887.644 508.029
130 0 75.0644 11.5767 869 75.2612 887.658 509.314
131 0 79.1466 12.4579 986 74.8174 886.799 505.818
132 0 79.0533 10.7649 851 76.5147 886.935 508.093
133 0 85.0834 13.9745 1189 72.603 887.338 503.925
134 0 83.0667 11.0754 920 77.1826 887.995 505.697
135 0 91.0692 12.2764 1118 75.3238 888.513 501.038
136 0 91.1774 11.867 1082 76.1811 888.814 501.064
137 0 92.113 12.9298 1191 74.2317 888.917 503.404
138 0 99.0741 9.69981 961 77.9781 888.154 503.824
139 0 100.155 12.4407 1246 75.5498 887.416 500.379
140 0 99.128 12.0148 1191 77.576 887.538 495.585
141 0 102.069 11.8057 1205 77.7983 888.166 496.381
142 0 106.131 12.7578 1354 76.5473 888.212 492.905
143 0 110.08 12.6908 1397 76.3565 887.911 493.289
144 0 111.122 11.6358 1293 77.8206 887.717 493.556
145 0 114.253 11.2382 1284 78.6192 887.974 489.632
146 1 56.013 10.2119 572 77.1259 888.687 517.323
147 0 61.0628 11.7093 715 74.6434 888.634 514.614
148 0 60.085 10.7681 647 76.7821 887.893 515.468
149 0 63.0146 11.8703 748 75.0936 888.579 513.996
150 0 68.039 11.3758 774 75.5685 887.977 512.72
151 0 67.0757 11.0323 740 76.5919 888.291 512.373
152 0 68.0381 11.0967 755 77.5444 887.709 510.244
153 0 68.0442 10.6108 722 78.5873 887.496 510.625
154 0 70.0708 10.9889 770 76.9182 888.068 513.578
155 1 36.0213 11.1878 403 74.9156 888.638 527.02
156 0 36.0297 11.1297 401 76.0998 888.581 527.219
157 0 40.0336 12.8392 514 72.5953 888.198 526.722
158 0 41.0527 11.6192 477 73.9434 888.237 526.629
159 0 41.0258 12.6262 518 74.1525 888.139 525.728
160 1 88.0314 12.416 1093 75.8801 888.058 504.557
161 0 89.0453 11.1067 989 79.2164 887.579 500.376
162 0 93.167 11.3882 1061 78.3073 888.147 500.574
163 0 95.0798 11.9479 1136 77.7183 888.709 499.396
164 1 48.0804 12.8743 619 73.7383 888.582 520.942
165 0 46.0309 9.16776 422 80.1422 888.668 519.014
166 0 50.0562 11.587 580 75.5879 888.953 518.436
167 0 51.0574 11.6731 596 76.0822 888.68 518.29
168 0 52.047 10.9324 569 76.4517 889.246 518.735
169 0 55.043 10.9914 605 76.1901 888.762 515.405
170 0 57.0901 11.6132 663 75.5113 888.668 515.916
171 0 58.0527 10.7661 625 76.6736 888.379 513.363
172 0 60.0878 10.9839 660 76.053 888.759 513.444
173 0 62.0654 10.4889 651 76.6068 888.725 512.264
174 0 62.0552 10.9258 678 76.413 888.757 510.664
175 0 66.0656 10.0052 661 76.7852 888.607 510.44
176 0 67.0178 8.52013 571 78.8039 889.014 507.268
177 0 70.1276 9.82495 689 77.18 888.193 507.179
178 0 73.0914 10.138 741 76.9663 888.555 505.034
179 0 75.0327 10.1156 759 76.9368 888.39 504.702
180 1 36.0167 9.55113 344 76.093 887.663 524.767
181 0 41.0238 12.5781 516 70.1105 887.793 526.093
182 0 43.018 12.8318 552 70.0091 888.317 524.272
183 0 45.0165 10.2851 463 73.2808 887.765 525.322
184 0 45.0319 12.6577 570 70.8053 887.077 522.6
185 0 46.1172 11.2539 519 72.0443 887.247 523.649
186 0 49.0684 10.4344 512 73.3008 887.277 522.83
187 0 49.0499 11.1315 546 72.0788 886.793 521.159
188 0 51.0296 10.9544 559 71.9982 886.358 521.914
189 0 54.0624 10.8763 588 71.9881 886.094 519.272
190 0 54.0605 12.56 679 70.3829 885.835 518.898
191 0 56.0263 11.0305 618 71.7848 885.481 520.1
192 0 60.0539 11.7561 706 70.1742 885.367 519.101
193 0 61.0731 12.8535 785 69.0306 885.465 518.132
194 0 61.0558 12.2511 748 69.1471 885.608 519.094
195 0 65.0263 12.9486 842 68.0404 886.226 517.966
196 0 66.0851 12.9984 859 68.4226 885.361 514.538
197 0 68.0702 12.9131 879 67.9135 885.356 513.727
198 0 72.0295 12.8836 928 68.0841 884.768 512.815
199 0 72.0534 11.7274 845 69.3811 884.947 512.669
200 0 75.0997 14.1279 1061 65.8143 885.244 510.853
201 0 76.1233 12.0331 916 68.7085 885.929 511.644
202 0 81.1035 11.923 967 68.1727 885.377 512.863
203 0 82.0544 12.5526 1030 67.5505 885.147 509.235
204 0 87.0418 13.8209 1203 65.4904 884.722 508.678
205 1 43.0501 10.964 472 67.9047 884.79 530.083
206 0 44.0301 11.9464 526 66.7015 884.977 529.829
207 0 45.0391 11.3013 509 67.9941 885.379 529.562
208 0 48.0798 13.7896 663 64.8899 884.846 528.268
209 0 48.0723 12.6268 607 65.9951 884.858 529.843
210 0 49.057 11.5988 569 68.2988 884.954 529.148
211 0 51.0648 12.7877 653 65.9755 884.354 526.6
212 0 53.0966 12.2418 650 67.3877 883.666 525.734
213 0 54.1023 12.2546 663 67.1011 884.323 526.652
214 0 57.1624 12.8231 733 66.191 883.132 525.907
215 0 58.0911 13.41 779 66.0359 883.244 522.748
216 0 60.0326 11.8769 713 67.2945 882.774 523.544
217 0 59.024 11.9951 708 68 882.908 522.941
218 0 61.1032 13.649 834 65.964 883.094 519.47
219 0 65.0491 14.0356 913 64.989 882.702 518.92
220 0 67.0883 13.2065 886 65.8657 883.333 518.199
221 0 69.0388 11.9063 822 66.9854 883.628 518.15
222 0 73.1283 13.3874 979 65.2942 882.499 516.169
223 0 73.0813 12.8213 937 66.1323 883.586 515.834
224 0 76.0476 11.4534 871 68.3984 882.875 513.241
225 0 78.0424 10.9812 857 69.1225 882.506 509.582
226 0 83.0968 12.3952 1030 66.6505 882.493 508.85
227 0 87.0551 13.1526 1145 65.0463 881.697 508.81
228 0 87.1196 12.9248 1126 66.4423 882.169 506.38
229 1 47.0298 11.8436 557 64.5853 882.176 526.199
230 0 46.0574 11.6377 536 66.2705 883.004 524.759
231 0 49.0143 10.5888 519 66.79 883.289 524.349
232 0 49.094 12.3844 608 65.852 882.829 521.498
233 0 52.0685 8.25835 430 69.3256 883.333 525.037
234 0 55.0148 11.5423 635 65.578 882.575 521.71
235 0 56.0663 11.7718 660 65.903 883.121 518.453
236 0 57.0958 11.7697 672 65.6339 883.229 518.295
237 0 60.0523 11.873 713 64.324 883.165 518.431
238 0 59.0793 10.3759 613 67.2675 882.953 514.029
239 0 64.0873 13.4036 859 62.482 883.705 515.399
240 0 65.0707 11.1417 725 64.9241 883.865 515.465
241 0 69.1535 12.4361 860 63.0116 884.033 513.077
242 0 71.1347 12.7083 904 62.6095 883.362 511.999
243 0 75.1421 11.8176 888 62.9764 883.651 510.68
244 0 76.1035 12.6407 962 62.2796 883.844 508.895
245 0 79.0731 12.0521 953 62.8132 883.247 506.664
246 0 80.1433 11.3297 908 63.5308 883.327 507.221
247 0 85.1799 12.996 1107 61.6152 883.763 504.439
248 0 86.1705 11.9995 1034 62.2118 884.267 506.785
249 0 91.0579 13.0906 1192 60.5545 884.164 505.332
250 1 44.0251 10.5849 466 60.8197 884.502 526.948
251 0 47.0315 11.5454 543 59.6556 884.291 524.256
252 0 46.0203 10.604 488 62.0984 884.705 522.865
253 0 49.1365 11.6003 570 60.3579 884.567 523.526
254 0 50.0269 11.194 560 60.2161 884.852 524.271
255 0 51.0432 11.0103 562 60.4431 885.343 523.827
256 0 52.0634 11.0826 577 61.1005 884.837 522.87
257 0 54.0751 10.0231 542 61.9889 885.066 521.834
258 0 56.0674 10.1842 571 60.7391 884.736 523.832
259 0 57.0386 10.5367 601 61.3461 884.088 521.005
260 0 58.0959 10.7753 626 60.7428 884.177 519.118
261 0 61.1722 15.252 933 55.0268 884.388 518.449
262 0 63.0601 11.8617 748 58.4398 884.135 518.551
263 0 64.1275 12.6311 810 58.2741 884.556 515.794
264 0 64.058 9.66312 619 60.7658 884.265 518.034
265 0 70.0786 11.6155 814 58.2432 884.244 518.985
266 0 72.0857 12.5129 902 57.898 884.033 515.389
267 0 72.1268 10.6063 765 60.1529 884.159 512.942
268 0 75.0922 11.8787 892 58.7276 884.205 512.771
269 0 77.0947 12.0242 927 58.6893 883.848 511.712
270 0 79.1015 11.5674 915 58.8142 883.462 512.957
271 0 82.0743 9.04059 742 61.6051 882.899 512.181
272 1 40.0534 9.36249 375 60.0427 883.533 530.453
273 0 44.0992 10.2269 451 59.1131 882.876 529.064
274 0 46.0384 9.49207 437 59.3272 882.975 531.4
275 0 46.1034 11.6477 537 57.7821 882.877 530.248
276 0 48.1024 12.4734 600 57.4117 882.977 527.438
277 0 50.068 11.1249 557 58.4327 882.846 528.693
278 0 50.0814 11.3216 567 58.9471 882.647 526.675
279 0 50.0729 11.1637 559 59.5492 882.401 525.785
280 0 53.0421 10.4257 553 59.4684 882.895 528.749
281 0 54.0599 10.8583 587 59.6474 882.746 526.223
282 0 58.03 11.4424 664 58.9548 882.839 525.02
283 0 58.0899 12.5495 729 58.8861 882.021 522.635
284 0 59.0619 9.58317 566 61.4011 882.071 525.281
285 0 62.0177 10.9969 682 59.8534 881.598 525.059
286 0 66.0847 12.7261 841 58.2806 881.938 522.954
287 0 65.1146 12.3782 806 59.5199 881.847 522.463
288 0 69.0768 12.8408 887 59.6437 881.998 518.932
289 0 71.1377 13.1716 937 59.0021 881.566 518.832
290 0 72.0433 12.7146 916 60.2544 881.434 518.551
291 0 75.1407 13.7875 1036 59.5473 881.87 516.74
292 0 78.096 12.0237 939 60.7614 881.656 519.545
293 0 79.0551 12.9277 1022 61.0969 881.514 515.004
294 1 40.0502 11.2109 449 60.657 882.517 534.065
295 0 42.0739 10.1488 427 62.0726 882.173 533.251
296 0 43.0273 10.993 473 61.6152 881.569 531.632
297 0 43.0593 11.6351 501 61.6367 881.345 530.253
298 0 46.0241 12.4283 572 60.3287 882.39 529.921
299 0 44.1018 9.29667 410 65.5293 881.668 529.488
300 0 47.0431 11.2238 528 62.8409 881.705 528.831
301 0 50.068 13.0622 654 60.4006 881.731 526.843
302 0 50.0235 11.7545 588 63.2585 881.401 526.726
303 0 52.0517 11.4309 595 62.995 882.484 526.578
304 0 52.0391 13.6628 711 61.0098 882.136 523.504
305 0 55.0599 11.9143 656 62.1997 881.84 525.259
306 0 55.0732 10.7675 593 63.8769 881.712 524.45
307 0 59.0531 12.294 726 62.0262 881.529 521.988
308 0 59.0388 10.654 629 64.4706 881.833 520.68
309 0 63.0659 11.7338 740 63.0568 881.765 519.877
310 0 64.053 11.3968 730 63.0548 881.834 520.915
311 0 67.1158 13.0968 879 61.4209 882.125 518.567
312 0 67.0295 10.2492 687 65.4614 882.338 516.376
313 0 70.0561 12.3901 868 63.1774 882.266 515.104
314 0 72.1058 11.2612 812 65.0246 881.421 513.562
315 0 74.0369 10.3732 768 66.0768 881.118 512.904
316 0 77.0433 10.4357 804 66.0609 882.286 513.694
317 1 42.0221 10.3993 437 63.9886 881.824 529.469
318 0 43.0582 10.3581 446 64.2982 882.121 527.814
319 0 43.0218 10.0414 432 64.6481 882.88 529.37
320 0 47.0539 12.6876 597 61.8141 882.972 526.558
321 0 47.0498 12.2424 576 62.9722 883.219 525.453
322 0 48.0268 11.5144 553 63.5371 882.955 526.201
323 0 50.0132 9.65746 483 65.5797 882.505 527.176
324 0 52.0386 10.9918 572 63.4948 882.752 527.439
325 0 54.1127 12.9729 702 61.6496 882.501 523.454
326 0 55.0724 11.385 627 64.0606 881.895 523.016
327 0 55.0404 12.5362 690 62.9884 881.067 521.503
328 0 59.1427 11.8696 702 62.6425 882.053 522.607
329 0 60.056 12.2885 738 62.103 882.245 523.358
330 0 61.0696 11.1676 682 63.6569 882.155 522.512
331 0 63.0754 13.3333 841 61.9679 882.573 518.386
332 0 65.1791 12.7035 828 62.6341 882.239 519.101
333 0 68.0323 12.2295 832 62.9591 881.875 517.733
334 0 70.077 12.1581 852 63.3709 881.789 515.565
335 1 35.0149 10.9382 383 61.0601 882.251 533.697
336 0 36.0558 9.84585 355 62.4169 881.907 533.335
337 0 36.0236 10.4931 378 63.0344 882.132 531.22
338 0 34.0314 8.96232 305 65.341 882.279 532.203
339 0 38.045 11.5127 438 61.4452 883.1 531.345
340 0 39.0682 10.904 426 62.5094 882.42 531.404
341 0 41.0287 11.1873 459 62.5011 882.431 529.928
342 0 44.0483 11.1014 489 61.9755 882.239 529.703
343 0 44.0563 10.8044 476 63.0126 881.964 527.782
344 0 42.038 9.13459 384 65.7526 882.464 527.76
345 0 46.0669 10.9189 503 62.5149 882.779 528.702
346 0 45.0795 9.8049 442 65.4796 882.88 526.394
347 0 49.0236 10.0564 493 64.6308 883.138 524.988
348 0 48.0201 11.0579 531 63.5198 883.104 526.75
349 0 49.0844 9.47348 465 66.1204 882.508 524.065
350 0 52.0348 11.6845 608 62.8339 882.447 523.632
351 0 55.0286 11.5576 636 62.2814 882.586 522.541
352 0 53.0322 10.6916 567 63.1093 882.508 522.854
353 0 58.0558 11.0756 643 62.2722 882.342 520.63
354 0 58.0353 10.8038 627 63.2185 882.951 518.644
355 0 59.0859 10.0701 595 63.0319 881.746 519.109
356 0 63.1094 11.0918 700 61.2043 881.714 518.486
357 0 64.0772 10.9243 700 62.1543 882.003 517.137
358 0 66.0808 10.1694 672 62.7083 882.731 514.135
359 0 66.0913 9.89539 654 61.9266 883.277 515.338
360 0 70.0528 9.83544 689 61.926 882.531 512.756
361 0 71.066 8.21771 584 63.7106 882.603 513.563
362 1 34.0446 10.8975 371 58.3935 882.167 530.547
363 0 36.1049 8.30912 300 60.56 882.28 530.043
364 0 39.0581 10.4972 410 58.8098 882.588 528.739
365 0 41.0563 10.3517 425 58.0682 882.195 530.367
366 0 39.0223 9.07174 354 60.4576 882.788 528.98
367 0 42.0353 10.2295 430 58.8628 882.247 528.226
368 0 40.0738 10.7552 431 59.239 883.102 528.483
369 0 41.1588 9.79135 403 60.4963 882.154 527.519
370 0 45.0616 9.54249 430 59.8674 882.442 526.737
371 0 44.0316 10.1291 446 59.8072 882.549 526.821
372 0 47.0129 10.0823 474 59.7384 882.175 525.046
373 0 48.1086 9.1044 438 59.9041 882.438 525.233
374 0 48.0615 9.90397 476 59.8761 882.116 523.17
375 0 50.0732 9.92547 497 58.9839 882.396 521.765
376 0 53.0292 11.9368 633 56.5814 882.897 522.213
377 0 55.0796 10.6391 586 57.9522 883.051 522.677
378 0 55.0905 10.4011 573 58.6963 882.838 519.461
379 0 56.1205 11.5466 648 57.7083 882.671 519.179
380 0 59.0783 11.2393 664 57.9744 881.982 516.62
381 0 61.0838 10.7066 654 58.4602 881.988 518.913
382 0 61.1999 10.2941 630 59.0508 881.732 517.006
383 0 64.0975 10.5152 674 58.4362 882.076 516.114
384 0 65.1126 9.70626 632 59.6788 881.756 515.079
385 0 67.0617 8.81278 591 60.7462 881.323 513.389
386 0 70.2628 9.53563 670 60.006 881.688 510.322
387 0 73.1417 9.76188 714 59.6317 881.853 511.018
388 0 75.1273 9.58374 720 59.9389 881.99 511.608
389 0 77.1826 11.3368 875 58.0994 881.749 508.592
390 0 80.3506 10.6658 857 59.0863 881.58 506.839
391 1 39.0404 8.58086 335 59.8478 880.863 528.567
392 0 42.0569 10.248 431 58.1647 881.784 529.107
393 0 44.0476 10.2616 452 58.7013 882.312 525.615
394 0 42.114 9.9017 417 60.3453 882.417 526.77
395 0 46.0102 11.3018 520 58.6942 881.912 523.817
396 0 49.0348 10.9922 539 58.7106 881.878 525.885
397 0 50.0271 11.8336 592 58.0811 882.292 524.434
398 0 53.0426 9.86001 523 59.914 882.6 525.547
399 0 51.0539 13.378 683 57.4934 882.346 522.845
400 0 53.0442 10.5384 559 59.8283 882.8 521.907
401 0 55.0672 13.1657 725 56.7255 882.818 520.309
402 0 56.0419 11.7055 656 58.5076 883.035 521.934
403 0 58.0657 12.1587 706 57.9164 882.853 519.677
