time division length width area intensity CMx CMy
0 0 45.0512 11.7866 531 82.8719 726.746 501.358
1 0 47.0881 10.6184 500 84.65 725.89 498.92
2 0 50.0292 10.4339 522 83.728 725.651 500.492
3 0 49.0683 10.5567 518 85.3108 724.851 499.842
4 0 52.0589 11.2757 587 83.7019 725.01 498.557
5 0 53.0835 12.5274 665 81.5609 724.612 499.322
6 0 56.0356 13.0096 729 79.2167 724.307 499.16
7 0 58.0769 11.3987 662 82.5287 724.4 497.606
8 0 59.2013 12.618 747 79.9317 723.98 495.269
9 0 60.0531 11.5564 694 82.4265 723.839 494.785
10 0 59.0502 12.5486 741 81.4184 724.283 492.197
11 0 62.0547 10.5713 656 84.5244 724.803 491.204
12 0 63.0601 12.2423 772 81.2759 724.64 489.972
13 0 66.0898 11.9383 789 81.0672 724.188 491.082
14 0 70.0971 11.6981 820 80.0268 724.26 490.435
15 0 72.0794 12.403 894 78.5302 723.719 490.711
16 0 73.086 12.6426 924 78.4156 724.53 488.57
17 0 75.1409 11.2455 845 81.0201 723.76 489.137
18 1 39.1054 8.92459 349 80.8854 723.96 505.656
19 0 42.09 9.85982 415 79.1446 723.19 505.28
20 0 44.1253 9.76765 431 79.7981 722.766 503.787
21 0 45.1861 10.844 490 77.4694 722.839 503.514
22 0 47.0444 10.7345 505 77.9683 722.814 502.228
23 0 46.0575 10.5954 488 78.4898 723.168 502.012
24 0 48.0154 11.4755 551 77.637 723.158 500.367
25 0 50.0711 11.244 563 77.7247 723.35 500.121
26 0 52.0671 12.3879 645 75.9597 722.842 499.873
27 0 54.0517 11.748 635 76.989 722.472 498.584
28 0 55.1193 10.5408 581 78.8571 722.577 499.062
29 0 56.0741 11.2173 629 77.717 723.017 498.954
30 0 56.047 11.2762 632 78.663 722.968 497.218
31 0 60.0718 12.2021 733 76.2865 722.671 496.981
32 0 57.0626 10.9529 625 79.6192 723.002 497.45
33 0 62.1303 11.2506 699 78.103 724.216 494.655
34 0 63.0624 10.9574 691 78.7308 724.3 494.64
35 0 64.0422 11.4768 735 78.4694 724.471 491.967
36 0 64.0754 11.5333 739 78.6536 723.98 489.892
37 0 68.0535 11.344 772 77.9845 723.837 489.618
38 0 70.0404 11.4934 805 77.9342 723.675 488.021
39 0 75.08 13.9318 1046 72.6405 723.924 488.041
40 0 75.0704 10.3103 774 78.7028 723.637 489.034
41 0 78.1564 11.8224 924 76.2175 723.641 486.341
42 1 38.0675 9.32554 355 77.6704 723.741 504.518
43 0 41.0616 11.2757 463 75.067 723.33 503.082
44 0 42.041 10.5373 443 76.0068 723.131 502.971
45 0 43.0404 10.1068 435 76.2782 723.322 502.529
46 0 43.0942 10.187 439 76.9408 723.64 502.137
47 0 46.007 11.4983 529 74.3592 723.75 501.52
48 0 46.007 11.3896 524 118.851 723.76 501.542
49 0 48.0509 12.1122 582 74.0601 723.108 498.1
50 0 52.0195 11.3419 590 74.5695 723.354 498.502
51 0 54.0212 12.421 671 72.5931 723.903 496.891
52 0 55.0882 12.834 707 71.3975 722.761 496.659
53 0 55.0526 9.37286 516 77.4283 723.254 496.221
54 0 58.0318 11.6315 675 73.8681 722.527 496.64
55 0 60.0743 12.0684 725 73.4124 722.397 494.447
56 0 61.041 11.6807 713 73.6087 723.22 495.543
57 0 63.0305 11.6293 733 74.7135 723.633 491.965
58 0 65.0711 12.3711 805 72.4981 723.404 492.04
59 0 66.0873 11.6361 769 74.5254 723.126 489.407
60 0 68.0775 11.7366 799 74.5232 723.196 490.499
61 0 71.034 11.6001 824 74.5158 723.117 488.316
62 0 73.0569 11.5116 841 74.9108 723.404 486.337
63 0 75.0498 11.499 863 74.5539 723.253 488.399
64 0 76.0924 12.3665 941 73.56 722.429 487.752
65 1 41.009 11.022 452 74.1726 722.392 504.015
66 0 42.027 9.54148 401 75.6584 722.718 505.167
67 0 43.0377 11.548 497 73.1207 722.849 503.928
68 0 46.0275 12.7533 587 71.6014 722.634 502.772
69 0 47.016 12.2086 574 72.554 722.303 502.404
70 0 48.0695 11.8786 571 72.3082 721.709 504.347
71 0 50.0279 12.8928 645 71.014 721.567 500.805
72 0 51.0986 12.0551 616 72.2273 722.205 500.019
73 0 52.0733 11.5606 602 73.098 722.656 501.527
74 0 56.126 13.2915 746 69.366 722.263 500.966
75 0 57.1746 11.2462 643 72.1477 722.454 501.04
76 0 59.1583 13.2188 782 69.6381 722.307 498.542
77 0 61.0473 11.9743 731 71.1642 721.869 497.59
78 0 60.1115 12.8761 774 71.0543 722.26 496.99
79 0 63.0359 12.7705 805 70.5453 721.23 496.311
80 0 64.1377 11.3194 726 73.2534 721.218 494.686
81 0 69.0778 13.6223 941 68.7524 722.047 494.845
82 0 70.1303 12.3199 864 71.8588 722.229 492.157
83 0 72.047 13.8521 998 69.2936 722.146 492.23
84 0 74.0553 12.5717 931 71.5188 722.302 490.476
85 0 75.0835 12.2397 919 71.938 722.538 489.882
86 0 78.2745 11.8685 929 72.226 722.973 489.554
87 0 81.0974 13.0091 1055 70.8209 723.029 486.825
88 0 82.0815 12.3414 1013 72.4521 722.713 487.105
89 1 45.0886 12.176 549 72.184 722.732 505.279
90 0 44.1247 10.6516 470 74.017 722.164 505.194
91 0 46.0453 11.4018 525 72.7143 722.272 505.93
92 0 48.0392 11.2408 540 73.4 722.639 504.991
93 0 46.0408 10.8382 499 75.3327 721.998 501.271
94 0 50.0611 11.3062 566 74.0548 722.069 502.442
95 0 51.0693 11.2005 572 74.9476 722.5 501.152
96 0 53.0864 10.8502 576 75.0087 722.405 501.111
97 0 54.1042 12.6053 682 72.4487 722.711 499.735
98 0 55.0339 11.5202 634 75.0962 722.722 498.888
99 0 57.0288 12.1342 692 74.0072 722.282 498.026
100 0 58.0509 12.6096 732 74.2391 722.008 494.761
101 0 60.0734 11.9354 717 75.2315 722.42 495.245
102 0 63.0478 12.6412 797 73.9887 722.532 494.092
103 0 66.1267 13.9429 922 71.8069 722.67 494.264
104 0 66.0448 12.4915 825 75.1297 722.856 492.507
105 0 69.0471 11.1808 772 76.2474 722.214 494.506
106 0 71.0684 11.8477 842 75.9537 722.254 492.462
107 0 72.0872 12.7485 919 76.2198 722.46 489.752
108 0 75.0417 13.3526 1002 75.7814 722.601 486.302
109 0 79.1782 13.1476 1041 75.5437 722.336 488.299
110 1 40.0371 11.0148 441 78.6825 721.363 505.776
111 0 42.06 13.2905 559 75.4061 721.606 505.558
112 0 43.0272 12.9221 556 76.7428 721.806 504.459
113 0 46.13 11.5326 532 78.2293 721.609 505.613
114 0 45.072 12.5133 564 77.9699 722.087 505.608
115 0 48.0339 12.8659 618 77.3997 722.322 504.278
116 0 49.033 13.134 644 77.3137 722.325 503.503
117 0 49.0632 12.1068 594 80.2088 722.345 502.874
118 0 52.0502 14.1018 734 76.2071 721.911 503.941
119 0 51.0319 12.9527 661 80.3162 722.107 501.484
120 0 54.04 12.9534 700 80.0157 721.473 501.13
121 0 57.0518 14.2151 811 76.7682 721.784 501.667
122 0 58.0473 13.8163 802 78.7444 721.476 499.956
123 0 58.0839 12.964 753 80.6534 721.659 500.712
124 0 61.0496 14.824 905 77.7028 721.905 499.118
125 0 62.039 13.6688 848 80.592 721.837 496.545
126 0 63.0998 13.5183 853 80.6319 722.62 498.08
127 0 66.0763 15.1037 998 77.5511 722.861 496.503
128 0 66.0545 12.5805 831 83.3466 722.368 494.59
129 0 68.0651 12.5762 856 83.0292 722.854 494.21
130 0 70.1208 12.8493 901 82.3085 723.259 493.873
131 0 73.0457 12.4716 911 82.9583 723.361 492.847
132 0 76.1419 13.7638 1048 80.2929 723.419 492.589
133 1 37.058 10.9288 405 84.3259 722.706 509.146
134 0 38.0756 12.6853 483 82.1159 722.957 509.114
135 0 42.0636 12.2671 516 80.814 723.126 509.238
136 0 42.05 12.0095 505 82.0614 722.485 507.608
137 0 43.0559 12.7044 547 81.8775 722.74 506.106
138 0 44.036 13.0348 574 81.0017 723.216 507.737
139 0 46.0872 12.3245 568 82.7553 722.704 505.694
140 0 49.1074 13.501 663 80.0045 722.581 504.748
141 0 49.0352 14.0511 689 79.9594 723.001 503.647
142 0 50.0633 12.5641 629 82.3577 722.981 504.426
143 0 52.0422 12.9895 676 81.5592 722.743 502.818
144 0 52.0542 12.5638 654 82.9511 722.509 501.936
145 0 54.0572 12.8013 692 82.5101 722.355 501.483
146 0 57.0803 13.4022 765 81.1895 722.416 499.463
147 0 58.0568 13.7968 801 80.6604 721.628 498.708
148 0 60.0435 13.79 828 80.721 722.355 498.11
149 0 61.0499 14.2015 867 80.2157 722.611 497.518
150 0 64.0653 13.4082 859 81.1525 722.572 497.05
151 0 66.0826 14.0279 927 78.7562 722.718 497.519
152 0 65.074 13.016 847 81.8347 722.28 495.911
153 0 70.0422 15.1908 1064 77.1767 722.605 496.85
154 0 72.1037 13.0784 943 81.0456 723.367 494.072
155 1 35.0455 13.4397 471 80.5202 723.425 510.981
156 0 35.0247 12.791 448 82.4219 723.509 509.377
157 0 38.0699 14.2107 541 78.8336 722.246 509.076
158 0 39.1173 12.8588 503 81.5567 722.839 508.775
159 0 39.0123 13.5342 528 79.3201 722.814 510.877
160 0 40.0731 12.5022 501 82.1796 722.914 508.481
161 0 41.1135 14.01 576 79.9983 723.387 506.894
162 0 44.0517 12.508 551 81.8167 723.795 506.693
163 0 45.0805 13.2208 596 80.5738 724.121 505.466
164 0 45.0423 13.2542 597 81.2647 723.704 504.71
165 0 47.0696 12.8745 606 81.9983 724.297 504.028
166 0 47.025 11.866 558 83.9946 724.016 503.986
167 0 50.0577 13.3446 668 80.3802 724.225 503.792
168 0 51.072 14.6851 750 77.9187 724.147 502.96
169 0 51.1081 12.0529 616 82.3977 724.336 503.276
170 0 54.0275 15.0479 813 77.0824 723.047 501.413
171 0 56.1436 13.4655 756 79.5675 723.321 500.106
172 0 56.1677 13.2638 745 80.2013 723.774 499.219
173 0 57.0708 12.283 701 81.4565 723.32 498.802
174 0 58.0313 11.9763 695 81.764 723.446 498.062
175 0 61.055 12.5133 764 79.7853 723.877 497.309
176 0 63.0941 12.6795 800 79.31 723.079 496.861
177 0 66.1485 11.6556 771 80.1764 723.481 495.589
178 0 67.1874 12.6065 847 78.706 723.421 494.296
179 0 71.044 12.1052 860 78.407 722.923 493.793
180 1 36.0251 11.4642 413 79.4867 723.034 509.659
181 0 36.0107 11.3022 407 80.4742 722.939 509.155
182 0 38.03 10.6232 404 81.4307 723.193 508.502
183 0 40.0503 12.7839 512 78.4102 723.482 507.734
184 0 40.0875 11.6994 469 80.5458 723.414 507.409
185 0 42.065 11.6724 491 80.0509 723.756 507.371
186 0 45.0717 13.7115 618 76.0227 724.427 505.67
187 0 47.0468 13.6672 643 75.8367 723.862 505.331
188 0 48.0505 13.6731 657 75.9482 723.877 504.461
189 0 48.0298 12.4714 599 78.7679 723.172 503.756
190 0 52.0486 13.4105 698 75.5244 722.981 504.683
191 0 50.0453 12.2089 611 79.1375 722.948 501.971
192 0 52.2012 11.9537 624 79.0753 722.942 500.708
193 0 54.0518 14.2086 768 75.2552 723.758 502.366
194 0 55.0566 13.2409 729 77.2798 723.816 500.413
195 0 57.1014 13.4673 769 76.5709 723.679 499.724
196 0 58.1308 14.1921 825 75.4848 723.685 499.828
197 0 61.0681 13.1984 806 76.7184 723.46 497.531
198 0 64.046 14.8643 952 73.4506 723.304 498.036
199 0 65.1744 13.3334 869 75.8493 723.331 496.602
200 0 69.2075 13.7846 954 74.1719 723.184 495.749
201 0 70.1011 13.452 943 74.9247 723.355 494.973
202 0 73.1213 13.5118 988 74.7844 723.448 494.891
203 0 75.1257 15.2145 1143 72.3727 723.512 489.692
204 1 39.0426 11.5515 451 78.0488 723.623 509.459
205 0 39.0168 13.1482 513 76.8596 722.871 508.15
206 0 41.122 14.2746 587 74.5486 722.993 506.956
207 0 41.0238 13.6994 562 74.2598 722.61 505.826
208 0 42.0392 14.7244 619 71.8078 722.468 507.816
209 0 45.0489 13.1857 594 73.936 723.258 504.519
210 0 48.1195 13.8821 668 72.4222 723.109 503.397
211 0 48.0673 12.8154 616 74.1331 723.258 504.554
212 0 50.0217 12.4946 625 74.608 722.923 503.542
213 0 51.0457 14.4576 738 71.8144 722.748 503.427
214 0 54.1008 14.1403 765 71.4444 722.569 502.787
215 0 55.0686 13.3107 733 73.3356 723.085 500.85
216 0 57.0295 14.4837 826 71.414 722.85 499.667
217 0 58.083 13.3258 774 72.9044 723.156 500.388
218 0 60.1003 15.7237 945 69.7439 723.633 497.854
219 0 62.1233 14.1332 878 71.4009 723.604 499.296
220 0 64.0513 15.3783 985 69.1777 723.013 495.925
221 0 66.1545 13.3324 882 72.3878 723.241 495.454
222 0 69.1013 16.3383 1129 67.5474 723.046 495.521
223 0 70.1054 12.0818 847 74.1098 723.133 490.759
224 0 73.2298 13.9834 1024 70.4336 723.25 492.299
225 0 76.0594 14.1468 1076 69.9861 723.273 491.048
226 0 77.2835 13.3276 1030 71.3825 723.661 490.277
227 0 80.1837 13.4317 1077 70.8997 723.415 490.025
228 0 82.0333 14.7135 1207 69.2867 723.451 489.152
229 0 85.0313 13.6773 1163 70.2855 722.916 488.304
230 0 87.0867 13.5268 1178 70.5365 722.599 487.526
231 0 89.1035 13.2879 1184 71.2103 722.106 483.576
232 1 44.0658 12.6175 556 71.5647 721.536 506.887
233 0 45.0214 12.8606 579 71.9879 721.737 505.881
234 0 50.0272 15.1718 759 68.0593 722.37 503.228
235 0 51.0252 13.5815 693 70.3016 722.766 503.113
236 0 52.0194 15.0136 781 68.3892 722.736 503.073
237 0 52.0413 12.6822 660 72.5348 723.218 501.232
238 0 55.0719 14.363 791 70.1454 723.215 500.088
239 0 59.1414 15.2009 899 67.2036 723.812 501.493
240 0 58.0419 13.4558 781 71.032 723.519 499.784
241 0 60.0635 16.0497 964 67.5156 723.799 497.085
242 0 61.0347 14.1723 865 70.7503 723.66 496.88
243 0 64.1564 15.0414 965 69.3565 723.399 495.365
244 0 65.0727 13.0316 848 72.7441 723.499 496.2
245 0 65.1451 14.3065 932 71.9582 723.483 493.161
246 0 69.0617 14.1033 974 72.0729 723.389 491.474
247 0 73.1651 14.8978 1090 70.422 723.823 492.525
248 0 74.1719 12.889 956 73.6088 723.689 492.51
249 0 77.1799 13.8637 1070 72.8234 723.455 487.491
250 0 76.0758 14.0255 1067 73.6504 723.332 485.807
251 0 81.1247 13.4484 1091 74.3896 723.44 486.285
252 0 85.1124 13.5233 1151 73.7802 723.354 486.477
253 0 87.1192 14.4055 1255 73.0367 723.056 484.52
254 1 45.0412 13.7652 620 74.8468 722.948 505.071
255 0 47.1605 12.7013 599 76.2922 723.244 505.955
256 0 45.0482 11.0326 497 80.7565 722.833 504.491
257 0 47.0267 13.3541 628 77.6576 723.075 502.502
258 0 50.0479 12.6679 634 78.3912 723.434 501.257
259 0 53.135 13.9456 741 76.2456 723.783 500.87
260 0 54.1291 13.0059 704 77.2344 724.047 501.804
261 0 55.0692 13.819 761 76.2444 723.703 500.356
262 0 59.1966 14.6968 870 73.7138 723.511 499.713
263 0 58.0382 14.2148 825 75.8206 723.324 498.796
264 0 61.0606 13.9861 854 75.8489 723.691 496.871
265 0 63.0721 13.9681 881 75.7299 724.111 496.288
266 0 64.1575 13.8254 887 76.6065 723.998 495.005
267 0 67.0982 15.291 1026 73.7622 724.713 493.636
268 0 68.0714 14.0147 954 75.6761 724.215 495.072
269 0 70.0806 12.8852 903 77.4075 724.086 493.877
270 0 73.1155 14.3335 1048 74.8368 724.545 492.729
271 0 76.0875 15.837 1205 72.5427 724.684 490.222
272 0 78.0782 15.3692 1200 72.8325 723.801 490.067
273 1 41.0623 12.615 518 77.2954 724.093 507.822
274 0 42.1186 12.2749 517 78.3385 724.368 507.248
275 0 43.0867 13.5309 583 77.753 724.304 505.583
276 0 44.0425 12.6696 558 79.3208 724.31 504.575
277 0 46.0546 14.8519 684 75.3421 724.27 504.956
278 0 49.0569 12.7403 625 78.9264 723.91 504.038
279 0 49.0262 13.197 647 78 723.784 504.151
280 0 52.0637 14.5207 756 75.4788 724.169 502.79
281 0 52.0875 13.6885 713 77.7349 723.87 502.306
282 0 54.078 12.8888 697 78.2353 723.785 501.712
283 0 57.0723 16.2776 929 72.6577 723.853 500.895
284 0 59.0879 14.6561 866 75.5427 723.895 498.604
285 0 61.1312 14.3789 879 76.0273 724.255 498.286
286 0 59.1237 14.6303 865 76.8358 724.108 496.63
287 0 63.1194 14.3696 907 75.8247 723.895 499.152
288 0 64.1015 14.087 903 77.3832 723.454 496.184
289 0 68.1511 16.7275 1140 72.7263 723.405 494.359
290 0 68.1441 14.5574 992 76.628 723.345 493.404
291 0 71.2309 15.162 1080 75.7056 723.837 492.627
292 0 74.1569 14.9413 1108 75.3773 723.78 494.204
293 0 77.1106 13.8502 1068 76.7107 723.674 494.113
294 0 79.0312 15.0067 1186 75.4494 723.663 492.374
295 0 79.1772 13.7034 1085 78.7585 723.369 489.665
296 0 83.0849 15.4059 1280 75.8758 723.692 488.518
297 0 85.0798 14.6686 1248 77.5 723.982 486.378
298 0 87.0751 14.7459 1284 77.6885 724.304 485.914
299 1 42.0178 12.5661 528 83.8258 724.261 505.553
300 0 44.0493 12.8947 568 82.5528 723.243 505.023
301 0 46.0202 12.777 588 83.1854 723.643 504.98
302 0 46.0692 13.1107 604 84.8129 723.566 502.576
303 0 48.0774 13.2079 635 83.5984 723.967 504.312
304 0 50.0611 14.1028 706 82.1884 723.516 504.625
305 0 51.0563 13.867 708 83.8799 723.48 501.096
306 0 50.1073 12.5131 627 88.2472 723.764 500.673
307 0 55.119 13.9879 771 84.1816 723.759 500.533
308 0 56.055 14.6107 819 82.8974 724.36 500.357
309 0 58.0272 14.5794 846 83.3747 723.992 498.987
310 0 59.0937 13.5548 801 85.5206 724.132 498.473
311 0 62.0863 15.2207 945 81.8942 724.175 498.263
312 0 63.0503 13.9412 879 85.1354 724.148 496.279
313 0 65.0497 14.2814 929 84.4747 723.928 496.58
314 0 68.0597 15.1925 1034 82.265 724.095 495.28
315 0 68.0656 14.9268 1016 83.1526 723.827 495.844
316 0 72.0435 14.1026 1016 84.4774 723.874 492.969
317 0 74.1213 14.4223 1069 84.7156 723.303 490.382
318 0 76.1004 14.7962 1126 84.2789 723.065 488.232
319 0 77.102 14.5522 1122 85.3895 723.474 487.714
320 0 80.1283 15.1757 1216 84.264 723.497 485.887
321 0 82.0903 15.3611 1261 83.954 723.619 486.136
322 0 84.0654 14.2032 1194 86.6575 723.473 485.799
323 0 88.0854 15.1784 1337 84.4779 723.619 484.907
324 0 88.0791 15.4293 1359 85.401 723.743 481.107
325 0 93.142 15.7931 1471 83.17 723.845 482.954
326 0 96.0694 14.3022 1374 86.2853 722.958 482.352
327 1 49.0901 12.0391 591 90.3469 723.768 500.465
328 0 52.079 13.5179 704 87.4943 723.804 500.381
329 0 53.0675 12.4558 661 89.3449 724.392 500.793
330 0 55.072 13.9091 766 87.4817 724.581 498.691
331 0 56.1193 12.42 697 89.5122 724.486 498.23
332 0 58.1093 14.2834 830 86.3506 724.493 496.255
333 0 61.1049 14.3196 875 85.7166 724.854 497.576
334 0 61.0918 13.1769 805 88.5888 724.498 496.799
335 0 64.1265 13.2083 847 87.5195 724.516 496.155
336 0 66.0598 13.957 922 86.1345 724.631 496.04
337 0 67.0376 13.664 916 86.8035 724.68 496.356
338 0 68.0751 14.0874 959 87.4004 724.279 492.233
339 0 70.0645 13.6446 956 87.9017 724.103 493.64
340 0 72.1416 13.4874 973 88.4193 724.119 491.37
341 0 74.118 12.8984 956 90.1328 724.021 489.992
342 0 77.1324 14.5075 1119 86.6649 724.188 489.035
343 0 81.0509 14.312 1160 86.3345 723.931 488.155
344 0 80.0407 13.0684 1046 90.6807 724.426 486.137
345 0 86.1471 13.7555 1185 87.719 724.191 484.713
346 0 87.2775 14.1846 1238 87.3813 724.014 483.595
347 0 88.0634 12.5364 1104 91.6168 724.052 481.518
348 0 90.0986 13.6406 1229 89.62 723.981 482.098
349 0 95.154 13.578 1292 89.0008 724.293 479.359
350 0 99.1109 14.055 1393 87.1027 723.498 478.245
351 1 53.0797 11.1342 591 88.824 723.049 499.619
352 0 55.1098 12.3027 678 86.3599 723.709 498.201
353 0 59.0486 12.278 725 85.2359 723.509 497.76
354 0 57.0344 11.2914 644 89.0839 723.455 494.77
355 0 58.1024 11.4625 666 88.1486 723.701 494.902
356 0 61.037 11.0425 674 88.5074 724.35 494.682
357 0 63.061 11.2114 707 87.8303 724.054 493.153
358 0 67.067 12.7037 852 84.3955 724.194 492.479
359 0 66.0462 11.3708 751 87.9174 724.55 492.073
360 0 72.0504 13.7959 994 82.3078 724.28 490.611
361 0 72.0475 12.4501 897 85.6533 723.693 489.113
362 0 74.0423 12.1417 899 86.0656 723.31 488.999
363 0 77.0538 12.8222 988 84.3978 723.567 489.652
364 0 79.046 12.4231 982 85.3727 723.711 488.304
365 0 82.0795 12.2564 1006 84.6501 723.399 488.789
366 1 39.0544 10.575 413 82.0048 723.354 505.961
367 0 39.0365 9.17091 358 83.514 723.793 505.587
368 0 43.0444 10.7331 462 79.2727 724.606 506.654
369 0 43.0334 10.2014 439 81.7358 725.128 504.474
370 0 45.0103 10.9308 492 80.1098 725.018 503.821
371 0 44.062 10.6895 471 80.9809 725.263 502.561
372 0 46.0404 9.46994 436 82.4748 724.743 502.046
373 0 50.0597 10.6473 533 80.2739 724.45 499.644
374 0 50.0433 10.8106 541 80.1368 724.471 500.068
375 0 51.04 10.6387 543 80.0571 724.355 498.963
376 0 52.0817 10.5219 548 80.4197 724.115 496.745
377 0 55.1092 10.1979 562 79.7936 723.852 495.379
378 0 54.0715 9.69087 524 81.374 723.739 494.653
379 0 55.0693 10.5322 580 80.7534 723.572 492.724
380 0 60.0707 12.5519 754 76.3687 723.55 492.284
381 0 61.1074 11.2261 686 78.2784 723.316 492.108
382 0 63.1329 11.1986 707 79.1924 723.027 490.064
383 0 64.035 10.6817 684 80.136 723.452 491.509
384 0 67.0918 10.6421 714 78.6527 723.36 491.064
385 0 69.088 10.4504 722 78.6579 723.471 490.161
386 0 72.068 11.8638 855 77.1205 723.23 487.243
387 0 73.0719 11.0439 807 78.2491 723.503 487.634
388 0 76.0956 11.0782 843 77.9466 723.42 486.066
389 1 42.0778 9.79139 412 74.0655 722.624 503.488
390 0 41.0485 9.35478 384 74.3984 723.232 503.37
391 0 41.0592 8.96267 368 75.4565 722.965 501.734
392 0 44.082 10.2082 450 73.4511 723.107 502.282
393 0 46.0798 11.7622 542 70.9686 722.716 501.577
394 0 45.1032 10.6644 481 72.4823 722.775 502.254
395 0 48.0846 10.7311 516 73.4302 724.103 499.322
396 0 51.0639 10.3008 526 73.6597 724.388 498.456
397 0 49.0714 10.1281 497 74.2274 724.799 499.306
398 0 50.0732 8.28787 415 77.2434 724.99 495.451
399 0 56.1089 12.3866 695 69.2475 724.604 495.656
400 0 54.1006 9.37142 507 74.7239 724.26 493.955
401 0 58.0417 10.2857 597 72.1977 724.506 494.142
402 0 58.1469 10.0779 586 72.2201 724.015 495.336
403 0 61.0435 9.19016 561 73.5544 723.774 493.602
404 0 65.067 9.35959 609 73.0148 723.755 491.156
