time division length width area intensity CMx CMy
0 0 52.0646 12.1003 630 67.6032 278.368 519.987
1 0 56.0799 12.9993 729 64.7394 277.823 520.071
2 0 58.0238 13.46 781 64.251 277.471 519.234
3 0 59.0706 14.1187 834 63.0683 277.349 519.032
4 0 60.1178 13.9227 837 63.7455 276.438 517.241
5 0 61.037 12.9102 788 65.2678 276.868 517.442
6 0 62.0291 12.7037 788 65.335 276.456 517.962
7 0 65.0752 13.5382 881 64.3678 275.694 515.63
8 0 67.0433 12.8574 862 64.0093 275.491 518.523
9 0 70.0402 13.2495 928 64.5636 276.5 514.234
10 0 73.0866 15.0917 1103 60.8749 275.897 515.995
11 0 73.0422 13.8139 1009 63.9594 276.033 512.297
12 0 75.1321 13.5362 1017 64.2812 276.042 513.328
13 0 78.0741 15.306 1195 62.1247 276.507 510.849
14 0 79.0692 14.2027 1123 63.4363 275.391 512.106
15 0 83.1287 13.4129 1115 64.3049 276.477 510.625
16 1 40.02 11.6442 466 68.1459 276.961 528.693
17 0 44.0428 13.1917 581 64.5077 276.241 528.616
18 0 43.0483 12.1724 524 67.9275 277.267 525.977
19 0 46.0212 12.4943 575 66.2922 276.859 525.805
20 0 50.1031 12.3146 617 65.5186 276.421 526.425
21 0 49.0131 12.3232 604 64.8212 277.21 528.392
22 0 52.1164 13.6234 710 64.4873 276.883 522.923
23 0 52.0704 13.1361 684 65.2354 276.246 523.591
24 0 52.0594 12.8507 669 67.0673 276.709 521.843
25 0 54.0631 11.8935 643 67.3375 277.14 522.882
26 0 56.0563 13.1297 736 66.5543 276.279 519.981
27 0 59.0246 14.1636 836 64.5239 276.827 519.861
28 0 60.0812 12.9824 780 66.1833 276.631 519.488
29 0 64.1153 13.6629 876 64.9863 277.939 517.826
30 0 65.1437 14.4603 942 63.8079 276.479 515.547
31 0 67.0653 12.4953 838 65.9558 277.853 517.316
32 0 70.0711 12.473 874 65.1796 277.314 516.253
33 0 72.1169 13.0344 940 65.2936 277.168 513.361
34 0 74.1571 12.2847 911 66.146 277.78 511.772
35 0 75.0475 13.8179 1037 64.9026 277.969 509.364
36 0 77.1117 12.5402 967 66.3909 278.12 510.221
37 0 79.0557 11.9915 948 66.9937 278.13 509.562
38 0 81.1213 12.7463 1034 66.9004 278.074 505.598
39 1 44.0449 11.6245 512 65.8418 278.148 526.422
40 0 44.0271 11.4702 505 67.4911 278.733 526.121
41 0 47.1378 11.477 541 66.5878 278.325 526.277
42 0 49.0493 11.4375 561 66.9287 277.631 523.69
43 0 49.043 10.8272 531 68.6083 277.303 522.731
44 0 52.0804 12.6343 658 65.3116 278.144 523.758
45 0 51.0829 11.5303 589 67.9236 277.891 520.489
46 0 53.0596 11.5342 612 67.8105 278.199 520.654
47 0 56.1178 12.6876 712 66.5028 278.761 518.841
48 0 57.1338 12.322 704 66.8963 278.621 519.848
49 0 58.0695 12.8639 747 67.3869 278.383 516.435
50 0 60.1063 12.9936 781 66.2612 278.58 518.038
51 0 59.0904 12.0155 710 68.4915 278.137 516.377
52 0 65.1262 11.9153 776 66.8879 278.419 516.477
53 0 67.0371 14.1862 951 64.0673 278.117 516.538
54 0 67.0659 10.9445 734 68.2248 278.605 515.236
55 0 71.1018 11.8422 842 67.5392 278.721 513.265
56 0 74.1041 12.6309 936 66.7009 278.299 511.122
57 0 74.1589 12.244 908 67.9361 279.218 509.21
58 0 77.0826 11.1439 859 68.5064 278.455 511.275
59 0 81.0787 11.9883 972 67.5195 278.458 508.19
60 0 83.0972 13.3819 1112 66.7905 278.487 504.85
61 0 86.0774 13.2323 1139 66.3889 278.517 506.966
62 1 44.0512 11.8499 522 66.6418 278.002 525.766
63 0 44.0721 11.277 497 68.2596 278.042 524.744
64 0 45.0255 10.3719 467 69.3383 278.645 525.27
65 0 48.0527 12.0909 581 66.8537 278.793 523.484
66 0 50.1693 11.7203 588 67.983 278.872 523.077
67 0 50.082 11.5011 576 67.8542 278.165 522.453
68 0 50.1068 11.5553 579 68.3005 278.39 523.111
69 0 53.0349 11.5396 612 68.3562 278.444 521.255
70 0 54.076 10.5592 571 68.9247 278.231 523.117
71 0 55.0683 12.8023 705 67.2851 277.648 519.17
72 0 57.0354 12.5887 718 67.1407 277.802 518.6
73 0 59.0188 13.3517 788 65.8871 277.689 517.49
74 0 61.0663 13.035 796 65.9347 278.289 518.284
75 0 64.0852 12.2337 784 66.2245 278.091 517.351
76 0 66.0765 13.2725 877 65.2851 277.807 515.555
77 0 68.0359 12.4787 849 66.3934 278.028 514.216
78 0 71.05 12.2168 868 66.8502 278.374 512.395
79 0 71.0429 11.9787 851 67.6216 278.345 511.241
80 0 73.1004 11.9425 873 68.6758 278.683 507.458
81 0 77.1295 11.4612 884 67.8744 278.567 511.188
82 0 78.2122 12.8241 1003 67.4786 279.413 506.66
83 0 82.0971 13.3744 1098 66.6576 278.67 505.84
84 1 40.0304 10.0424 402 68.1866 278.833 526.95
85 0 42.0954 10.6187 447 67.6577 279.02 525.072
86 0 43.0362 9.96835 429 68.7949 278.632 525.186
87 0 44.0444 10.9889 484 67.7335 278.82 524.052
88 0 46.0288 9.66786 445 69.1618 279.184 524.84
89 0 48.0697 12.3362 593 65.7521 279.25 522.847
90 0 49.0828 12.5706 617 65.8655 279.483 522.358
91 0 51.0509 11.6354 594 66.2778 279.38 522.618
92 0 52.0551 10.7962 562 67.7402 279.956 520.941
93 0 53.0925 11.7154 622 66.8698 280.092 521.016
94 0 56.0807 11.4656 643 67.3064 279.555 520.081
95 0 57.0494 11.8143 674 66.8813 279.159 518.519
96 0 57.0936 12.0329 687 67.1994 279.413 518.512
97 0 61.1183 11.1587 682 67.9223 279.154 518.041
98 0 62.1031 12.3021 764 67.377 278.976 516.134
99 0 63.0699 10.1316 639 70.4351 278.609 513.347
100 0 64.0235 9.99633 640 70.8016 278.98 514.086
101 0 68.0939 11.6897 796 68.5955 279.193 511.715
102 0 71.0582 14.4811 1029 64.105 279.408 513.381
103 0 73.0615 11.8393 865 68.2428 279.325 509.166
104 0 73.0621 13.03 952 67.3981 279.626 506.16
105 1 41.0485 11.3281 465 66.5398 279.467 524.488
106 0 41.0483 10.8409 445 68.2629 279.301 521.53
107 0 44.0899 11.726 517 66.7002 278.391 522.663
108 0 44.0374 10.1959 449 67.882 278.688 525.143
109 0 44.0332 12.5814 554 65.2509 277.641 522.756
110 0 47.0299 10.6953 503 68.1909 278.427 521.288
111 0 50.021 11.835 592 65.6436 278.078 521.333
112 0 52.0569 11.8908 619 65.8934 278.061 519.378
113 0 51.0273 11.3077 577 67.5321 278.386 519.395
114 0 54.0593 12.8747 696 64.9167 278.615 517.583
115 0 55.0751 12.1834 671 65.3964 278.566 518.566
116 0 56.0384 12.5093 701 66.1455 278.545 516.491
117 0 56.0779 12.4291 697 66.4075 278.297 516.103
118 0 60.0226 10.9625 658 66.8875 279.211 518.179
119 0 62.135 11.8935 739 66.4438 279.065 514.976
120 0 64.0681 11.8468 759 66.0158 278.938 514.066
121 0 65.0907 11.5531 752 65.9721 279.043 514.217
122 0 67.1617 12.2987 826 66.0569 279.209 510.132
123 0 68.0802 12.8525 875 64.944 278.926 511.715
124 0 70.0481 10.2501 718 67.9304 278.472 511.886
125 0 74.0816 12.9992 963 64.1028 278.73 509.737
126 0 76.0674 12.673 964 64.8029 278.589 507.927
127 0 78.0823 13.6907 1069 63.5828 278.85 505.741
128 0 81.1156 12.9322 1049 64.8341 279.411 503.114
129 0 81.0595 12.2256 991 66.3925 278.871 502.95
130 0 81.0356 10.2547 831 68.1023 278.419 505.982
131 1 44.0283 9.90271 436 67.8922 278.273 520.929
132 0 44.1026 9.9087 437 67.8307 278.449 522.247
133 0 44.053 10.9187 481 67.7609 278.565 520.765
134 0 46.0224 11.4292 526 66.5209 278.567 521.519
135 0 47.0382 11.4588 539 66.8924 279.386 520.263
136 0 48.0386 10.9912 528 67.7746 279.106 519.398
137 0 48.0297 11.6595 560 67.5589 279.277 518.539
138 0 50.1261 10.4935 526 67.8783 278.838 520.392
139 0 53.1609 13.0923 696 65.454 279.254 516.312
140 0 54.0854 11.7037 633 67.3633 279.036 516.131
141 0 55.056 11.0978 611 68.0393 279.684 516.84
142 0 57.0992 13.8531 791 64.6258 279.527 513.479
143 0 58.083 10.4161 605 68.281 279.375 516.064
144 0 62.0856 11.8707 737 65.8765 279.054 516.117
145 0 60.072 10.554 634 69.2476 279.129 511.063
146 0 66.0608 14.744 974 63.3244 278.615 510.452
147 0 68.0625 12.6207 859 65.8731 278.054 511.52
148 0 67.0407 12.4999 838 66.5919 278.376 509.357
149 0 71.0768 13.2111 939 65.5314 278.138 509.111
150 0 73.0558 13.2228 966 65.8716 278.663 507.199
151 0 76.0754 12.6322 961 66.5754 279.071 506.846
152 0 79.0846 13.3907 1059 65.8026 278.645 506.223
153 0 79.1317 12.3086 974 66.6396 278.873 507.355
154 0 84.0597 11.9439 1004 67.6604 279.211 503.937
155 0 85.0595 12.5677 1069 67.7306 279.082 499.813
156 0 88.1683 11.5121 1015 68.5882 279.441 502.009
157 0 91.1099 13.6758 1246 65.4888 278.608 501.562
158 0 94.2222 12.6403 1191 67.0386 278.455 499.851
159 1 47.0168 10.9535 515 66.4097 277.93 523.402
160 0 47.0337 12.119 570 67.0702 278.274 521.126
161 0 49.037 11.7258 575 67.2383 278.797 521.217
162 0 49.0806 12.8972 633 67.1106 278.956 519.823
163 0 50.0248 11.8941 595 67.6151 278.607 520.721
164 0 52.0639 10.7752 561 69.0018 278.845 519.802
165 0 56.0457 13.3106 746 66.0402 278.509 516.601
166 0 57.1556 12.1073 692 67.7038 278.844 516.353
167 0 58.0494 11.8003 685 68.4467 278.416 516.187
168 0 58.0499 12.2481 711 67.5865 279.028 517.024
169 0 63.0561 12.5285 790 67.2367 278.886 513.723
170 0 64.0402 12.7264 815 67.1779 278.572 514.535
171 0 65.0675 12.4179 808 68.8589 278.943 509.623
172 0 67.0347 12.1877 817 68.53 279.563 512.706
173 0 70.0736 11.3738 797 70.128 279.315 510.641
174 0 74.0897 13.6861 1014 67.2939 278.982 508.956
175 0 75.1181 13.4056 1007 68.2731 279.199 508.815
176 0 76.0852 11.6974 890 71.618 279.742 506.02
177 0 78.058 12.5035 976 71.0184 279.013 507.638
178 0 82.1621 13.3395 1096 69.7099 279.03 505.768
179 0 83.1369 12.0885 1005 72.2119 279.714 503.867
180 1 46.0493 13.6376 628 68.3997 279.392 523.78
181 0 43.0216 12.0172 517 73.1489 278.977 522.164
182 0 48.0915 11.4365 550 72.1236 278.705 523.155
183 0 49.0727 10.6373 522 73.3333 278.18 522.956
184 0 50.1028 12.7538 639 71.7574 278.382 521.692
185 0 50.0741 10.6442 533 74.1426 277.477 522.784
186 0 53.0504 12.6295 670 72.603 278.261 519.824
187 0 55.1041 12.8666 709 71.4386 277.577 518.623
188 0 55.0727 11.4576 631 74.6038 277.61 519.097
189 0 55.0203 11.214 617 74.8574 277.057 518.81
190 0 60.05 11.94 717 73.0976 276.802 517.462
191 0 62.1259 12.0723 750 74.432 276.888 514.501
192 0 62.0266 12.0916 750 74.3667 276.568 516.349
193 0 66.0856 12.1055 800 73.4975 276.366 516.984
194 0 69.0389 12.7175 878 72.6925 276 515.804
195 0 68.0553 13.0482 888 73.1745 276.328 514.734
196 0 72.1509 13.0975 945 72.7926 276.168 513.625
197 0 74.1013 10.3102 764 76.2814 276.156 514.499
198 0 77.084 12.6875 978 74.7454 276.438 510.847
199 0 80.1651 11.4763 920 75.7217 276.252 510.874
200 0 82.1715 12.5956 1035 73.7546 276.224 511.091
201 1 45.0255 11.5712 521 73.6583 275.587 528.476
202 0 45.032 11.7028 527 74.4402 275.947 528.607
203 0 45.0327 11.9469 538 73.6636 275.476 529.074
204 0 49.1156 13.0712 642 72.014 274.869 528.232
205 0 51.0366 13.8332 706 70.9235 276.211 526.04
206 0 49.162 10.2925 506 76.9783 275.478 526.85
207 0 54.0395 11.2325 607 73.5091 275.438 527.035
208 0 55.0488 12.389 682 72.5894 275.735 525.491
209 0 56.0576 12.3623 693 72.1688 275.909 526.182
210 0 56.0915 11.1069 623 74.923 275.689 523.315
211 0 61.1504 10.9239 668 72.3623 275.281 524.966
212 0 61.042 12.2375 747 71.8621 274.854 521.475
213 0 64.0446 12.179 780 70.7513 274.146 523.085
214 0 67.09 13.6235 914 69.0492 274.661 520.828
215 0 67.0816 12.1643 816 71.3162 273.3 521.565
216 0 72.1068 12.2873 886 70.2596 273.704 519.842
217 0 73.1349 13.5366 990 68.903 272.943 517.437
218 0 73.0615 11.9899 876 72.3447 274.065 515.63
219 0 76.0466 12.0058 913 72.0898 273.566 512.918
220 0 78.0619 11.2859 881 72.9103 273.418 513.891
221 0 80.0497 12.6297 1011 71.1602 273.5 509.813
222 0 85.1179 12.0421 1025 71.681 273.756 510.167
223 1 42.0474 10.2979 433 74.5358 273.522 528.797
224 0 45.0441 11.7441 529 72.758 273.208 526.098
225 0 49.06 13.2287 649 68.9137 273.134 525.468
226 0 48.1673 13.3493 643 69.0607 273.221 525.728
227 0 51.0394 12.7352 650 68.92 273.335 524.648
228 0 51.0466 12.3025 628 70.2962 272.766 523.005
229 0 55.0973 13.3945 738 67.874 273.724 521.168
230 0 54.0337 11.7149 633 69.6177 273.618 521.984
231 0 57.061 13.2315 755 67.4768 273.856 518.464
232 0 59.0819 12.4404 735 68.3646 273.875 518.799
233 0 59.0338 11.8068 697 69.0803 273.258 517.717
234 0 63.0489 12.0541 760 67.9303 273.571 518.209
235 0 67.0532 12.0203 806 66.7072 273.609 517.653
236 0 66.058 13.3368 881 66.2974 273.05 515.524
237 0 69.037 13.0075 898 66.4042 273.869 512.418
238 0 73.1099 11.9683 875 66.7474 274.167 513.693
239 0 75.0637 13.9881 1050 64.5895 274.453 510.697
240 0 79.1558 13.7956 1092 64.3535 274.681 510.093
241 0 79.0734 12.128 959 66.5589 274.268 509.845
242 0 83.0832 12.2889 1021 66.047 274.39 505.041
243 0 85.1166 13.8516 1179 64.2214 274.699 504.088
244 0 86.0847 11.9998 1033 66.4376 274.152 505.316
245 0 89.157 11.8106 1053 67.6448 273.387 505.111
246 0 91.03 11.6225 1058 67.103 274.398 503.901
247 0 95.2002 12.9201 1230 65.6715 273.794 502.795
248 0 97.0527 11.9317 1158 67.3351 273.896 500.251
249 1 56.0736 12.8938 723 63.7704 275.214 523.379
250 0 55.1087 12.4663 687 65.837 274.665 520.795
251 0 58.1014 12.7708 742 65.2318 274.53 521.686
252 0 59.0505 11.5833 684 66.924 274.196 520.988
253 0 59.0319 10.9771 648 68.2438 275.074 519.651
254 0 61.0409 11.6807 713 66.6928 275.161 519.489
255 0 64.1352 13.5495 869 64.6444 274.253 518.716
256 0 68.0633 12.4884 850 65.2259 274.965 517.249
257 0 68.1002 12.4376 847 65.3837 273.557 517.42
258 0 71.0596 12.1025 860 65.4326 274.321 517.251
259 0 74.1037 13.0763 969 64.2043 273.918 514.45
260 0 76.0902 12.6955 966 64.8872 274.041 514.578
261 0 79.0892 12.3531 977 65.0031 274.108 511.829
262 0 83.1981 12.3681 1029 64.3071 273.906 509.193
263 0 84.0813 12.8447 1080 63.9528 274.079 509.932
264 0 87.1052 12.9958 1132 63.8675 273.734 506.606
265 0 90.078 11.5344 1039 65.5428 273.698 508
266 0 94.0704 12.5119 1177 64.1555 273.712 506.195
267 0 98.1657 13.9254 1367 62.474 273.434 503.102
268 0 99.0626 13.547 1342 63.3338 273.566 503.425
269 1 53.0663 10.044 533 66.1689 273.687 525.467
270 0 56.0722 11.1998 628 63.6401 273.29 526.199
271 0 57.0334 12.1858 695 64.1799 273.751 522.655
272 0 59.0789 11.2731 666 64.3859 273.194 524.038
273 0 62.1008 12.834 797 62.271 273.499 522.951
274 0 61.0505 11.1383 680 64.8059 273.369 520.749
275 0 64.0884 12.9821 832 62.4784 272.537 519.157
276 0 67.0756 12.7468 855 62.4959 272.63 519.738
277 0 69.102 12.1994 843 63.2088 272.688 518.332
278 0 71.1004 11.5611 822 63.6423 272.685 519.943
279 0 75.0785 13.6923 1028 61.0399 272.783 517.854
280 0 76.0596 12.4113 944 62.965 272.903 515.25
281 0 79.1006 11.9595 946 63.9429 272.085 513.817
282 0 82.0489 12.6144 1035 63.4155 271.744 511.289
283 0 87.0599 12.21 1063 62.8758 271.516 514.345
284 0 87.0783 10.5078 915 64.859 271.275 514.301
285 0 92.2277 11.8077 1089 63.8466 272.166 508.77
286 1 46.0614 11.1156 512 61.7285 271.832 532.584
287 0 47.0223 10.1867 479 64.3841 271.743 531.758
288 0 46.0545 11.3344 522 64.6245 272.215 527.766
289 0 47.0265 11.249 529 64.9055 272.202 527.896
290 0 52.0406 12.202 635 63.189 272.06 526.644
291 0 51.0104 13.9383 711 62.5584 272.224 524.812
292 0 54.0989 13.2905 719 62.6328 272.004 526.808
293 0 55.0877 11.4363 630 65.7317 271.932 524.725
294 0 58.0908 13.3067 773 63.7025 272.677 524.435
295 0 58.1116 11.6156 675 66.0785 272.021 522.636
296 0 60.1171 13.7565 827 63.2346 272.058 523.039
297 0 63.1461 12.1306 766 65.6971 271.815 519.905
298 0 65.0866 13.3514 869 64.6824 272.01 519.102
299 0 66.0967 12.6935 839 65.3969 271.987 519.079
300 0 67.1097 12.949 869 65.7215 271.579 516.673
301 0 69.0459 12.5569 867 66.5363 271.779 513.706
302 0 74.1241 12.7759 947 65.7022 271.831 513.649
303 0 74.0801 11.798 874 67.5057 271.971 514.535
304 0 79.1433 13.8609 1097 63.7758 271.5 513.832
305 0 79.1504 11.1939 886 68.2528 271.728 513.79
306 0 84.0969 11.9981 1009 67.1338 272.016 510.469
307 0 85.1162 13.8282 1177 64.5777 271.494 509.099
308 0 87.0999 12.5603 1094 66.5622 271.898 508.892
309 1 44.0174 11.3364 499 67.0641 271.601 526.737
310 0 47.067 11.643 548 64.9033 271.557 529.089
311 0 48.0537 11.0501 531 65.6648 272.354 529.315
312 0 49.0737 10.8816 534 66.5861 271.562 525.846
313 0 49.0293 12.0336 590 65.922 272.125 525.658
314 0 51.1063 11.7207 599 66.6294 271.234 524.861
315 0 54.0845 12.7023 687 64.706 271.068 523.627
316 0 56.0672 12.4315 697 64.7446 271.248 524.017
317 0 57.0385 11.1679 637 66.8352 271.733 520.827
318 0 59.1158 11.3675 672 65.9717 271.342 521.231
319 0 61.0582 11.399 696 65.3261 271.313 520.282
320 0 63.1017 12.5987 795 64.3509 271.819 517.787
321 0 66.115 11.3136 748 65.1858 272.106 519.171
322 0 68.0414 11.5959 789 64.9328 272.466 517.053
323 0 70.0479 13.1196 919 62.1099 271.655 515.94
324 0 73.1089 11.7633 860 63.7895 271.798 514.088
325 1 36.0431 10.4042 375 63.072 271.603 530.736
326 0 36.0177 9.52309 343 63.2945 271.831 532.569
327 0 38.0716 9.9024 377 61.9814 270.931 531.979
328 0 38.0416 9.67363 368 62.9592 272.035 531.318
329 0 41.026 12.0655 495 60.0566 272.541 530.424
330 0 40.0236 10.119 405 62.4025 272.731 529.817
331 0 42.159 11.1008 468 61.1538 272.885 529.541
332 0 41.0698 8.08379 332 66.1325 273.03 528.196
333 0 46.0876 11.0225 508 61.3091 272.341 528.157
334 0 48.0681 9.71538 467 63.4946 271.396 526.998
335 0 48.0405 10.0956 485 62.0433 271.924 527.691
336 0 50.0568 10.2883 515 62.4602 272.105 525.177
337 0 50.1706 11.1619 560 61.9589 272.048 523.5
338 0 52.0955 10.999 573 61.9284 272.562 524.223
339 0 54.1738 11.8138 640 60.4844 272.452 522.02
340 0 56.0676 11.9499 670 59.8716 272.451 522.863
341 0 56.1323 10.9384 614 60.3876 271.871 522.573
342 0 61.0489 12.4818 762 59.5223 272.356 519.474
343 0 61.1856 11.6204 711 60.7257 272.173 517.893
344 0 62.0875 11.516 715 60.5217 271.945 519.526
345 0 62.0966 10.0167 622 63.2379 272.349 517.223
346 0 67.1459 11.3931 765 60.9739 271.922 516.77
347 1 32.1425 8.15119 262 64.1489 273.347 532.485
348 0 37.0234 10.5609 391 60.8414 273.34 531.698
349 0 39.0953 10.4105 407 61.0295 273.654 529.167
350 0 39.0419 9.80996 383 61.1749 273.076 529.869
351 0 40.0384 8.76659 351 48.1709 272.447 529.735
352 0 40.0318 11.0163 441 59.9138 273.231 528.093
353 0 43.0212 10.0416 432 60.9005 272.866 528.37
354 0 42.0598 10.8179 455 61.3407 272.892 527.033
355 0 45.0588 12.1175 546 58.7784 272.071 527.141
356 0 45.0642 10.6515 480 61.1562 272.829 524.5
357 0 46.0675 10.6583 491 61.2464 272.352 526.945
358 0 46.1263 10.7748 497 61.6056 273.115 525.69
359 0 50.0567 10.9276 547 60.4808 273.803 523.938
360 0 51.0453 11.7151 598 59.4532 272.452 523.855
361 0 54.0591 11.7464 635 59.0299 272.424 522.948
362 0 54.0429 10.9358 591 60.3283 272.667 522.494
363 0 54.1113 10.4599 566 61.1272 272.965 520.74
364 0 56.0757 10.6107 595 61.163 273.487 519.467
365 0 59.0886 12.7944 756 58.0648 273.262 517.522
366 0 61.0439 11.8767 725 59.12 273.17 518.855
367 0 63.091 11.0951 700 59.3886 272.874 518.446
368 0 64.0423 9.27512 594 62.064 273.017 514.801
369 0 68.1184 14.6363 997 55.7633 272.897 513.918
370 0 69.0498 11.8176 816 59.1985 272.304 514.797
371 0 71.1377 12.6796 902 58.0155 272.85 513.619
372 1 34.0295 10.197 347 59.7839 272.775 531.758
373 0 36.0325 9.38042 338 59.5325 272.651 533.225
374 0 36.0604 9.09585 328 60.9787 272.759 532.155
375 0 38.0194 12.6514 481 56.3514 273.191 531.272
376 0 36.0541 9.84632 355 61.1521 273.203 529.155
377 0 41.0556 11.935 490 57.7755 272.345 529.673
378 0 42.01 11.9019 500 58.18 272.282 529.238
379 0 45.0215 13.0826 589 56.4414 272.521 528.776
380 0 47.0473 11.7966 555 57.3964 272.077 526.777
381 0 45.0175 10.9735 494 59.6741 272.211 526.998
382 0 45.0265 10.8159 487 60.694 272.181 525.7
383 0 47.0262 11.8445 557 59.7056 272.408 524.549
384 0 49.0318 12.7264 624 58.0385 272.532 526.529
385 0 50.0458 10.7901 540 60.7278 272.241 525.909
386 0 53.0942 11.9787 636 59.8569 272.237 523.877
387 0 54.0688 11.5039 622 60.6849 272.426 523.667
388 0 56.0904 14.0309 787 57.3761 272.881 523.316
389 0 56.0892 12.1414 681 60.2496 272.887 521.097
390 0 59.0912 11.6599 689 60.7663 273.09 520.733
391 0 60.055 11.3563 682 61.0674 272.85 519.277
392 0 61.1048 12.0122 734 60.6158 272.591 518.835
393 0 64.0739 12.3763 793 59.8058 272.584 520.289
394 0 67.11 12.5615 843 60.4365 272.681 517.116
395 0 67.1006 12.2801 824 60.6905 272.231 519.053
396 0 70.0477 10.293 721 63.0416 272.903 517.687
397 0 72.0703 12.1964 879 61.372 272.945 515.521
398 1 39.0114 11.7145 457 59.8775 273.403 533.131
399 0 40.047 9.43892 378 63.6587 273.497 530.81
400 0 41.0558 10.571 434 63.7926 273.786 528.456
401 0 43.1811 11.1391 481 62.9938 273.281 528.472
402 0 44.0607 10.5536 465 62.6301 273.422 529.641
403 0 46.0512 10.9009 502 62.9004 273.524 526.376
