time division length width area intensity CMx CMy
0 0 45.1504 11.7607 531 60.4162 203.211 521.175
1 0 45.0807 11.2909 509 60.8389 202.654 522.768
2 0 47.1138 12.629 595 59.4824 202.099 522.755
3 0 48.1031 12.8682 619 59.8885 202.079 521.011
4 0 51.1755 12.4278 636 59.3742 201.014 521.682
5 0 49.1049 11.8522 582 62.3918 201.51 519.55
6 0 49.187 12.4017 610 61.8443 201.133 521.12
7 0 50.1754 11.4997 577 63.4107 200.222 520.057
8 0 52.1037 11.7458 612 62.5376 200.088 520.962
9 0 52.0703 12.0414 627 63.1499 200.866 517.968
10 0 55.1391 11.8791 655 62.3725 200.42 519.423
11 0 57.0791 12.6666 723 61.2905 200.624 518.317
12 0 57.0431 11.4475 653 63.0123 200.591 518.775
13 0 59.1134 12.1461 718 62.429 200.972 516.251
14 0 60.1033 11.0976 667 64.1694 199.876 515.868
15 0 62.0688 12.3411 766 62.4034 201.007 514.854
16 0 63.1281 11.7222 740 63.3568 201.249 515.578
17 0 66.078 11.9858 792 62.8788 200.604 512.995
18 0 67.1048 11.6683 783 63.6513 201.393 512.932
19 0 69.0647 11.9888 828 63.6944 201.129 511.129
20 0 71.1199 11.7548 836 63.9115 200.732 511.767
21 0 74.1189 12.7498 945 62.7714 201.566 511.692
22 0 76.1974 11.8114 900 64.5878 201.151 509.003
23 0 77.0799 13.4406 1036 62.3967 200.574 510.027
24 1 38.0156 10.8113 411 63.764 201.657 528.1
25 0 37.0472 12.0927 448 63.7299 201.982 527.656
26 0 38.0057 9.94586 378 68.1164 201.103 526.098
27 0 39.0552 10.2163 399 69.4511 201.742 524.647
28 0 41.0326 11.8199 485 66.2412 201.569 525.398
29 0 44.0418 10.7171 472 67.4619 202.828 525.841
30 0 42.0639 11.8154 497 68.1871 201.336 523.008
31 0 44.0554 11.4855 506 68.0474 202.451 523.715
32 0 48.0712 11.0461 531 67.565 202.075 523.16
33 0 48.018 11.3707 546 68.6007 201.817 522.046
34 0 50.0496 12.4077 621 66.7681 202.428 521.681
35 0 51.064 11.7695 601 68.6988 202.684 519.767
36 0 52.0178 12.2458 637 67.9435 202.799 520.538
37 0 53.1194 11.0882 589 69.2632 202.664 520.908
38 0 55.0868 12.1263 668 68.232 202.582 519.208
39 0 57.0228 12.5213 714 67.2311 202.756 518.427
40 0 58.0158 12.2553 711 67.6512 203.098 519.06
41 0 59.0794 11.5607 683 69.2767 202.785 515.687
42 0 60.0622 11.7878 708 69.2288 202.161 513.565
43 0 63.0654 12.8755 812 67.0062 201.74 513.062
44 0 66.1233 13.2026 873 66.9003 202.627 513.332
45 0 65.1433 10.7302 699 70.6495 202.19 513.589
46 0 70.101 12.7102 891 67.4893 202.466 512.9
47 0 71.0274 11.8123 839 69.1192 203.011 511.18
48 0 73.0618 12.4005 906 68.4481 202.93 509.935
49 0 75.1479 12.5752 945 67.9714 202.685 509.333
50 0 77.0391 12.1107 933 68.8896 202.849 505.299
51 0 79.0941 12.7064 1005 68.2975 202.501 505.248
52 0 82.0698 13.0986 1075 67.6809 202.765 505.659
53 0 82.1526 10.8092 888 71.3716 202.372 505.276
54 1 44.0567 11.4171 503 68.159 202.742 521.751
55 0 44.029 11.129 490 68.9673 202.888 520.906
56 0 45.0398 10.2132 460 69.6174 202.515 522.578
57 0 47.0608 11.5383 543 68.1639 203.254 520.046
58 0 48.082 10.5237 506 69.2431 202.917 520.275
59 0 49.1863 9.98246 491 69.9267 202.709 520.287
60 0 52.0692 11.0622 576 67.6285 202.891 519.983
61 0 54.0713 11.004 595 67.2353 202.896 519.427
62 0 56.0524 11.4179 640 66.9828 202.289 517.109
63 0 57.0315 11.6076 662 66.9562 202.415 514.917
64 0 57.171 10.7572 615 68.1951 202.982 514.987
65 0 59.0453 11.2625 665 67.6436 203.108 514.624
66 0 61.0368 11.2883 689 67.6212 203.077 513.687
67 0 61.1014 11.129 680 67.7147 202.443 513
68 0 66.0495 10.5224 695 68.7612 202.908 509.525
69 0 67.0787 11.658 782 67.4437 202.839 510.018
70 0 70.1907 14.6031 1025 64.0341 202.59 510.504
71 0 70.1403 11.7194 822 68.4769 201.974 508.397
72 0 74.0808 12.1759 902 66.7871 202.265 508.381
73 0 76.2207 12.4507 949 66.8641 202.06 504.151
74 0 79.1664 12.0506 954 66.9361 202.624 507.159
75 0 82.1225 12.5422 1030 65.9689 202.446 504.326
76 0 85.0617 12.7907 1088 65.7721 202.471 503.108
77 0 87.0584 12.8764 1121 66.4746 202.778 498.92
78 0 90.094 14.2296 1282 64.1279 203.046 499.967
79 1 45.0451 9.23518 416 67.7524 202.894 520.728
80 0 47.0561 9.24429 435 66.6345 203.34 521.977
81 0 49.0296 11.0138 540 64.8333 203.239 520.419
82 0 49.0508 11.1517 547 65.2212 204.024 518.943
83 0 50.1588 12.4006 622 63.6511 203.217 518.429
84 0 53.0668 11.5326 612 65.7958 203.513 517.918
85 0 54.0617 10.6175 574 67.6568 203.73 516.057
86 0 56.0575 10.5606 592 68.0304 203.407 514.498
87 0 58.0421 11.7846 684 66.1696 203.446 513.518
88 0 59.0466 11.3639 671 67.465 204.019 512.057
89 0 61.1306 12.3833 757 65.3157 203.728 513.478
90 0 63.1036 12.4557 786 65.2761 203.933 513.109
91 0 65.0374 11.4242 743 66.5653 203.935 511.7
92 0 65.0739 12.0939 787 65.4257 204.433 512.59
93 0 69.0375 10.4436 721 68.0194 204.49 510.662
94 0 72.1274 13.8505 999 63.7007 204.088 507.569
95 0 71.1804 11.6605 830 66.9494 203.813 506.718
96 0 75.1251 12.193 916 65.5513 204.031 507.213
97 0 75.1257 12.8451 965 65.6197 203.772 504.798
98 0 78.1131 10.8817 850 67.5094 203.414 504.389
99 0 82.1596 11.1734 918 66.719 202.953 499.454
100 0 85.2197 11.9456 1018 65.7485 203.374 498.048
101 0 86.1255 10.6356 916 68.8886 203.479 499.425
102 0 90.2725 11.0997 1002 67.8303 203.477 498.346
103 1 40.1459 8.19511 329 70.386 203.17 519.38
104 0 45.0387 10.058 453 66.9558 203.605 517.821
105 0 46.0962 10.9554 505 66.4238 203.319 515.673
106 0 49.1462 12.9613 637 62.8838 203.33 515.672
107 0 49.0761 11.0645 543 66.3278 202.396 516.606
108 0 51.1171 11.2487 575 65.3357 202.939 514.539
109 0 51.0727 9.77038 499 67.477 201.802 514.539
110 0 54.0911 12.3311 667 63.5607 202.673 513.975
111 0 56.0907 12.2659 688 63.8314 202.424 513.055
112 0 56.1476 11.3451 637 65.1366 202.474 513.835
113 0 59.0763 11.2566 665 66.2 202.761 510.609
114 0 59.1528 10.9716 649 66.228 202.989 509.438
115 0 61.0709 11.5767 707 65.5785 202.881 509.669
116 0 60.1003 9.90011 595 68.2639 202.818 510.002
117 0 66.1087 11.829 782 64.7442 202.524 510.096
118 0 67.1972 13.0065 874 63.5481 203.484 507.586
119 0 64.0972 9.37639 601 69.4309 203.458 500.233
120 0 71.1151 11.84 842 65.1128 203.308 504.913
121 0 72.1492 11.3376 818 66.2029 203.273 503.414
122 0 75.0932 12.358 928 64.7522 203.506 502.475
123 0 78.1059 10.3961 812 67.1958 203.19 499.744
124 0 79.222 11.8654 940 65.8181 202.628 502.134
125 0 83.0362 12.067 1002 65.1667 202.845 500.171
126 0 87.1572 12.8733 1122 63.8788 202.924 498.114
127 1 41.0975 8.71099 358 66.5978 203.101 519.626
128 0 43.0719 8.96177 386 67.2487 203.679 518.482
129 0 47.0917 11.0211 519 63.6493 203.547 517.761
130 0 48.26 11.4588 553 63.9765 203.143 514.953
131 0 48.098 11.9963 577 63.1646 203.125 515.201
132 0 50.0278 11.6335 582 63.8557 203.366 514.137
133 0 51.0901 11.098 567 65.2804 203.085 514.005
134 0 54.1815 10.9262 592 65.0034 203.088 517.133
135 0 54.1673 9.87681 535 66.4374 204.09 515.695
136 0 57.1646 12.5602 718 62.8914 203.713 512.577
137 0 59.1236 12.0426 712 62.5815 203.896 513.954
138 0 61.0606 11.1037 678 63.9985 203.322 512.478
139 0 63.1477 11.6711 737 63.0054 203.738 512.197
140 0 63.1454 12.0515 761 62.707 203.455 512.77
141 0 65.0786 12.6923 826 61.73 204.211 510.754
142 0 68.2471 12.6013 860 61.7395 204.198 508.198
143 0 69.0745 11.1619 771 63.6589 203.778 508.446
144 0 71.1792 11.4219 813 64.016 203.431 505.597
145 0 73.2187 13.0021 952 61.9559 203.743 504.706
146 0 74.0548 12.0586 893 63.9619 203.03 502.897
147 0 78.0766 11.2966 882 64.517 202.435 501.158
148 0 79.1466 12.0789 956 63.7897 202.802 499.664
149 0 81.2132 11.3528 922 64.5098 202.821 502.287
150 0 84.1313 13.1818 1109 62.3607 203.251 497.117
151 0 87.1502 13.1841 1149 62.2654 203.75 498.11
152 0 90.2391 11.7355 1059 64.2021 203.304 498.44
153 0 91.1607 10.476 955 65.933 203.538 497.277
154 0 93.2392 11.1219 1037 65.1765 203.852 496.808
155 1 49.0931 11.2439 552 62.8207 204 518.221
156 0 49.164 10.6786 525 64.5238 204.463 517.93
157 0 49.1273 9.48555 466 66.2339 203.371 516.835
158 0 54.1224 12.1392 657 61.8371 203.381 516.791
159 0 53.1373 10.5764 562 64.4751 202.578 517.078
160 0 54.0919 10.5931 573 65.0279 203.021 514.586
161 0 56.1015 11.5327 647 63.0804 203.552 516.474
162 0 59.1955 13.5314 801 60.7266 203.723 513.722
163 0 57.1709 11.8767 679 63.8704 203.28 510.915
164 0 61.098 10.9333 668 63.8039 203.618 512.048
165 0 61.1029 10.7851 659 63.6783 203.294 512.628
166 0 64.0735 11.6897 749 63.0441 203.613 510.115
167 0 65.0662 11.4345 744 63.3535 203.227 507.976
168 0 67.1526 10.7218 720 64.2486 203.767 507.726
169 0 66.0371 10.4487 690 64.8652 203.465 507.13
170 0 73.1202 12.7325 931 61.6509 203.276 507.362
171 0 73.1571 10.0469 735 64.9401 203.672 506.963
172 0 74.1912 10.6616 791 64.5082 204.152 503.004
173 0 79.3206 13.5148 1072 60.6166 204.038 503.839
174 0 82.1455 12.9892 1067 61.4948 203.702 501.913
175 0 83.1592 12.3258 1025 62.5688 203.954 500.339
176 0 86.0844 12.4064 1068 62.2041 204.478 501.847
177 0 87.069 12.1628 1059 62.8442 203.668 502.669
178 0 90.1286 11.4281 1030 64.3204 203.589 498.732
179 0 93.1397 10.962 1021 64.6964 204.426 496.559
180 0 96.1106 10.8417 1042 64.5461 203.97 498.61
181 1 52.0381 9.68521 504 64.5893 203.71 517.752
182 0 52.0429 10.3953 541 63.854 203.59 517.412
183 0 53.0308 10.7107 568 64.743 202.838 515.662
184 0 56.0525 12.6667 710 62.6887 203.172 514.673
185 0 58.0697 12.6228 733 62.206 202.259 514.426
186 0 60.1321 12.9049 776 61.6598 203.122 515.093
187 0 61.1582 13.4569 823 61.0097 202.392 511.767
188 0 60.0921 11.8818 714 63.8305 202.354 512.408
189 0 64.2299 12.2996 790 62.2658 201.787 513.485
190 0 65.169 10.7106 698 64.4685 201.378 510.923
191 0 68.0639 14.2366 969 60.6667 201.555 508.957
192 0 69.0952 9.50862 657 66.0852 201.107 508.205
193 0 72.0428 11.4932 828 63.7367 201.062 508.484
194 0 75.1269 11.3142 850 63.6965 200.725 509.38
195 0 77.138 13.1842 1017 61.8604 200.971 506.831
196 0 79.1171 11.7168 927 63.9817 200.796 505.422
197 0 82.0412 12.6156 1035 62.3952 200.76 506.729
198 0 85.0647 11.7675 1001 64.4865 201.141 504.378
199 0 87.0738 12.3229 1073 63.4212 201 506.694
200 0 90.1333 12.892 1162 63.543 201.003 502.776
201 0 94.117 11.677 1099 65.4386 200.361 502.999
202 0 95.0597 12.0766 1148 66.3763 200.488 500.249
203 1 48.0517 9.44816 454 66.5463 200.78 526.595
204 0 49.1529 9.70441 477 67.3585 200.117 525.392
205 0 51.0739 11.1016 567 66.3333 201.316 523.765
206 0 51.1335 10.9908 562 66.9502 200.703 523.589
207 0 55.0451 11.2998 622 65.955 200.651 522.892
208 0 55.0344 10.2663 565 68.2584 200.763 522.039
209 0 57.0874 11.4386 653 66.7412 200.974 521.594
210 0 57.0677 11.0395 630 67.8714 200.598 520.083
211 0 58.1023 12.8566 747 65.1714 200.115 520.047
212 0 60.2061 11.4274 688 66.5494 199.587 518.453
213 0 63.1394 12.8763 813 64.3801 198.932 518.496
214 0 66.1553 11.473 759 65.9855 199.296 520.111
215 0 67.2265 12.4356 836 65.1388 197.867 518.761
216 0 69.1583 12.9702 897 64.8294 198.398 513.973
217 0 70.0778 10.945 767 67.3442 197.561 515.091
218 0 73.0862 10.8776 795 67.4981 198.66 512.294
219 0 77.1688 11.3777 878 66.3132 198.214 513.255
220 0 79.27 12.3502 979 65.906 197.971 508.132
221 0 82.1796 12.9229 1062 64.4642 198.027 508.811
222 0 84.0905 11.8682 998 66.9579 198.291 505.658
223 0 85.1125 11.2557 958 67.9447 197.936 505.149
224 0 88.104 10.76 948 68.6498 197.725 503.495
225 1 47.0733 9.68702 456 66.7588 198.151 524.013
226 0 49.0698 10.3118 506 66.7352 198.209 521.381
227 0 50.0434 11.0704 554 66.1426 198.365 522.641
228 0 51.1746 12.5844 644 65.5186 197.713 520.703
229 0 52.0545 12.2564 638 66.4718 198.685 518.729
230 0 53.0471 12.668 672 65.6399 198.619 519.223
231 0 56.0988 11.8006 662 66.7251 198.674 518.705
232 0 56.0621 11.3624 637 67.2904 198.688 520.009
233 0 58.1109 11.9427 694 67.3012 197.906 517.177
234 0 60.1271 10.5111 632 69.3038 198.225 515.128
235 0 62.0577 11.3765 706 67.881 198.354 514.014
236 0 63.1477 11.5285 728 67.9245 197.995 515.118
237 0 63.1299 11.7535 742 68.5916 198.543 510.48
238 0 66.0602 10.8991 720 69.3514 198.986 511.599
239 0 68.0605 12.1069 824 67.9891 199.149 511.157
240 0 72.1214 12.4512 898 67.7918 199.35 508.983
241 0 73.1387 12.3601 904 68.7157 198.875 507.482
242 0 75.0756 11.9213 895 68.8089 198.962 508.155
243 0 78.1016 13.4952 1054 66.6803 199.293 506.002
244 0 80.1644 11.7384 941 69.6142 198.903 503.355
245 0 82.0959 11.0968 911 71.7914 198.153 503.056
246 1 44.0827 11.728 517 65.2186 199.621 523.632
247 0 42.0274 10.1838 428 69.6402 199.157 522.771
248 0 45.0492 11.5873 522 67.546 199.228 523.483
249 0 47.072 12.1516 572 65.8549 200.355 524.533
250 0 46.0312 12.2308 563 67.3908 199.877 522.734
251 0 48.071 10.5469 507 68.6568 199.542 524.588
252 0 52.1471 12.6949 662 65.3943 199.097 523.032
253 0 51.0512 11.2632 575 67.9357 199.918 523.403
254 0 53.1636 10.6464 566 67.735 199.942 523.744
255 0 55.1362 11.39 628 67.5414 199.046 521.352
256 0 57.0647 11.4782 655 67.4962 199.692 519.666
257 0 58.2213 12.3151 717 65.7852 198.424 520.176
258 0 60.1133 10.8462 652 67.5245 199.184 521.21
259 0 61.1263 12.057 737 65.6974 198.874 520.209
260 0 62.0954 11.5951 720 66.65 198.921 519.386
261 0 61.2315 10.4031 637 69.1633 198.846 517.998
262 0 65.1529 11.45 746 67.1702 198.492 516.529
263 0 67.1179 10.9658 736 67.4891 198.753 517.467
264 0 67.2261 10.6209 714 68.1148 198.496 515.359
265 0 71.1566 12.5638 894 65.9239 198.399 513.654
266 0 73.1757 11.3426 830 67.6651 198.423 512.435
267 0 75.2019 11.4359 860 67.493 198.195 513.812
268 0 78.3924 12.3864 971 66.6571 198.151 510.532
269 1 41.1903 8.78848 362 65.5055 198.903 529.727
270 0 42.1181 9.78201 412 65.1311 198.544 529.393
271 0 43.2507 10.2426 443 64.7901 198.813 529.011
272 0 43.1668 8.91888 385 66.7455 198.268 529.218
273 0 45.0691 10.5172 474 64.5063 198.376 529.027
274 0 46.1423 10.2292 472 65.2034 198.159 527.21
275 0 48.0551 10.3631 498 64.6707 197.556 527.9
276 0 50.1518 12.1631 610 62.6033 197.57 525.893
277 0 51.161 10.2813 526 65.5057 197.605 526.053
278 0 53.089 10.8874 578 64.5415 197.412 523.519
279 0 53.1305 12.0835 642 63.8037 197.34 522.874
280 0 55.2059 11.0495 610 64.5443 197.713 524.382
281 0 55.1808 10.4022 574 65.2143 196.803 523.941
282 0 59.1073 11.826 699 63.6681 196.27 521.956
283 0 58.1432 9.02943 525 67.0914 196.23 523.825
284 0 59.0955 9.52695 563 66.6092 195.924 521.238
285 0 62.1602 10.0225 623 65.6581 196.809 520.568
286 0 62.1109 9.24153 574 66.6359 196.395 519.458
287 0 65.2 9.55522 623 66.1573 196.38 520.186
288 0 69.1173 11.6324 804 63.8122 196.655 515.274
289 0 70.3268 11.7025 823 63.5869 197.166 515.095
290 0 72.1652 10.4344 753 65.3147 196.946 515.158
291 0 74.1263 9.86154 731 65.4008 197.033 516.543
292 0 77.0983 11.3362 874 64.4863 196.724 512.961
293 0 80.2173 12.0174 964 63.3568 196.831 510.087
294 0 83.122 12.0907 1005 63.4965 197.415 508.761
295 0 83.1117 11.4665 953 64.6621 196.878 510.402
296 1 46.0656 10.4416 481 62.3514 197.127 528.807
297 0 45.1011 10.2215 461 63.0542 196.95 527.547
298 0 45.0717 9.05224 408 65.6716 197 525.772
299 0 47.1437 9.7786 461 65.2017 197 523.95
300 0 49.1316 11.0723 544 63.5515 196.66 521.739
301 0 51.0544 9.65636 493 64.8215 196.86 520.888
302 0 52.1193 10.1882 531 63.9303 197.104 522.362
303 0 53.0592 11.082 588 62.7925 197.041 521.801
304 0 54.2806 11.2195 609 62.3924 196.642 521.924
305 0 56.1339 10.1365 569 64.2689 196.757 520.306
306 0 57.0567 11.6901 667 62.4363 197.18 517.453
307 0 59.1776 8.16188 483 65.619 196.677 519.308
308 0 62.0988 11.3368 704 62.3224 197.003 518.787
309 0 63.2957 11.3594 719 63.2184 196.46 514.054
310 0 62.1054 8.54998 531 66.1751 196.499 515.335
311 0 66.0868 11.5606 764 63.3285 197.065 513.658
312 0 67.1887 11.0286 741 63.4386 196.453 510.453
313 0 71.1231 10.6716 759 63.6179 196.796 510.292
314 0 73.1309 10.994 804 63.4577 196.114 509.945
315 0 75.1032 9.46697 711 64.5738 195.906 510.724
316 0 78.1978 10.7676 842 63.3575 196.034 508.292
317 0 80.108 11.6842 936 62.9231 196.319 502.026
318 0 84.0491 10.5534 887 63.5028 196.219 504.984
319 1 45.1026 11.4184 515 61.0893 196.46 521.856
320 0 48.0206 9.55839 459 63.2723 197.172 524.209
321 0 48.0936 9.83498 473 64.019 197.531 523.932
322 0 49.0908 10.7352 527 63.0076 197.882 523.732
323 0 53.0339 11.5586 613 61.5041 197.023 522.313
324 0 52.1211 9.95758 519 64.6917 196.734 518.938
325 0 57.0294 13.1686 751 60.1358 197.089 519.64
326 0 55.1866 10.7454 593 63.5953 197.607 521.196
327 0 57.1205 10.6617 609 64.7783 196.43 517.282
328 0 60.1581 12.1513 731 62.5609 197.204 518.379
329 0 60.1664 9.93911 598 66.1873 197.418 515.353
330 0 65.0811 11.7699 766 63.6854 197.585 514.307
331 0 64.2392 9.16886 589 66.7216 197.683 516.175
332 0 66.2361 11.3684 753 64.3785 197.632 514.883
333 0 69.1327 11.6587 806 63.3797 197.038 514.334
334 0 70.141 11.6622 818 64.3289 196.089 512.506
335 0 72.3129 10.6205 768 65.4232 196.46 512.316
336 0 77.239 12.0017 927 63.548 196.612 509.595
337 0 75.3649 11.8888 896 65.24 196.551 507.521
338 0 79.2424 11.3071 896 65.5 197.07 507.946
339 0 82.1497 11.8442 973 64.5704 196.968 506.983
340 0 84.1676 10.9425 921 66.0456 196.964 505.154
341 0 88.0937 12.0213 1059 64.881 196.281 500.94
342 0 93.1377 11.6709 1087 64.9853 196.953 498.768
343 0 97.1214 12.4998 1214 63.6252 196.867 499.502
344 1 46.0414 9.49146 437 65.1876 196.783 523.714
345 0 53.0736 11.7196 622 61.6849 197.092 522.129
346 0 54.0805 11.4459 619 62.0226 196.648 522.583
347 0 55.1376 10.4466 576 64.559 197.436 518.142
348 0 56.1372 10.1181 568 64.6268 197.454 519.076
349 0 59.1564 13.5235 800 59.8062 197.682 516.838
350 0 60.1178 12.4755 750 61.6267 197.569 515.387
351 0 61.3298 16.5336 1014 46.3264 196.932 516.553
352 0 62.119 11.9609 743 61.4603 197.595 517.441
353 0 64.0721 12.0333 771 62.1258 197.451 514.064
354 0 66.224 12.2614 812 61.5283 196.98 513.808
355 0 70.0992 12.0972 848 61.3608 196.35 512.86
356 0 71.2596 13.5561 966 59.94 197.152 510.334
357 0 73.2204 12.3463 904 60.8684 196.551 511.079
358 0 74.2695 12.5489 932 61.5075 197.442 508.477
359 0 76.2072 11.7049 892 62.6121 198.002 505.072
360 0 78.0604 11.6961 913 62.4064 196.659 509.436
361 0 81.1265 13.8672 1125 60.1733 196.6 505.847
362 0 84.0714 12.644 1063 61.8373 196.891 504.998
363 0 86.0515 11.6326 1001 63.3137 197.096 505.053
364 0 87.0749 11.0709 964 64.8382 197.622 502.889
365 1 40.0309 8.49345 340 65.2559 198.212 524.941
366 0 42.144 11.8403 499 63.0301 197.804 522.836
367 0 45.0381 10.48 472 64.161 197.502 522.273
368 0 45.078 10.4042 469 63.58 197.708 525.663
369 0 48.0587 10.9241 525 62.9333 197.81 524.225
370 0 47.0684 9.66679 455 65.6989 196.989 523.8
371 0 51.0944 10.9405 559 63.6208 197.372 521.826
372 0 53.0526 12.4593 661 61.8775 197.41 521.216
373 0 52.0716 10.812 563 64.0071 197.343 520.19
374 0 56.0927 13.656 766 60.2794 197.41 520.065
375 0 57.0447 12.1484 693 62.3391 197.723 516.988
376 0 58.0851 11.4659 666 62.6547 197.677 519.572
377 0 59.0767 9.00525 532 65.8985 196.996 518.536
378 0 62.0887 11.8379 735 62.4857 196.799 516.294
379 0 61.0683 10.6602 651 64.8618 197.163 513.71
380 0 67.0387 11.3367 760 63.0237 196.65 513.703
381 0 70.1197 11.3378 795 63.1044 196.762 512.357
382 0 72.0997 13.1069 945 61.4466 196.687 511.407
383 0 75.0918 12.6112 947 61.811 197.298 509.487
384 0 76.1032 12.5882 958 62.048 197.358 509.88
385 1 37.1034 10.3764 385 63.2 197.314 526.605
386 0 37.0449 9.31303 345 64.3391 197.542 526.936
387 0 40.0315 10.7415 430 63.0535 197.549 526.93
388 0 42.1458 11.8636 500 61.388 198.02 527.706
389 0 43.1122 10.3683 447 63.6197 197.942 526.025
390 0 47.1797 11.5092 543 62.2099 197.84 523.888
391 0 47.1388 11.9434 563 61.0888 197.877 524.375
392 0 47.158 11.9174 562 62.5445 197.297 521.368
393 0 51.1717 10.455 535 62.8243 197.419 523.348
394 0 50.0536 11.6275 582 63.0653 197.502 522.349
395 0 51.1321 11.128 569 63.5343 197.058 523.55
396 0 55.1014 12.5587 692 61.4061 197.608 520.481
397 0 55.3309 11.874 657 62.1963 197.686 522.291
398 0 56.0716 11.4318 641 62.1669 197.846 519.418
399 0 59.166 12.4058 734 60.5831 197.95 519.243
400 0 61.0996 12.8151 783 60.8608 198.07 516.314
401 0 63.0585 11.6241 733 61.8377 197.593 515.562
402 0 64.3684 9.38349 604 64.3079 197.825 517.098
403 0 65.0917 11.3993 742 62.4555 197.888 512.45
404 0 68.1503 10.5942 722 63.2327 197.913 514.802
