time division length width area intensity CMx CMy
0 0 80.0785 13.0622 1046 60.2734 955.119 464.748
1 0 82.0595 12.4056 1018 61.5167 954.485 460.55
2 1 41.0215 10.2629 421 132.52 953.648 480.109
3 0 42.0453 10.3935 437 61 953.764 481.872
4 0 45.0821 11.4458 516 59.5194 954.039 479.068
5 0 46.0366 10.622 489 61.0225 953.434 477.198
6 0 46.0789 11.3935 525 60.221 953.286 476.181
7 0 48.1085 11.3701 547 59.883 953.296 477.83
8 0 48.1237 11.699 563 60.0373 952.906 475.515
9 0 51.0266 11.2098 572 60.0909 952.766 475.988
10 0 53.0272 10.5795 561 60.934 953.282 475.189
11 0 51.039 9.6397 492 63.4065 953.354 471.839
12 0 55.0537 11.9701 659 60.0607 953.042 472.693
13 0 57.087 11.8416 676 59.9719 952.873 473.587
14 0 59.0455 13.3287 787 58.1639 952.807 472.109
15 0 60.1931 12.2772 739 59.0785 952.392 471.771
16 0 59.0227 10.7755 636 61.6069 953.146 471.384
17 0 62.0718 11.3739 706 60.5028 952.561 471.746
18 0 63.0368 10.8191 682 61.2698 953.009 469.541
19 0 64.0459 11.2576 721 60.9584 952.193 464.472
20 0 67.2213 11.3208 761 60.4744 951.737 467.152
21 0 70.0827 10.7302 752 60.6729 952.007 467.38
22 0 71.0327 11.0513 785 60.8828 951.908 463.056
23 0 74.1315 14.2045 1053 57.5859 952.259 462.821
24 0 74.1316 11.7359 870 60.6655 952.129 460.331
25 0 77.1239 10.5155 811 61.397 952.566 464.192
26 0 80.049 11.2681 902 60.7506 951.817 461.992
27 0 81.0608 11.3125 917 61.5311 951.457 455.809
28 0 85.1852 10.847 924 61.5509 951.538 458.648
29 0 87.1285 12.0282 1048 60.8244 951.81 456.166
30 0 90.1638 10.6362 959 62.2753 951.949 456.408
31 1 51.086 9.00442 460 60.5609 951.724 475.965
32 0 52.0728 11.4263 595 59.0975 952.121 473.308
33 0 55.1252 10.3401 570 60.1281 953.516 471.777
34 0 56.0944 11.3559 637 59.3391 953.364 473.298
35 0 57.0593 9.93703 567 61.0494 953.383 466.875
36 0 56.0893 9.7523 547 61.6015 953.181 469.943
37 0 62.0288 10.7853 669 59.8505 952.988 471.707
38 0 58.0752 9.88374 574 62.5261 952.934 466.284
39 0 60.0717 9.22231 554 62.9242 952.973 467.792
40 0 68.1932 10.9688 748 60.0628 952.832 466.781
41 0 65.0877 10.4014 677 61.5524 952.923 467.743
42 0 65.0243 10.6729 694 62.1383 952.745 466.146
43 0 71.0524 10.0348 713 62.4979 952.509 462.628
44 0 76.1773 11.657 888 59.768 952.235 467.025
45 0 77.0697 10.6786 823 61.949 952.271 464.725
46 0 76.1245 13.4911 1027 59.3836 952.677 462.345
47 0 83.2568 11.5666 963 61.0415 952.714 461.425
48 0 86.1552 12.9418 1115 59.6242 952.176 460.426
49 0 84.3 10.4271 879 63.5575 952.165 455.686
50 0 88.0733 9.9122 873 64.3081 952.258 453.15
51 0 92.1931 10.9444 1009 63.4014 952.686 453.933
52 0 97.3557 12.7984 1246 60.703 951.51 450.669
53 1 48.0889 7.54852 363 62.8457 952.386 474.777
54 0 50.1199 9.77655 490 60.9633 951.545 476.835
55 0 50.0223 7.57662 379 63.7995 951.52 473.084
56 0 55.0976 9.58299 528 61.0303 952.091 476.231
57 0 56.0828 11.1264 624 60.8333 952.753 473.409
58 0 58.0936 11.4987 668 60.9012 952.542 473.093
59 0 54.1377 8.18284 443 65.9323 952.4 467.905
60 0 60.0485 10.7413 645 61.755 952.352 470.212
61 0 62.2233 9.80341 610 62.7738 952.338 472.68
62 0 66.0575 10.4 687 62.5022 952.677 469.731
63 0 66.1313 11.7796 779 61.0308 952.401 466.773
64 0 68.2105 10.5116 717 62.9861 951.484 466.604
65 0 71.1764 11.3099 805 61.4522 951.247 466.107
66 0 72.1594 11.5855 836 61.6447 951.42 466.169
67 0 76.1519 11.8185 900 61.7744 951.552 465.177
68 0 79.1312 12.8015 1013 60.2113 951.344 464.521
69 0 80.1525 10.2679 823 63.8384 950.843 462.906
70 0 82.2122 9.98635 821 64.352 950.559 462.948
71 0 87.139 12.371 1078 61.1382 950.31 461.583
72 0 88.2099 12.4362 1097 61.2352 950.331 460.543
73 0 90.1397 11.227 1012 63.1472 950.581 456.381
74 0 92.1448 11.2106 1033 63.7338 950.269 454.71
75 0 96.1903 11.0926 1067 64.4386 950.592 453.229
76 1 51.1662 8.32581 426 64.9977 951.075 474.197
77 0 52.0991 7.21701 376 66.1835 950.949 471.271
78 0 55.0372 8.46701 466 64.1395 951.118 476.918
79 0 56.1312 8.5692 481 65.4116 950.077 470.148
80 0 46.0847 9.02686 416 67.0938 950.281 467.464
81 0 54.03 10.3831 561 69.5062 950.305 418.399
82 0 48.1186 8.60374 414 67.2633 950.947 465.273
83 0 48.1228 8.93548 430 66.7116 950.944 463.837
84 0 47.1747 7.92798 374 65.385 950.84 455.404
85 1 123.146 3.80849 469 71.9787 951.011 450.254
86 1 114.251 7.21221 824 71.25 951.243 425.385
87 1 65.2108 12.1146 790 61.1759 951.611 463.132
88 0 58.1725 6.58386 383 66.8146 951.266 450.948
89 0 55.0633 6.86483 378 70.1032 951.722 453.664
90 0 61.0211 8.58719 524 66.7595 951.183 451.403
91 0 64.101 9.29782 596 66.1661 951.344 454.111
92 1 85.0726 10.4381 888 62.2905 951.481 459.018
93 0 86.1961 10.1861 878 62.9317 950.909 455.685
94 0 85.1353 9.33807 795 64.7711 950.55 454.069
95 0 92.2382 9.49715 876 63.75 951.264 456.932
96 0 96.1454 10.8898 1047 62.2206 951.082 451.156
97 0 95.1907 10.1901 970 63.6175 951.487 450.821
98 0 99.105 9.5757 949 64.1264 951.319 447.541
99 1 53.054 9.46207 502 61.0697 950.769 472.651
100 0 57.0985 9.43983 539 61.757 950.801 472.033
101 0 59.0752 9.25939 547 61.6527 951.183 472.912
102 0 60.0482 8.95947 538 62.855 951.606 468.132
103 0 63.1391 10.0888 637 60.4741 951.573 471.366
104 0 64.0503 9.8204 629 61.5898 951.715 467.486
105 0 67.1739 10.1081 679 61.4065 950.979 464.632
106 0 69.1083 10.8815 752 60.3963 951.144 467.698
107 0 72.1473 10.1875 735 60.8571 951.287 467.435
108 0 73.1682 9.93601 727 62.0605 951.298 465.206
109 0 74.2439 9.1186 677 63.0798 951.139 460.892
110 0 77.0865 11.8309 912 59.682 950.292 462.873
111 0 81.1525 13.7149 1113 57.5211 950.513 460.783
112 0 83.162 11.5918 964 59.9243 950.499 460.675
113 0 84.2886 12.9911 1095 58.7808 950.205 458.521
114 0 86.3043 10.9728 947 61.2693 950.714 460.41
115 0 90.1624 10.9358 986 60.8418 951.073 457.735
116 0 93.5644 11.607 1086 59.8969 951.043 455.4
117 1 54.1031 8.96436 485 58.3732 951.499 478.639
118 0 54.0347 9.41987 509 58.8369 951.012 476.053
119 0 57.2167 10.7836 617 57.1102 951.316 475.822
120 0 59.2526 8.79286 521 58.6545 950.559 475.436
121 0 60.1391 8.18103 492 59.6667 950.644 473.327
122 0 63.092 9.38312 592 57.8412 950.203 472.78
123 0 64.1637 12.4681 800 54.6213 950.5 472.865
124 0 66.1475 10.5219 696 56.898 950.799 471.573
125 0 67.1484 12.4202 834 54.9832 950.635 470.388
126 0 69.0902 9.39351 649 58.8151 951.55 466.116
127 0 72.0859 13.3729 964 54.4481 951.684 467.518
128 0 74.1022 11.4302 847 56.5466 951.124 465.745
129 0 75.3208 12.0286 906 56.0375 951.738 466.092
130 0 76.0809 11.4615 872 57.328 951.989 463.001
131 0 77.1792 11.7519 907 57.5017 952.068 461.528
132 0 79.2928 10.5684 838 58.7983 952.345 462.025
133 0 82.0889 9.35572 768 59.9466 951.842 462.1
134 0 86.1755 11.639 1003 57.8664 951.947 460.026
135 0 87.1965 11.3078 986 58.5294 951.955 457.984
136 0 91.0844 10.1883 928 59.7231 951.269 457.654
137 0 92.1652 10.4378 962 59.3472 951.66 458.392
138 0 98.241 12.8561 1263 57.0206 951.98 456.707
139 0 98.2126 11.3529 1115 59.2637 951.652 453.483
140 0 102.13 12.9443 1322 57.8253 951.441 452.807
141 0 106.153 12.4914 1326 58.5422 951.715 449.09
142 1 60.0849 8.38814 504 59.7401 952.095 473.508
143 0 61.1286 9.30825 569 59.8102 951.773 472.17
144 0 61.0789 10.5765 646 59.7632 952.054 468.406
145 0 61.0862 9.77307 597 60.943 951.668 469.633
146 0 68.106 10.6892 728 59.8063 951.6 469.416
147 0 67.1608 10.7057 719 59.5522 950.86 471.695
148 0 69.0803 10.1331 700 61.05 951.504 469.346
149 0 71.1629 13.0686 930 58.429 951.69 467.769
150 0 75.1131 11.2497 845 60.2675 951.775 468.393
151 0 74.083 12.405 919 59.9119 951.734 464.494
152 0 78.2964 13.2062 1034 58.472 951.272 465.769
153 0 79.3684 11.1757 887 61.3799 951.713 464.221
154 0 82.0757 10.7218 880 61.6136 952.442 465.205
155 0 86.1687 11.9881 1033 60.5963 952.28 462.53
156 0 85.1197 11.1608 950 61.9063 952.349 458.859
157 0 85.2299 9.79703 835 63.8922 951.257 458.565
158 0 92.3706 12.1467 1122 60.4332 951.541 460.503
159 0 91.2589 10.2346 934 62.6981 951.791 458.155
160 0 97.1962 11.5128 1119 61.168 951.743 458.279
161 0 98.1681 11.3377 1113 62.336 952.108 455.405
162 0 99.3035 10.9462 1087 62.9604 952.631 455.672
163 0 105.322 12.495 1316 61.2774 952.832 454.138
164 1 57.0794 9.75834 557 63.079 952.794 472.23
165 0 59.0603 11.1581 659 61.9879 953.261 472.763
166 0 61.0875 9.36362 572 63.9458 953.103 473.191
167 0 63.2651 10.7168 678 62.5162 953.333 473.431
168 0 61.1972 9.08538 556 65.9155 953.07 470.052
169 0 63.0498 7.8668 496 67.5847 953.528 468.111
170 0 66.1484 11.187 740 62.8095 951.911 468.969
171 0 69.0495 9.44251 652 64.9294 952.259 468.186
172 0 73.1322 11.8416 866 62.1536 952.642 468.771
173 0 67.1003 8.10726 544 68.0864 952.285 461.193
174 0 73.0738 10.3457 756 64.8929 952.382 465.25
175 0 78.1634 10.0175 783 64.8812 952.622 462.6
176 0 78.1339 9.76528 763 66.1468 951.742 459.712
177 0 84.1276 12.9209 1087 60.7939 951.977 465.234
178 0 86.2029 11.2641 971 62.8847 952.031 464.115
179 0 86.1969 10.592 913 64.6999 951.41 458.541
180 0 91.0804 11.0232 1004 63.6514 951.858 458.715
181 0 93.2282 10.8658 1013 64.2942 951.675 456.282
182 0 99.18 11.8169 1172 63.0469 951.951 454.195
183 0 99.2249 9.98742 991 65.4147 952.337 451.861
184 0 101.143 10.1243 1024 65.9238 952.148 447.72
185 0 108.316 11.5219 1248 64.2748 952.609 447.695
186 0 111.232 12.0918 1345 63.7115 953.181 447.499
187 1 49.0654 6.17543 303 64.3861 953.389 474.947
188 0 51.1624 8.54142 437 59.9748 953.087 476.973
189 0 53.1517 9.3506 497 60.4346 952.115 474.97
190 0 55.1523 11.3685 627 58.5247 951.88 472.684
191 0 57.2834 9.84579 564 60.0301 952.089 474.888
192 0 58.1462 11.2131 652 59.1902 952.017 473.227
193 0 60.28 11.6954 705 59.1986 952.953 471.292
194 0 63.1925 10.5234 665 59.7023 952.639 472.146
195 0 63.0658 10.053 634 60.2524 952.749 472.748
196 0 64.2196 9.24952 594 61.5152 952.739 469.456
197 0 66.2254 9.67906 641 60.5226 952.435 471.651
198 0 68.2363 9.36451 639 61.3975 952.268 465.347
199 0 70.2393 11.6601 819 58.862 952.288 465.822
200 0 73.0486 10.2808 751 60.0626 952.316 464.702
201 0 74.1107 9.94459 737 60.327 952.475 465.67
202 0 78.1743 12.0244 940 57.8851 952.434 465.161
203 0 79.1455 9.70365 768 60.7305 952.518 462.247
204 0 79.2118 10.9832 870 60.2172 952.837 458.002
205 0 80.3107 9.58776 770 62.0584 951.982 454.522
206 0 85.2364 11.7907 1005 59.2249 952.035 459.724
207 0 87.1712 12.0223 1048 57.9313 951.497 454.667
208 0 88.3535 11.0805 979 59.1879 951.216 454.169
209 0 92.3472 11.5109 1063 58.1138 952.198 457.125
210 0 92.3164 10.8106 998 59.2475 952.157 455.541
211 0 94.3891 10.6262 1003 59.9163 951.922 449.744
212 0 97.3954 11.7357 1143 58.8749 951.554 449.621
213 0 99.4183 10.4709 1041 60.3285 951.303 447.939
214 0 103.186 13.2576 1368 56.9342 951.023 450.451
215 0 103.193 12.055 1244 58.3722 951.551 448.513
216 0 106.2 12.0245 1277 58.7165 951.295 446.738
217 0 110.174 11.9539 1317 58.754 951.552 444.149
218 0 112.219 11.1568 1252 59.7236 952.036 443.289
219 0 115.173 11.9472 1376 59.1352 952.087 442.395
220 0 119.275 13.5317 1614 57.1221 951.429 439.768
221 1 68.293 8.47818 579 58.4991 952.06 465.124
222 0 66.039 9.99409 660 57.4939 951.936 466.668
223 0 69.1907 9.3076 644 57.9084 952.028 467.078
224 0 72.2798 11.8844 859 56.5274 951.919 463.111
225 0 71.1632 9.31661 663 59.3575 951.881 457.608
226 0 74.0771 9.9356 736 58.4321 952.399 464.232
227 0 79.1434 11.1317 881 57.5709 951.959 461.911
228 0 81.17 12.3814 1005 56.4139 951.767 461.668
229 0 82.1111 11.0216 905 57.7669 951.535 461.705
230 0 84.1344 11.862 998 57.7154 951.068 460.606
231 0 87.1743 13.9491 1216 55.4482 950.471 458.321
232 0 87.2133 9.01238 786 61.1272 950.172 454.293
233 0 89.2691 11.8854 1061 58.1894 950.361 457.011
234 0 89.2042 10.1789 908 60.7346 951.046 452.281
235 0 93.3141 12.3132 1149 58.7946 951.211 448.911
236 0 95.3111 9.5162 907 61.9338 951.375 452.774
237 0 99.1356 11.2271 1113 60.4438 951.68 450.258
238 1 58.1154 7.9497 462 59.2165 952.182 472.924
239 0 61.108 9.55685 584 57.2979 952.688 475.69
240 0 60.0498 10.5579 634 57.3502 952.528 470.992
241 0 62.0367 7.72124 479 60.0543 952.848 471.407
242 0 64.106 11.9802 768 56.4518 952.698 471.909
243 0 65.1953 9.89336 645 58.1054 952.304 472.547
244 0 67.1337 10.9185 733 57.8581 952.3 472.569
245 0 69.1463 10.0078 692 59.1647 952.389 470.889
246 0 67.1067 9.55195 641 60.5523 952.172 468.292
247 0 72.0481 11.0343 795 58.444 952.664 469.821
248 0 75.1411 11.4185 858 58.1678 952.5 466.667
249 0 76.0974 10.0266 763 60.0904 952.334 465.375
250 0 79.106 12.5654 994 57.7827 952.078 463.068
251 0 79.1054 11.0738 876 60.137 952.162 462.379
252 0 84.1163 11.9359 1004 58.5159 952.039 464.948
253 0 83.2546 12.2756 1022 59.591 951.795 458.716
254 0 87.1926 10.6202 926 61.5724 951.667 457.47
255 0 90.1109 12.7731 1151 59.0964 951.769 460.942
256 0 93.1617 11.6572 1086 60.9503 951.473 456.731
257 0 97.2704 13.5396 1317 58.8633 951.557 459.146
258 0 98.174 12.2334 1201 61.1324 952.133 453.011
259 0 101.328 12.5138 1268 60.7752 952.467 454.831
260 0 103.33 10.181 1052 63.1492 952.657 455.904
261 0 105.236 11.9161 1254 62.2751 952.391 451.936
262 1 60.1769 8.8406 532 61.7744 952.374 472.852
263 0 64.0917 9.29917 596 60.9547 952.183 474.262
264 0 66.1297 8.86138 586 61.9642 952.514 471.568
265 0 64.0737 9.25497 593 61.7589 952.887 471.632
266 0 67.1311 10.4125 699 60.8884 952.757 471.345
267 0 68.1033 10.5134 716 61.5768 953.359 469.057
268 1 58.1654 12.8255 746 65.6394 952.485 409.031
269 0 59.0693 11.4442 676 66.2382 951.969 413.454
270 0 59.1388 12.31 728 65.603 952.42 415.706
271 0 61.0305 13.272 810 64.7642 952.62 417.179
272 0 62.1411 12.6969 789 65.3853 951.869 418.411
273 0 63.0667 11.2421 709 67.646 952.351 421.245
274 0 63.1524 13.1111 828 67.0362 952.72 418.89
275 0 65.138 10.946 713 69.7391 952.453 422.32
276 0 65.1853 9.98692 651 71.3625 952.714 424.462
277 0 69.178 12.186 843 68.8339 952.54 422.517
278 0 73.2788 12.3092 902 69.0477 952.31 421.049
279 1 35.0749 8.83823 310 72.3065 951.968 436.684
280 0 38.0726 9.50816 362 71.0967 952.171 437.506
281 0 42.0955 9.97731 420 70.3238 951.9 437.631
282 0 41.0313 10.8698 446 69.2242 951.951 438.895
283 0 42.0404 10.4423 439 71.246 951.822 436.861
284 0 45.1151 10.7725 486 69.4691 951.953 439.593
285 0 46.0384 11.7076 539 70.0223 952.414 436.827
286 0 49.1161 11.3812 559 69.3131 951.952 438.923
287 0 48.1549 11.733 565 70.2124 952.099 438.485
288 0 50.0741 12.5814 630 69.6603 951.663 436.992
289 0 52.0394 12.1254 631 69.4231 951.469 437.992
290 0 54.0532 12.7837 691 68.5297 951.3 437.679
291 0 55.1109 11.867 654 70.5902 951.843 438.795
292 0 56.1033 12.5126 702 70.0627 951.927 438.443
293 0 60.092 12.7638 767 68.2894 951.773 440.24
294 0 62.0592 14.3411 890 66.9573 951.794 438.871
295 0 62.0711 10.5041 652 72.365 951.429 440.069
296 0 64.091 12.139 778 70.0681 951.725 441.846
297 0 67.0971 11.774 790 70.8797 952.013 440.757
298 0 69.0572 13.3512 922 68.8341 952.504 440.642
299 0 70.0845 12.6419 886 70.9424 952.716 437.951
300 0 74.094 12.7001 941 70.1318 951.616 438.188
301 0 76.1124 12.0217 915 71.4743 952.208 436.801
302 0 80.1261 12.2931 985 70.7706 952.084 435.512
303 1 39.0388 10.6817 417 68.6859 952.161 457.962
304 0 41.0282 10.4319 428 68.4276 951.703 458.666
305 0 42.0809 11.264 474 68.1287 951.614 458.255
306 0 45.0281 11.304 509 67.4695 952.065 458.509
307 0 42.0382 10.3715 436 71.0046 952.151 456.057
308 0 44.1828 10.8866 481 69.1435 952.622 460.187
309 0 46.0459 11.4668 528 68.7765 952.252 459.106
310 0 48.0633 11.7553 565 68.1628 952.297 459.462
311 0 48.0528 12.3614 594 67.9091 952.348 460.636
312 0 50.0514 11.8279 592 68.647 952.431 457.639
313 0 51.0791 12.51 639 67.9437 952.264 458.917
314 0 53.062 10.9495 581 69.7418 952.525 456.552
315 0 55.1282 11.1195 613 68.9869 952.168 456.561
316 0 56.1431 10.8651 610 70.2934 952.295 454.63
317 0 58.0599 10.9025 633 70.297 951.695 451.67
318 0 58.158 9.90405 576 71.7274 951.422 449.307
319 0 62.0998 11.8197 734 69.5095 951.811 451.204
320 0 63.0938 11.3323 715 70.4462 951.912 448.273
321 0 65.0413 10.5933 689 71.4049 952.112 448.689
322 0 68.0786 9.94439 677 72.1241 951.66 452.124
323 0 68.1037 10.3078 702 72.6667 951.782 450.528
324 0 69.0997 9.23303 638 74.3292 951.998 449.508
325 0 74.1911 8.96334 665 74.2617 952.161 447.953
326 1 38.0414 8.35931 318 69.7956 950.984 470.365
327 0 40.1058 9.67442 388 67.951 951.887 468.76
328 0 42.0719 10.791 454 66.0595 951.791 468.72
329 0 41.0852 11.0015 452 67.0088 952.715 465.989
330 0 43.0477 10.0122 431 67.6961 952.694 467.413
331 0 45.0263 7.6844 346 70.6243 952.621 464.971
332 0 43.1173 8.95231 386 69.9974 952.676 465.565
333 0 47.0119 8.7212 410 69.5732 953.059 467.305
334 0 49.0803 10.6356 522 67.3333 952.724 464.58
335 0 51.0719 9.43768 482 67.9357 952.481 467.172
336 0 51.0497 11.0285 563 66.9538 952.732 462.979
337 0 53.1212 9.45009 502 68.0598 952.749 464.843
338 0 58.0702 11.6239 675 65.1644 952.144 463.732
339 0 59.0346 10.9089 644 66.0031 952.076 462.064
340 0 60.0699 10.9206 656 66.282 952.223 459.962
341 0 63.1377 12.1164 765 64.4706 952.084 458.999
342 0 65.122 10.5801 689 66.4572 952.038 455.99
343 0 66.1342 12.641 836 64.0742 951.827 452.2
344 0 69.0551 11.0491 763 65.9174 952.389 452.199
345 0 70.1364 10.6222 745 66.9101 951.839 447.725
346 0 74.1294 11.2506 834 65.8213 951.609 450.511
347 0 76.1591 11.3578 865 67.0578 951.658 445.884
348 0 80.2558 13.1206 1053 64.6676 951.584 443.817
349 1 39.0713 9.39307 367 65.8965 952.218 465.308
350 0 41.056 8.11087 333 68.4324 951.682 461.751
351 0 42.1086 10.7104 451 65.2018 951.206 460.517
352 0 45.095 11.7086 528 63.6212 951.812 459.928
353 0 46.0642 11.4623 528 64.3295 951.576 459.515
354 0 48.0397 11.9693 575 63.8713 951.657 457.205
355 0 49.1266 9.64853 474 66.6498 952.053 457.861
356 0 50.0835 9.98333 500 65.872 952.608 460.18
357 0 52.0592 12.1016 630 64.081 952.398 455.083
358 0 54.1057 12.2538 663 62.9005 952.262 458.13
359 0 55.0945 11.453 631 65.7306 952.881 454.837
360 0 57.0767 10.9852 627 66.0574 952.523 454.994
361 0 60.0449 12.2242 734 64.5668 951.898 452.582
362 0 63.1585 13.0149 822 62.8637 951.457 452.624
363 0 65.0655 12.9408 842 62.8515 951.607 453.855
364 0 67.0588 12.243 821 63.6431 951.738 453.967
365 0 68.1439 11.8426 807 64.3247 951.362 450.328
366 0 71.0779 13.4078 953 62.4774 951.216 449.833
367 0 74.1944 13.6668 1014 61.6262 951.652 449.258
368 0 75.1601 11.7616 884 64.4186 952.479 446.768
369 0 81.1737 11.5678 939 64.6337 953.07 446.194
370 0 81.1398 12.842 1042 63.3906 953 444.324
371 0 82.1713 11.3665 934 66.0867 953.243 439.7
372 0 86.1154 12.0884 1041 64.6177 952.395 441.278
373 1 48.0604 9.75856 469 64.2772 952.299 461.793
374 0 48.1359 11.426 550 63.0836 952.4 460.18
375 0 48.0438 11.7601 565 63.5257 952.285 458.076
376 0 51.0502 10.9304 558 65.0143 952.265 455.418
377 0 52.0279 10.3406 538 65.2937 951.885 455.34
378 0 55.2092 12.6247 697 62.4505 951.822 454.766
379 0 57.0794 11.1424 636 64.3616 951.569 455.016
380 0 58.0781 12.5693 730 63.2452 951.848 453.955
381 0 61.1989 11.7322 718 63.8607 951.535 452.088
382 0 62.1673 11.646 724 64.4171 951.421 452.037
383 0 66.1522 11.8666 785 63.5924 951.688 452.394
384 0 65.1643 10.7881 703 65.7496 951.647 451.036
385 0 69.2053 11.9355 826 64.0048 951.846 445.881
386 0 70.1734 11.5998 814 64.602 951.475 448.203
387 0 73.1311 10.6658 780 65.8423 951.677 446.11
388 0 75.1939 10.3067 775 65.56 951.63 445.683
389 0 79.1926 11.0743 877 64.8027 951.08 442.042
390 0 81.247 11.6558 947 64.3115 951.52 440.909
391 0 84.3003 11.376 959 64.5349 951.26 439.15
392 1 44.2306 9.69916 429 62.7249 951.639 459.727
393 0 45.1443 9.74651 440 62.9318 951.57 459.889
394 0 49.1583 10.4764 515 61.2718 951.412 459.513
395 0 48.1607 10.1327 488 61.2766 952.148 460.18
396 0 50.0681 10.7454 538 60.6989 952.333 459.76
397 0 52.0985 12.5531 654 59.2064 952.81 459.463
398 0 51.1259 8.76268 448 64.2924 953.132 459.46
399 0 54.0865 12.7943 692 59.5607 952.936 455.908
400 0 57.1432 10.8499 620 61.3242 952.392 457.716
401 0 58.1513 11.2637 655 61.0901 952.823 454.829
402 0 59.0518 11.6339 687 61.3479 952.454 453.796
403 0 62.0641 10.8597 674 61.7997 952.138 455.577
