time division length width area intensity CMx CMy
0 0 50.0177 11.0361 552 58.4801 905.683 484.897
1 0 53.0636 9.68648 514 59.2043 904.934 478.08
2 0 55.0818 13.3438 735 56.5442 905.161 480.71
3 0 53.1585 9.81968 522 59.751 904.753 481.18
4 1 78.1642 13.5996 1063 52.731 904.716 485.224
5 1 61.1838 11.7842 721 57.6463 904.707 477.424
6 0 62.1204 9.51378 591 59.6041 905.222 475.168
7 0 61.1048 11.1939 684 59.2924 904.814 477.61
8 0 66.1945 11.995 794 58.3791 904.305 474.223
9 0 69.1088 12.8783 890 58.0461 904.83 474.953
10 1 92.0746 13.5868 1251 53.5939 904.596 482.64
11 1 73.1799 12.1891 892 59.3767 904.234 473.025
12 0 75.1397 13.7743 1035 58.3874 904.423 473.061
13 0 79.0704 14.4681 1144 57.5726 904.044 469.717
14 0 82.0497 13.2359 1086 58.9208 904.037 470.764
15 0 89.2371 15.5765 1390 56.2755 903.528 471.258
16 0 94.0673 15.0105 1412 56.4936 903.606 474.921
17 0 94.2211 14.2537 1343 59.2152 903.31 470.194
18 0 98.2391 16.358 1607 57.9739 903.393 467.699
19 1 50.1465 12.5433 629 60.8474 903.564 491.072
20 0 46.1768 10.6547 492 64.7947 903.22 485.567
21 0 52.0636 14.5783 759 59.9302 903.568 488.553
22 0 54.0805 13.5354 732 61.1557 903.221 486.156
23 0 56.1448 14.142 794 60.194 903.185 486.157
24 0 57.1683 14.0463 803 60.5268 903.665 486.316
25 0 59.0471 13.4977 797 61.9573 904.349 484.684
26 0 60.2756 12.6751 764 62.5668 903.974 484.737
27 0 60.0987 11.6309 699 66.8512 903.466 482.273
28 0 65.0628 13.4639 876 64.2432 903.009 482.442
29 0 65.0306 12.9324 841 64.9643 903.278 481.895
30 0 69.1474 13.6375 943 63.7741 903.971 482.594
31 0 71.0595 11.1878 795 67.4402 904.029 476.833
32 0 75.1211 14.5898 1096 62.7263 904.263 482.531
33 0 77.1837 13.8501 1069 64.1544 904.209 477.833
34 0 79.1424 14.834 1174 63.5707 904.128 475.486
35 0 81.1492 12.8036 1039 66.8354 903.908 473.672
36 0 83.1016 10.8542 902 68.9534 904.367 475.039
37 1 41.0576 10.8871 447 66.6242 903.788 491.056
38 0 46.0504 10.836 499 64.1262 903.8 495.224
39 0 48.1023 11.3924 548 64.4653 902.648 493.026
40 0 46.0327 10.8618 500 66.336 903.028 490.808
41 0 51.0803 12.3922 633 64.1833 903.43 490.948
42 0 51.1365 12.2417 626 64.2716 903.548 491.117
43 0 51.0737 12.2176 624 64.4423 903.936 491
44 0 53.1833 10.5296 560 67.0696 903.67 487.561
45 0 53.0428 11.2551 597 66.876 903.291 487.956
46 0 54.0432 10.0105 541 68.5471 903.177 486.996
47 0 59.1284 12.3798 732 65.4221 903.374 484.806
48 0 60.0389 12.1421 729 66.0562 902.933 485.567
49 0 61.0384 11.2388 686 67.309 902.535 483.926
50 0 62.1415 9.52665 592 70.3632 902.77 479.986
51 0 66.0347 12.0845 798 67.287 903.133 479.798
52 0 68.077 10.3853 707 69.1429 902.03 480.48
53 1 34.0153 9.55452 325 64.0738 902.166 500.492
54 0 35.068 9.21069 323 65.2074 901.622 499.576
55 0 36.0168 10.4118 375 65.9147 901.84 495.941
56 0 37.0195 9.96772 369 66.1762 902.612 497.07
57 0 39.0252 10.6085 414 65.5725 902.65 496.229
58 0 41.1554 10.9585 451 65.4013 902.308 495.534
59 0 44.031 10.538 464 65.6487 901.948 495.638
60 0 42.0778 11.3361 477 66.2704 901.841 493.709
61 0 46.0551 11.2691 519 65.7996 901.46 494.349
62 0 44.0482 12.0096 529 66.1853 901.626 493.832
63 0 48.0291 10.5145 505 67.5267 901.6 494.473
64 0 48.0248 11.5982 557 66.7002 901.641 493.82
65 0 50.0501 12.0679 604 66.4454 901.758 491.54
66 0 49.042 11.5207 565 67.6673 900.632 491.52
67 0 51.1318 11.9691 612 67.0441 901.181 489.626
68 0 53.0711 11.1925 594 67.5084 901.748 491.522
69 0 53.0487 10.8014 573 68.9337 901.618 488.051
70 0 54.0566 11.3215 612 68.7582 901.761 485.554
71 0 58.1274 10.9587 637 68.46 901.407 486.146
72 0 60.0745 9.93765 597 68.8844 901.568 488.119
73 0 61.0873 9.57645 585 69.9914 901.571 485.099
74 0 65.1755 10.9857 716 67.6997 901.089 485.243
75 0 66.1273 11.6745 772 67.522 900.936 482.819
76 0 70.1559 11.1751 784 67.3291 900.73 482.958
77 0 71.0991 9.67663 688 69.0305 900.378 482.378
78 0 72.2222 12.0462 870 67.1747 901.182 481.448
79 0 73.1393 9.26998 678 71.4956 900.705 476.96
80 1 40.0438 11.0879 444 63.4437 899.986 497.887
81 0 39.2027 10.1268 397 65.4181 899.778 495.592
82 0 41.154 8.09157 333 67.4264 900.946 495.598
83 0 44.1748 10.9338 483 64.1863 900.499 493.934
84 0 44.0888 8.00656 353 67.3286 899.875 493.085
85 0 45.0508 10.0997 455 64.9297 900.213 491.903
86 0 48.0245 10.8903 523 63.7667 900.168 492.011
87 0 47.1405 9.18531 433 66.1062 900.647 491.873
88 0 51.117 10.5053 537 63.7635 901.11 490.209
89 0 51.0824 10.2188 522 65.0249 901.354 486.617
90 0 52.1995 9.08055 474 65.7764 901.378 486.892
91 0 55.0837 8.85925 488 66.0574 900.867 483.453
92 0 56.135 11.4723 644 63.0714 900.756 485.163
93 0 58.1988 11.581 674 62.9125 900.634 482.877
94 0 59.1985 11.5881 686 63.1516 900.843 482.302
95 0 63.0567 11.006 694 63.098 901.125 483.01
96 0 63.1181 9.33171 589 65.2733 900.744 481.599
97 0 67.1932 10.7898 725 63.869 900.517 478.041
98 0 68.0876 10.8096 736 63.9307 900.565 478.951
99 0 71.1282 10.6568 758 63.9248 900.71 476.182
100 0 72.1673 8.90985 643 66.4821 900.969 474.162
101 0 76.1719 10.4501 796 64.6784 901.447 471.202
102 1 38.093 7.7967 297 62.5926 901.246 495.997
103 0 37.0709 7.25636 269 63.2528 901.695 496.729
104 0 39.0417 8.19637 320 63.3531 902.116 494.003
105 0 41.0662 10.203 419 60.7136 901.797 492.294
106 0 42.0879 8.52977 359 63.4958 901.997 490.407
107 0 42.076 8.74607 368 63.3261 901.511 492.864
108 0 44.1914 7.82957 346 64.263 901.488 488.746
109 0 48.1367 8.82903 425 63.0941 901.567 489.346
110 0 45.1036 8.13683 367 64.3978 901.55 485.409
111 0 50.1315 8.95645 449 62.9978 901.327 483.606
112 0 50.1561 8.05485 404 64.0965 900.703 480.441
113 0 53.1289 9.74987 518 63.6815 900.506 482.61
114 0 54.1252 8.84985 479 64.2756 900.737 479.71
115 0 57.0745 10.8805 621 62.1272 900.446 480.911
116 0 58.0573 10.4724 608 62.1332 900.636 475.36
117 0 60.0934 8.83624 531 63.6346 901.458 477.121
118 0 62.1274 8.7401 543 63.4309 901.319 474.994
119 0 64.1629 8.61869 553 63.651 901.738 476.136
120 0 67.0574 9.42477 632 62.5522 901.934 476.528
121 0 70.0778 10.2029 715 61.4573 901.664 473.396
122 0 74.1408 10.4396 774 60.8708 901.8 472.535
123 1 35.0188 7.13902 250 63.236 902.264 495.38
124 0 37.0413 8.71999 323 62.13 902.944 493.087
125 0 41.0671 10.8359 445 58.9978 903.061 493.169
126 0 42.0261 10.7314 451 59.3902 902.37 492.563
127 0 41.141 12.1776 501 58.1657 902.657 489.591
128 0 42.0726 10.6007 446 59.9193 901.969 489.002
129 0 45.0464 11.2107 505 58.9604 901.655 487.046
130 0 47.0652 10.3261 486 59.2222 901.455 488.313
131 0 48.0959 8.85731 426 60.9648 901.354 486.336
132 0 49.0264 10.9125 535 58.5047 901.366 486.249
133 0 53.0797 10.7197 569 58.3251 901.594 485.216
134 0 54.0475 11.7489 635 57.5197 901.202 483.411
135 0 52.0991 12.2267 637 57.6075 901.534 482.094
136 0 54.0987 9.29782 503 60.2346 901.525 481.278
137 0 57.18 10.5806 605 58.5917 901.402 485.2
138 0 55.0655 9.86098 543 59.9079 901.774 481.709
139 0 58.1265 11.1137 646 58.5774 901.726 479.211
140 0 59.1174 11.4349 676 58.75 901.744 479.121
141 0 63.1388 11.546 729 58.1399 901.322 478.343
142 0 66.0475 11.2949 746 58.3713 901.457 475.792
143 0 67.105 10.6549 715 59.3343 901.709 476.731
144 0 66.045 9.02415 596 61.3255 901.807 473.674
145 0 69.1256 10.0542 695 60.7525 902.033 476.371
146 0 73.1684 11.125 814 59.1843 902.091 474.73
147 0 73.074 10.373 758 60.4631 901.983 474.075
148 0 76.0526 11.7813 896 58.9431 901.944 472.289
149 0 80.142 12.7524 1022 58.1096 901.968 471.494
150 0 82.1973 11.8374 973 59.1747 901.916 469.566
151 0 86.1999 12.9118 1113 58.0045 901.461 468.743
152 0 87.1217 11.5126 1003 60.0598 901.111 469.79
153 0 91.0871 12.5594 1144 58.958 901.606 468.169
154 1 47.1012 10.1059 476 60.3866 901.731 491.889
155 0 49.1346 9.19922 452 61.7478 901.914 489.699
156 0 51.0956 11.0968 567 59.873 901.75 487.908
157 0 55.2625 11.943 660 58.5258 901.712 487.483
158 0 53.0797 11.0023 584 60.4521 902.221 485.426
159 0 55.1218 11.9372 658 59.0806 902.722 485.524
160 0 60.3011 12.3547 745 57.8617 902.573 483.792
161 0 61.0894 12.7354 778 58.0514 902.526 481.202
162 0 63.1036 12.2814 775 58.2258 903.112 481.15
163 0 65.1744 13.8858 905 56.653 902.71 480.964
164 0 69.1319 12.1796 842 58.2138 902.487 478.652
165 0 69.0663 12.7848 883 57.8641 902.695 477.045
166 0 73.0906 12.8881 942 57.8928 902.515 476.954
167 0 74.1318 13.0848 970 57.9165 902.356 476.472
168 0 76.0547 11.8862 904 59.2965 902.577 476.692
169 0 80.2487 14.2931 1147 56.8038 902.322 474.473
170 0 84.2011 13.7765 1160 56.8957 901.845 475.572
171 1 43.0624 12.3309 531 60.1092 901.354 492.414
172 0 41.0819 13.3879 550 60.2545 902.404 491.727
173 0 43.1439 10.7084 462 62.9935 902.31 491.452
174 0 45.2034 11.3045 511 63.2427 902.704 489.033
175 0 47.089 13.1666 620 60.8597 902.127 489.95
176 0 49.1075 11.933 586 62.4693 902.532 489.44
177 0 50.0265 11.294 565 63.8142 902.972 488.037
178 0 50.1141 11.5137 577 64.5598 903.25 487.51
179 0 53.0848 13.8646 736 61.5285 903.073 486.162
180 0 56.1247 12.3475 693 63.2136 902.73 485.776
181 0 56.0867 12.4985 701 64.0799 902.972 484.177
182 0 61.1112 13.1563 804 62.5522 903.177 482.628
183 0 61.048 12.826 783 63.811 903.042 482.585
184 0 62.1258 12.9737 806 64.361 903.189 482.006
185 0 66.1112 13.6286 901 63.0111 902.309 480.442
186 0 67.0879 13.1469 882 64.1395 902.868 477.584
187 0 69.0499 11.4844 793 66.1904 902.714 474.864
188 0 72.0948 12.7055 916 64.9902 902.425 474.389
189 1 31.0543 10.2079 317 65.7729 903.161 494.716
190 0 37.0838 11.5145 427 62.1288 903.349 494.408
191 0 37.0139 11.6983 433 63.6536 902.515 491.801
192 0 36.0249 8.71619 314 66.3312 902.318 494.433
193 0 39.0333 11.5542 451 63.7361 902.47 490.933
194 0 41.0211 11.7744 483 63.6294 902.257 491.439
195 0 43.1037 11.4839 495 63.5495 902.802 491.184
196 0 45.1284 10.9022 492 64.5528 903.197 489.195
197 0 46.0232 11.1683 514 64.5798 903.621 487.827
198 0 46.1388 12.0289 555 63.9045 903.562 486.778
199 0 50.0435 11.9696 599 63.0751 904.07 485.548
200 0 50.1042 12.1746 610 63.2115 903.043 484.63
201 0 52.0277 12.7432 663 61.9744 903.018 485.852
202 0 52.1155 11.9542 623 63.6902 902.49 483.677
203 0 53.0315 10.8803 577 64.5893 902.383 481.95
204 0 57.0764 12.2117 697 62.4505 902.458 481.221
205 0 58.1736 13.7519 800 60.8238 902.628 479.656
206 0 61.075 10.4298 637 63.529 903.305 481.71
207 0 62.0894 11.725 728 61.4794 902.787 478.857
208 0 63.0771 12.5402 791 60.426 902.769 476.303
209 0 67.1021 13.6061 913 58.0909 902.364 477.363
210 0 68.2046 12.3452 842 59.6259 902.483 476.346
211 0 71.1045 11.012 783 60.7165 902.369 474.577
212 0 74.2014 11.8866 882 59.2222 902.726 472.692
213 0 76.1314 13.7131 1044 57.5144 903.276 471.211
214 1 42.0995 11.6391 490 58.5918 903.086 487.251
215 0 44.093 10.2964 454 58.6872 902.597 490.866
216 0 46.1 12.3861 571 57.6147 902.436 488.103
217 0 49.1154 14.9648 735 54.1048 902.286 485.384
218 0 49.058 13.1477 645 56.1442 902.292 485.806
219 0 51.0549 11.9871 612 57.4232 902.114 485.039
220 0 52.053 14.2739 743 54.6676 902.233 484.768
221 0 53.0565 11.2333 596 57.7936 902.389 483.574
222 0 54.1162 10.4959 568 58.6461 902.454 482.581
223 0 55.0751 12.8552 708 56.3319 902.458 477.384
224 0 58.0353 11.5619 671 57.7124 902.49 478.395
225 0 59.0955 13.4866 797 55.7051 902.526 476.327
226 0 62.0453 11.9268 740 57.2351 902.274 475.55
227 0 63.1081 11.1238 702 57.9701 902.4 474.312
228 0 66.0632 12.4124 820 56.3695 902.632 477.796
229 0 68.0552 12.6809 863 55.905 902.359 477.571
230 0 69.0696 11.2206 775 58.0284 902.458 472.857
231 0 72.1099 12.7999 923 56.2795 902.154 470.943
232 0 73.1365 11.0342 807 58.4634 903.028 471.822
233 0 72.0464 8.67497 625 60.7296 902.445 467.997
234 0 79.0589 11.8899 940 57.3074 903.063 469.615
235 0 80.1008 12.8463 1029 56.8503 903.365 467.199
236 1 40.0248 9.41916 377 58.5278 903.053 488.637
237 0 39.1674 10.1104 396 58.005 902.745 487.758
238 0 41.0749 11.4425 470 57.1872 902.562 484.877
239 0 44.0488 11.8278 521 56.1305 902.616 487.265
240 0 40.0658 9.68406 388 60.2268 902.858 484.466
241 0 45.02 10.7508 484 57.5145 902.855 485.114
242 0 49.0745 12.695 623 55.6629 902.437 481.684
243 0 49.1751 11.4692 564 57.3883 902.05 481.77
244 0 53.0957 13.1272 697 55.056 902.473 482.211
245 0 52.1251 14.1007 735 54.8762 902.488 479.737
246 0 56.0702 13.6258 764 54.9215 902.152 479.995
247 0 54.3162 11.0096 598 58.3946 902.232 477.286
248 0 57.1516 11.7932 674 57.8398 902.079 477.341
249 0 61.0818 10.2322 625 58.2432 901.458 477.424
250 0 63.3875 10.9485 694 58.562 901.791 474.984
251 0 62.3075 11.2828 703 58.7084 902.213 474.946
252 0 65.228 10.9462 714 58.7507 902.251 472.741
253 0 68.1611 11.6782 796 57.6143 902.435 472.534
254 0 70.1438 10.621 745 58.651 902.831 472.224
255 0 74.1591 12.9317 959 56.3837 901.92 472.211
256 0 73.3865 10.7922 792 59.4381 902.285 470.302
257 1 37.1441 9.01892 335 59.8687 902.227 485.525
258 0 40.1063 10.2478 411 57.4161 902.499 487.54
259 0 41.0163 11.4101 468 56.7158 902.417 485.718
260 0 44.0139 11.769 518 56.1158 902.475 486.039
261 0 43.0734 10.8187 466 57.4807 902.378 486.504
262 0 46.0706 10.5056 484 58.031 902.64 482.99
263 0 45.1583 11.5593 522 57.0709 902.533 482.034
264 0 46.1515 11.4622 529 57.3044 901.671 483.45
265 0 48.0233 11.4319 549 57.2186 902.37 483.834
266 0 50.096 11.8972 596 56.6728 902.091 480.342
267 0 55.0501 11.0808 610 56.3639 901.912 480.559
268 0 53.0246 12.8997 684 55.2105 901.579 478.164
269 0 55.0665 12.7301 701 55.3852 902.166 478.357
270 0 56.0412 9.33241 523 58.5889 902.138 475.937
271 0 57.1091 13.8332 790 54.0608 901.887 475.837
272 0 59.0743 9.91971 586 57.9676 902.608 475.741
273 0 61.0295 10.3556 632 57.644 902.593 475.315
274 0 65.1767 9.9422 648 57.4522 902.111 472.235
275 0 65.2112 10.0289 654 57.4342 902.098 472.659
276 0 67.2198 10.5029 706 56.7649 902.375 471.762
277 0 70.14 12.3895 869 54.7342 902.693 470.923
278 0 70.14 12.4038 870 107.233 902.688 470.902
279 0 75.154 11.0706 832 55.7668 902.087 466.305
280 1 40.0441 9.86413 395 55.1494 902.2 484.453
281 0 40.0478 10.4625 419 54.9881 902.578 484.527
282 0 43.0493 8.64126 372 56.0914 902.61 484.196
283 0 44.1416 9.28828 410 55.4707 901.944 482.002
284 0 46.0532 11.5519 532 53.5639 901.966 482.476
285 0 50.0879 11.1205 557 53.7217 902.28 480.831
286 0 50.055 10.3087 516 55.0174 901.45 481.258
287 0 52.0129 10.632 553 55.094 901.42 479.231
288 0 53.0695 10.1942 541 55.3641 901.299 479.348
289 0 56.0351 10.5827 593 54.7032 901.619 476.712
290 0 57.051 9.93848 567 55.6861 901.116 475.243
291 0 61.057 10.8751 664 54.1882 901.506 476.02
292 0 60.1227 10.778 648 54.9691 901.386 473.802
293 0 63.058 10.4507 659 54.8907 901.589 471.707
294 0 65.2313 11.1756 729 54.0274 901.431 472.348
295 0 67.1147 9.20812 618 55.8722 901.574 469.537
296 0 68.0415 9.55299 650 56.0554 901.895 468.726
297 0 70.0527 11.7198 821 54.1291 902.38 466.876
298 0 74.166 10.6248 788 54.9759 903.193 464.966
299 0 77.1194 9.56958 738 55.6084 902.904 464.981
300 0 80.1681 11.3013 906 53.8985 902.649 462.453
301 0 83.1204 9.54038 793 55.2724 902.545 464.701
302 0 86.0211 9.66042 831 55.3791 902.098 460.114
303 1 43.0526 8.87287 382 54.5628 902.377 484.573
304 0 47.0303 8.35632 393 55.6056 902 480.893
305 0 48.0649 11.214 539 52.9147 901.981 481.694
306 0 50.0819 10.8622 544 53.3529 901.756 479.38
307 0 53.0657 11.7402 623 51.9502 901.596 480.374
308 0 56.1036 10.0885 566 53.5018 902.53 478.557
309 0 57.202 12.4121 710 51.7479 902.714 477.523
310 0 60.1107 11.3624 683 52.4392 902.49 478.783
311 0 59.0722 10.6141 627 53.3014 902.088 478.36
312 1 73.3482 12.5566 921 50.0239 902.271 477.744
313 0 66.153 12.9397 856 51.0689 902.1 473.325
314 0 66.1523 9.32696 617 54.436 902.31 469.924
315 0 70.1486 11.8605 832 52.3353 902.83 472.153
316 0 72.1358 11.8665 856 52.1414 902.683 469.673
317 0 73.2154 9.68375 709 54.2355 902.599 465.975
318 0 77.0613 11.3286 873 52.8591 902.658 464.511
319 0 79.1898 11.0368 874 53.0126 902.604 462.253
320 0 81.2129 11.3036 918 52.9673 902.185 461.801
321 0 85.1935 10.9985 937 53.3372 901.843 462.446
322 0 89.1036 12.5135 1115 51.8574 902.485 458.196
323 1 43.0973 11.184 482 51.417 901.84 482.95
324 0 45.0858 9.80353 442 52.7919 901.808 483.348
325 0 44.0761 9.93737 438 52.9338 902.11 481.498
326 0 49.09 11.2039 550 52.3509 901.842 482.449
327 0 48.1393 10.615 511 52.7476 903.262 483.405
328 0 53.0541 12.214 648 51.6867 903.412 480.247
329 0 52.0898 10.5011 547 53.83 903.462 477.172
330 0 54.2207 11.7667 638 52.7853 902.839 475.389
331 0 57.0549 11.0595 631 53.4279 902.59 474.046
332 0 57.4237 10.6402 611 54.1718 903.126 475.349
333 0 61.0579 10.9077 666 53.7583 903.143 475.153
334 0 61.2099 10.1127 619 54.6446 903.026 473.528
335 0 68.3064 11.9022 813 52.8721 903.108 470.118
336 0 68.1867 9.41532 642 54.9891 903.277 473.146
337 0 69.3211 12.2185 847 52.686 903.72 472.417
338 0 73.1322 12.4569 911 52.9923 903.117 468.099
339 0 74.0939 11.6744 865 53.8405 903.073 466.909
340 0 78.1017 10.2431 800 55.0225 902.872 463.99
341 0 83.1478 11.4014 948 54.1635 902.658 464.809
342 0 82.1733 10.417 856 55.3703 903.091 464.643
343 0 88.1899 11.8267 1043 54.0997 902.865 460.988
344 0 90.183 12.4414 1122 53.885 902.818 461.467
345 1 47.0506 10.0742 474 55.7722 902.629 482.278
346 0 48.0516 11.9455 574 54.7125 902.643 479.676
347 0 50.2105 12.6667 636 53.8758 902.223 478.239
348 0 52.0464 11.1439 580 55.2724 901.734 478.821
349 0 53.0906 12.8271 681 53.5316 902.032 477.51
350 0 54.1162 9.94157 538 56.4851 901.939 475.29
351 0 57.2076 11.2223 642 55.4704 901.659 478.659
352 0 59.0669 13.4254 793 53.8676 901.657 475.097
353 0 60.1774 11.5824 697 55.4261 901.924 476.063
354 0 60.0294 10.6115 637 56.8932 901.998 470.777
355 0 64.085 12.7175 815 54.8945 902.276 471.218
356 0 65.0859 11.5847 754 56.0517 901.829 470.515
357 0 64.0514 10.7882 691 57.3068 901.792 469.524
358 0 68.0444 13.0356 887 55.1612 901.723 469.064
359 0 70.1361 12.3332 865 55.5445 902.548 469.121
360 0 74.0851 12.0807 895 55.7531 902.682 469.484
361 0 75.0581 12.2971 923 55.5244 901.926 468.964
362 0 81.0573 12.8428 1041 54.8886 901.9 466.258
363 0 84.216 12.3136 1037 55.3018 902.138 467.767
364 1 39.02 9.7386 380 58.0895 901.51 486.589
365 0 41.0581 11.4472 470 56.817 901.777 486.608
366 0 43.0804 10.7706 464 57.3211 901.284 487.183
367 0 47.1295 14.4495 681 53.3877 901.073 485.137
368 0 46.0687 12.3077 567 56.0018 901.919 484.474
369 0 47.1701 12.6775 598 55.5686 901.972 484.821
370 0 48.059 12.776 614 56.2459 902.44 482.502
371 0 49.0423 11.8469 581 56.8485 902.2 481.986
372 0 49.0812 9.37222 460 59.487 902.178 482.041
373 0 54.0859 13.8853 751 55.1505 902.73 479.836
374 0 52.0524 11.9687 623 57.7913 902.759 478.995
375 0 55.0918 13.1054 722 56.7535 902.507 478.44
376 0 56.15 12.5557 705 57.5192 901.756 475.592
377 0 59.0686 13.4759 796 56.647 902.034 475.634
378 0 60.1021 11.4306 687 58.7773 901.853 474.397
379 0 64.1056 12.9786 832 56.9339 901.9 474.68
380 0 66.1265 11.2058 741 58.6235 903.062 474.912
381 0 68.0871 11.8084 804 58.2015 902.813 468.668
382 0 72.0772 10.9189 787 58.7967 902.254 471.097
383 1 34.0463 12.6005 429 56.4103 902.529 490.03
384 0 35.0501 8.87301 311 58.9357 902.486 489.63
385 0 38.0491 10.7755 410 57.0634 901.885 487.022
386 0 39.0454 11.3202 442 56.9774 901.894 488.335
387 0 42.0317 11.5865 487 56.1766 901.452 489.774
388 0 43.1554 11.2848 487 57.2361 901.489 486.209
389 0 44.0218 13.1071 577 55.8978 901.926 485.913
390 0 44.0304 13.2181 582 56.6478 901.495 482.557
391 0 47.0403 12.67 596 57.3507 901.983 481.374
392 0 48.0471 11.5512 555 58.564 902.377 483.225
393 0 47.0427 9.58704 451 60.6874 902.233 482.747
394 0 52.0154 12.554 653 57.8744 901.372 480.881
395 0 53.1726 13.4844 717 57.4505 901.611 480.533
396 0 58.0871 13.0494 758 56.847 900.856 482.712
397 0 57.0284 12.1518 693 59.2366 901.541 479.912
398 0 60.0908 12.0151 722 59.5332 902.283 480.428
399 0 60.1634 12.0173 723 59.9848 901.788 481.397
400 0 63.1988 13.7819 871 58.8025 902.114 477.261
401 0 64.0422 13.4443 861 59.9884 902.135 476.588
402 0 70.0401 12.7213 891 60.431 902.055 476.176
403 0 71.0586 12.9893 923 60.6761 901.713 476.492
404 0 73.13 11.5001 841 62.83 901.459 472.477
