time division length width area intensity CMx CMy
0 0 41.0405 10.112 415 67.7374 125.487 514.135
1 0 41.0653 11.6644 479 65.5908 124.858 514.578
2 0 42.0382 12.6314 531 64.0678 125.403 513.81
3 0 44.0539 12.9614 571 63.3012 125.105 514.686
4 0 43.0199 12.0642 519 64.975 124.314 515.071
5 0 42.0923 9.76425 411 69.983 123.382 513.397
6 0 45.0781 10.9366 493 67.1481 124.28 515.99
7 0 48.0783 12.2093 587 65.7513 124.302 514.608
8 0 46.0609 11.4414 527 68.3871 124.235 514.127
9 0 46.0525 11.8995 548 68.2792 123.883 514.029
10 0 49.0651 12.5548 616 66.3198 123.711 513.662
11 0 50.0189 13.275 664 65.7259 122.863 512.943
12 0 51.0488 12.1061 618 67.1181 123.523 513.626
13 0 51.0338 12.4035 633 66.9889 123.833 514.014
14 0 51.0552 11.8695 606 68.1139 123.267 514.952
15 0 52.121 12.5094 652 68.1886 123.727 513.136
16 0 57.1029 12.8365 733 66.221 124.518 514.423
17 0 56.0868 13.0156 730 67.7808 123.329 512.23
18 0 57.039 13.2541 756 67.5238 123.484 511.382
19 0 59.1154 12.8562 760 67.5092 123.596 511.218
20 0 60.0331 12.3598 742 68.9474 123.403 509.472
21 0 61.0596 13.8062 843 66.8102 123.336 508.782
22 0 63.0564 13.5593 855 67.0842 123.193 508.848
23 0 63.0958 13.5667 856 67.8528 122.873 507.889
24 0 65.0492 12.283 799 69.6558 123.173 507.148
25 0 67.1407 12.228 821 69.296 123.002 506.918
26 0 71.0458 12.6397 898 68.8196 123.46 505.879
27 0 71.1628 13.4059 954 68.608 122.81 504.717
28 0 74.0354 12.9668 960 68.901 123.412 504.901
29 0 77.0461 13.2258 1019 68.5633 124.494 504.363
30 1 38.0945 11.0515 421 71.6746 124.321 520.572
31 0 41.0114 13.484 553 68.7975 124.3 519.105
32 0 41.0163 11.0444 453 71.649 124.305 519.876
33 0 43.0152 11.647 501 71.1996 123.956 518.918
34 0 43.0325 13.3155 573 69.5358 123.089 516.937
35 0 44.253 11.8862 526 71.8973 123.918 516.553
36 0 47.0512 13.8998 654 67.9113 124.511 516.063
37 0 47.0518 11.1792 526 72.6616 124.2 514.939
38 0 49.0591 12.9436 635 69.2677 124.6 517.228
39 0 49.0806 12.3267 605 70.9488 124.712 516.841
40 0 52.027 13.3008 692 69.6185 125.354 515.062
41 0 54.0497 13.6726 739 69.2382 124.74 514.938
42 0 53.1015 11.7322 623 72.9615 124.156 513.899
43 0 55.0867 13.0158 717 72.1241 124.609 510.363
44 0 57.0568 12.7592 728 73.4835 124.379 509.832
45 0 58.0695 12.6056 732 72.515 124.72 512.352
46 0 59.0391 12.0937 714 73.7899 124.65 511.924
47 0 62.1136 13.5558 842 72.5083 124.438 509.702
48 0 65.0608 14.2021 924 72.092 124.424 507.182
49 0 67.0425 13.7226 920 73.0326 124.961 509.279
50 0 68.0508 11.8147 804 76.1654 124.563 508.131
51 0 70.0445 15.0618 1055 72.3583 124.699 506.469
52 0 72.0466 13.0471 940 74.9957 124.91 504.59
53 0 73.1114 13.1307 960 76.2198 124.93 503.605
54 0 74.089 12.9439 959 77.1919 125.311 501.885
55 0 79.1217 13.2075 1045 76.0718 124.628 502.682
56 0 81.066 13.0758 1060 76.9934 124.692 501.16
57 0 82.0998 11.9489 981 79.4281 125.448 500.528
58 0 84.081 12.821 1078 77.7616 126.327 500.73
59 0 85.0545 13.0622 1111 78.3663 125.292 499.085
60 0 88.1263 13.4353 1184 78.2964 125.623 496.032
61 0 92.0666 12.4258 1144 79.1486 125.87 495.433
62 0 94.0917 14.1883 1335 76.5184 124.873 495.871
63 0 96.2876 12.6081 1214 79.1853 124.757 494.301
64 0 100.089 14.3872 1440 76.7458 125.442 490.598
65 0 103.079 13.0774 1348 79.4362 126.088 488.349
66 1 56.0643 12.2716 688 78.5392 125.74 512.651
67 0 56.0671 12.3424 692 79.5477 126.14 510.712
68 0 58.0353 12.6475 734 79.7044 125.331 510.061
69 0 59.0448 13.0748 772 79.6516 124.885 508.776
70 0 62.0221 12.9631 804 79.3284 125.056 508.474
71 0 66.0522 13.8981 918 78.5076 124.575 505.8
72 0 67.1589 13.952 937 78.3703 124.951 506.489
73 0 69.1164 12.7032 878 80.9317 124.714 504.921
74 0 71.0413 12.908 917 80.9095 124.763 504.675
75 0 73.1249 12.6496 925 81.1805 125.65 504.307
76 0 77.0384 13.8762 1069 79.9598 125.734 501.494
77 0 78.0569 12.9009 1007 82.0566 124.989 499.998
78 0 80.0836 13.3361 1068 81.692 125.72 500.116
79 0 83.1304 12.4984 1039 83.4023 125.734 497.502
80 1 45.0385 12.7447 574 79.9251 125.368 516.735
81 0 43.0339 11.7117 504 83.3115 125.137 516.817
82 0 47.101 11.486 541 82.3882 125.763 516.359
83 0 48.0988 12.2248 588 82.1735 125.566 514.736
84 0 49.041 12.3978 608 82.3947 125.275 513.548
85 0 51.0272 12.8559 656 80.3994 125.77 514.665
86 0 53.0198 13.0329 691 80.0391 126.214 512.37
87 0 55.0752 12.0744 665 81.1113 125.992 511.723
88 0 57.0864 12.2271 698 80.6261 125.927 509.808
89 0 57.0288 12.0465 687 80.6739 125.898 510.442
90 0 58.0864 13.1872 766 79.6658 126.189 508.044
91 0 62.0525 12.3122 764 80.534 125.908 507.614
92 0 64.0853 13.248 849 78.2179 125.842 507.578
93 0 66.0637 12.2155 807 78.8278 125.125 509.595
94 0 67.0856 12.5213 840 80.1667 124.785 503.224
95 0 69.0493 12.8459 887 78.9887 124.842 503.999
96 0 73.0907 13.0933 957 77.9509 124.856 503.145
97 0 73.1302 12.7034 929 79.7998 125.249 499.89
98 0 77.0959 13.5027 1041 78.4015 125.122 499.158
99 0 80.0411 13.8054 1105 76.5348 124.82 500.357
100 0 82.0439 13.1515 1079 78.456 125.14 497.843
101 1 43.0121 10.9039 469 79.1855 125.539 517.382
102 0 43.0253 11.2492 484 79.1302 125.426 516.264
103 0 43.023 11.0639 476 80.6513 125.227 514.895
104 0 47.0721 12.8526 605 76.6711 125.451 515.086
105 0 47.0773 12.5963 593 77.1636 126.231 514.277
106 0 48.0707 12.9601 623 77.557 124.907 512.53
107 0 50.0505 11.4884 575 79.527 125.475 512.13
108 0 53.0491 13.1765 699 68.7768 125.329 512.206
109 0 52.0469 11.4896 598 78.7458 125.196 510.182
110 0 54.099 13.3829 724 75.9309 125.604 507.457
111 0 56.0335 13.0993 734 75.8174 125.083 508.034
112 0 58.0923 12.4974 726 76.8815 125.459 506.35
113 0 60.0441 12.9904 780 76.2436 125.362 505.091
114 0 61.0122 13.1941 805 75.3491 125.188 505.278
115 0 64.0964 12.9024 827 76 125.967 504.677
116 0 66.0221 14.0407 927 74.4444 125.785 502.273
117 0 69.0879 12.6361 873 76.4559 125.49 502.651
118 0 71.0716 13.2683 943 75.4624 125.638 500.976
119 0 75.0556 14.4293 1083 73.482 125.342 499.424
120 0 77.0744 13.2599 1022 74.6546 125.177 499.342
121 0 77.0952 12.6208 973 76.8561 125.202 497.169
122 0 81.078 12.3461 1001 77.0939 125.298 497.462
123 0 83.0412 13.6318 1132 74.7756 125.422 496.996
124 0 85.0347 13.2416 1126 76.1261 125.369 495.054
125 0 88.0642 13.899 1224 75.1479 124.311 491.94
126 0 89.1679 12.0671 1076 78.8578 124.01 489.848
127 0 94.1899 13.4622 1268 75.4976 124.511 489.516
128 1 45.0363 12.39 558 74.3369 126.102 513.943
129 0 46.0543 11.6384 536 76.4888 126.067 512.172
130 0 48.038 12.3444 593 74.3541 125.206 511.676
131 0 50.0158 12.9359 647 73.085 124.818 509.292
132 0 51.0426 13.0479 666 72.3498 125.195 510.52
133 0 54.0357 13.7132 741 70.9622 125.502 509.07
134 0 54.0136 12.1636 657 73.8508 125.522 509.263
135 0 57.1138 13.2542 757 70.9406 125.69 508.366
136 0 60.0642 12.3201 740 71.4216 125.551 507.693
137 0 60.0606 13.1201 788 70.9188 125.363 505.463
138 0 62.0357 13.3633 829 70.7841 125.043 503.23
139 0 62.0665 11.4393 710 74.4014 125.185 503.796
140 0 66.08 12.0611 797 72.8996 125.764 503.98
141 0 69.0655 12.6402 873 72.0458 125.584 502.228
142 0 70.1342 12.8326 900 72.2 125.966 500.361
143 0 72.0941 12.6363 911 72.7585 125.146 498.061
144 0 74.0516 13.5716 1005 70.8637 125.845 498.56
145 0 78.0748 12.6545 988 72.6781 125.425 495.545
146 0 77.0564 12.3157 949 73.6502 125.43 494.298
147 0 82.0526 13.3207 1093 71.8307 124.918 495.035
148 0 85.1196 13.064 1112 72.1655 125.127 494.594
149 1 45.0244 10.3055 464 72.6379 124.737 514.72
150 0 45.0173 10.4182 469 73.8465 125.546 513.486
151 0 44.0475 10.7611 474 73.2468 124.973 513.266
152 0 47.122 12.2448 577 70.9879 125.227 512.18
153 0 48.1694 12.29 592 71.2247 124.943 511.299
154 0 51.1603 13.2916 680 68.6853 125.704 511.832
155 0 51.0902 12.566 642 70.3801 125.522 510.174
156 0 52.1062 11.8412 617 71.1361 125.935 510.927
157 0 54.1407 12.8554 696 69.6782 124.736 507.914
158 0 55.1494 10.8251 597 72.3685 125.444 509.348
159 0 57.1332 13.2672 758 68.967 125.135 506.679
160 0 58.1237 11.4239 664 71.9608 125.071 506.434
161 0 60.1669 11.6675 702 71.8148 125.127 505.906
162 0 62.2294 13.6752 851 68.4571 125.137 504.271
163 0 62.1111 11.0286 685 72.2467 125.384 503.244
164 0 65.0672 12.464 811 69.8175 124.625 503.268
165 0 66.0976 12.2546 810 70.2457 125.716 502.469
166 0 70.0751 13.2857 931 68.2578 125.734 501.441
167 0 73.1177 12.5961 921 69.3236 125.066 497.617
168 0 73.0803 10.9195 798 71.985 125.487 499.175
169 0 75.0338 11.0484 829 71.0555 124.949 496.973
170 0 79.0966 11.9474 945 69.71 125.495 497.042
171 1 38.0142 10.6539 405 70.7802 125.052 513.652
172 0 43.0522 9.98788 430 68.793 125.491 516.735
173 0 43.0558 11.3341 488 68.6762 125.082 514.34
174 0 45.1387 12.1847 550 67.8964 125.625 513.367
175 0 46.043 12.4666 574 67.3571 125.037 512.052
176 0 47.1342 11.1172 524 70.0859 125.084 510.802
177 0 47.0414 12.5846 592 68.3851 124.765 511.106
178 0 50.0841 11.8201 592 69.0017 125.157 509.698
179 0 51.092 11.9588 611 68.1146 126.133 511.452
180 0 52.059 11.6214 605 69.5091 126.147 509.417
181 0 55.0871 12.1263 668 68.3293 126.254 508.515
182 0 56.1021 13.7072 769 66.645 125.904 506.166
183 0 58.0556 11.6096 674 68.9421 125.384 508.217
184 0 59.1097 13.4834 797 66.6274 124.997 507.253
185 0 60.0246 13.3945 804 67.0622 124.478 506.313
186 0 61.0553 12.0219 734 69.2398 123.929 505.684
187 0 63.0289 12.4705 786 68.3359 123.925 503.637
188 0 65.0868 12.4296 809 68.1409 123.439 504.837
189 0 68.0334 13.5375 921 66.9403 123.871 502.1
190 0 70.0297 12.6661 887 67.9143 123.372 502.478
191 0 73.0416 12.5819 919 68.099 123.002 502.337
192 0 72.0274 11.6206 837 70.9737 123.392 500.56
193 0 75.1139 11.396 856 70.6437 123.324 502.24
194 1 40.0192 9.67037 387 71.5375 123.282 519.959
195 0 40.0644 10.2335 410 71.361 122.38 518.917
196 0 44.0802 12.3638 545 68.0917 123.215 518.196
197 0 43.0397 11.3616 489 71.0389 123.812 517.585
198 0 46.0516 10.814 498 70.7811 123.373 518.458
199 0 46.0256 11.0373 508 71.4291 122.409 518.911
200 0 47.0482 11.9239 561 70.2692 121.966 517.506
201 0 50.0221 11.7748 589 70.1341 122.593 516.91
202 0 51.0241 11.132 568 71.3046 121.977 516.974
203 0 53.0275 12.2201 648 68.9522 121.514 516.156
204 0 54.0917 12.183 659 69.2989 121.602 515.754
205 0 56.0604 11.7017 656 69.9543 121.427 514.93
206 0 57.1066 10.7518 614 71.1384 121.217 515.016
207 0 58.0506 11.3866 661 69.7428 122.159 514.554
208 0 60.0128 11.2643 676 69.5917 121.925 513.891
209 0 63.027 12.1377 765 65.6157 121.949 517.102
210 0 65.0362 11.532 750 67.2387 121.524 513.955
211 0 67.0782 12.0009 805 65.6944 121.882 511.25
212 0 69.0765 12.1604 840 65.7238 121.615 509.486
213 0 72.1118 11.5792 835 65.2407 120.812 510.083
214 0 74.1566 11.2195 832 66.0685 120.909 508.287
215 0 76.1898 10.7495 819 67.0781 120.667 504.893
216 0 76.1268 9.77316 744 68.3978 120.863 506.23
217 0 79.0436 12.2591 969 65.2642 120.202 504.538
218 1 41.0392 10.9895 451 64.6984 120.109 523.317
219 0 42.0296 11.4443 481 63.817 120.96 521.694
220 0 42.0572 10.6997 450 65.3178 120.24 521.436
221 0 44.0089 10.8842 479 64.6534 119.906 520.463
222 0 44.0499 11.5778 510 64.3726 120.722 519.3
223 0 46.1531 12.5019 577 62.8319 120.475 517.943
224 0 48.0497 9.53179 458 66.1638 120.035 518.369
225 0 49.0603 13.5548 665 62.2842 119.197 516.138
226 0 48.1142 10.5374 507 65.9014 119.779 516.882
227 0 52.1357 10.1274 528 65.5057 119.106 515.799
228 0 53.1147 12.6707 673 62.9064 120.183 513.499
229 0 56.1092 11.9945 673 62.2496 120.273 514.403
230 0 55.2895 11.7201 648 63.6343 119.985 511.537
231 0 56.1324 9.21036 517 65.8414 120.151 513.201
232 0 59.0786 11.527 681 62.8987 120.537 510.717
233 0 61.078 11.9683 731 62.6484 120.32 508.767
234 0 63.0384 11.0726 698 63.9642 119.821 508.116
235 0 65.068 11.2805 734 63.9891 120.104 506.3
236 0 67.0928 11.5661 776 63.6946 120.402 506.057
237 0 69.0455 12.4411 859 62.6903 119.952 503.476
238 0 71.0927 11.914 847 63.327 120.506 503.211
239 0 71.0669 11.8621 843 64.4543 120.45 499.388
240 0 75.0597 12.6433 949 63.3172 120.725 499.112
241 0 79.1366 12.1309 960 63.9115 120.692 499.822
242 0 81.1713 13.4161 1089 62.3848 120.803 497.306
243 0 84.068 12.6683 1065 63.0507 120.274 496.19
244 0 84.2405 12.9629 1092 63.9139 119.95 494.011
245 0 85.0401 10.9713 933 66.4845 120.77 493.659
246 0 91.1614 12.1433 1107 65.1292 121.277 491.792
247 1 48.1247 10.2234 492 67.4085 120.681 514.693
248 0 49.0519 11.0291 541 66.6137 121.081 513.333
249 0 48.0495 11.3216 544 67.3456 121.616 512.09
250 0 51.032 11.385 581 66.7969 121.258 513.861
251 0 51.0579 10.4783 535 68.7551 120.738 514.278
252 0 55.071 11.3308 624 66.9599 120.692 513.905
253 0 57.0871 11.7014 668 66.5988 120.644 511.877
254 0 58.0543 12.6089 732 65.4891 121.227 510.975
255 0 59.1987 11.453 678 67.0737 120.785 512.119
256 0 60.0752 12.9671 779 65.4762 120.768 508.676
257 0 63.0513 11.9902 756 65.7209 120.954 509.179
258 0 63.0416 11.2783 711 67.2968 120.918 509.293
259 0 65.1373 11.2839 735 66.7129 120.614 509.468
260 0 66.0579 12.6253 834 64.7698 120.447 509.464
261 0 70.2662 12.0826 849 65.192 120.509 509.205
262 0 70.0446 10.6646 747 67.7149 120.578 507.186
263 0 75.0551 12.1644 913 65.4217 121.299 506.59
264 0 75.1761 11.626 874 66.3638 120.606 506.939
265 0 77.1371 11.3823 878 67.9579 120.237 503.096
266 0 81.0908 12.1469 985 66.1787 119.876 504.724
267 0 84.109 12.9713 1091 65.2841 119.873 501.734
268 0 85.1893 12.8889 1098 66.3069 119.75 499.791
269 0 87.1456 12.416 1082 66.9473 119.826 502.209
270 0 90.1147 13.4162 1209 66.2051 119.948 500.366
271 1 47.0374 12.3731 582 67.5859 119.907 519.641
272 0 50.0186 12.0355 602 68.1163 119.944 519.867
273 0 50.0218 11.2551 563 69.9005 119.806 519.162
274 0 50.0222 12.5544 628 68.2404 120.083 518.694
275 0 54.0333 10.3455 559 70.4848 119.42 517.792
276 0 56.0335 10.7079 600 69.6517 119.578 516.518
277 0 55.0204 11.0141 606 70.3977 119.584 514.88
278 0 59.0271 11.9098 703 68.2233 119.767 515.356
279 0 58.0825 11.8108 686 69.3746 119.743 513.493
280 0 62.069 12.76 792 67.1439 120.352 515.294
281 0 65.0597 13.234 861 66.1591 119.643 512.013
282 0 67.062 13.1371 881 66.689 119.27 511.257
283 0 68.0324 13.229 900 66.7144 119.68 508.489
284 0 70.0697 12.3877 868 67.4194 119.318 507.873
285 0 73.0448 12.3212 900 66.4911 118.562 509.697
286 0 73.0552 12.1963 891 68.1324 119.104 505.532
287 0 76.1564 13.2622 1010 66.4218 118.895 504.892
288 0 81.1555 13.2585 1076 65.6199 119.295 504.665
289 0 81.0381 13.0803 1060 66.5745 119.081 502.564
290 0 85.0499 12.475 1061 66.6946 119.004 502.806
291 0 89.102 13.1984 1176 65.8308 119.178 502.157
292 0 90.0486 12.6598 1140 67.2649 119.09 499.328
293 1 48.0442 11.0107 529 68.3478 119.335 520.992
294 0 48.0271 12.2014 586 68.0068 119.596 518.334
295 0 51.0162 11.5257 588 68.6769 119.537 518.944
296 0 52.1038 11.669 608 68.1447 119.015 519.23
297 0 54.0194 12.2549 662 68.1843 118.609 515.961
298 0 54.0118 11.6641 630 69.6952 118.868 514.592
299 0 56.0155 11.4433 641 70.0998 118.919 514.565
300 0 58.067 11.2112 651 69.7665 119.553 513.916
301 0 61.0592 12.1685 743 68 118.965 511.191
302 0 60.042 11.5086 691 69.3821 118.706 510.77
303 0 64.1062 12.3701 793 67.6873 118.468 509.788
304 0 64.0413 12.5544 804 67.1082 117.835 508.67
305 0 67.0606 12.4514 835 66.8168 117.663 510.836
306 0 68.0794 12.3826 843 67.6868 117.837 507.558
307 0 71.0383 13.5983 966 66.1625 117.638 506.893
308 0 72.0393 11.9796 863 68.8158 118.725 506.083
309 0 75.0674 12.7219 955 67.7937 118.441 501.848
310 0 77.128 13.4063 1034 66.5435 117.734 503.941
311 0 79.0898 13.1623 1041 66.9971 118.393 504.467
312 0 82.1249 13.2238 1086 67.4779 117.687 500.093
313 0 86.1297 13.5029 1163 66.2666 117.059 501.025
314 0 87.0832 12.0115 1046 68.8891 118.01 501.662
315 0 89.0698 12.8775 1147 68.4516 117.815 497.872
316 0 91.1005 12.9308 1178 68.7122 117.938 497.23
317 0 96.1167 13.8894 1335 67.6599 118.297 493.742
318 1 52.0502 13.1604 685 66.7577 118.353 516.521
319 0 54.0639 12.4852 675 68.7482 118.745 514.133
320 0 55.0369 11.9374 657 69.3577 118.447 514.212
321 0 57.1003 12.9947 742 67.7129 117.801 514.371
322 0 59.0542 11.8705 701 69.0642 118.081 512.429
323 0 59.0621 11.0392 652 70.3635 117.725 513.589
324 0 61.0779 11.6081 709 69.536 118.35 510.839
325 0 64.049 11.663 747 69.2878 118.09 510.485
326 0 66.0473 13.1875 871 67.0023 118.967 509.179
327 0 65.0714 11.3107 736 71.3682 118.886 506.992
328 0 70.1093 13.3649 937 67.318 119.22 508.26
329 0 71.0464 12.344 877 69.7001 118.616 506.684
330 0 73.1008 12.0655 882 70.0272 117.983 504.788
331 0 76.1197 13.5445 1031 67.1891 118.009 506.416
332 0 77.0197 13.3992 1032 68.8605 118.538 503.104
333 0 81.093 12.5288 1016 69.2569 118.978 502.879
334 0 85.1603 12.588 1072 68.9515 119.102 502.653
335 0 86.046 13.5393 1165 68.036 118.071 499.604
336 0 87.0732 11.5535 1006 71.5427 118.305 498.909
337 1 42.0701 11.1481 469 69.5245 118.435 520.996
338 0 43.1978 11.2506 486 69.8724 118.846 520.451
339 0 45.0941 12.7068 573 68.4974 118.997 517.829
340 0 48.1162 11.3268 545 69.2807 119.229 518.78
341 0 48.1297 12.3209 593 69.0388 118.069 516.578
342 0 48.1296 11.4275 550 71.2927 118.68 515.595
343 0 50.0851 11.9197 597 70.0285 118.714 514.427
344 0 51.0731 12.3744 632 68.9098 118.582 514.636
345 0 52.051 11.6809 608 70.2878 119.02 514.625
346 0 52.0318 11.6083 604 70.9868 118.993 514
347 0 55.0588 11.8964 655 69.3298 118.669 514.944
348 0 57.0917 11.718 669 69.4903 118.42 514.463
349 0 58.1135 12.51 727 68.7056 118.527 509.605
350 0 59.0515 12.1589 718 69.4638 118.319 509.166
351 0 61.0427 12.1718 743 68.9502 118.7 510.705
352 0 65.1461 12.1419 791 68.507 118.209 509.458
353 0 67.0278 13.3377 894 67.0246 118.547 507.496
354 0 68.2017 13.3134 908 66.9482 118.729 507.324
355 0 69.0717 12.6535 874 68.0378 119.611 507.034
356 0 70.117 11.2098 786 70.1349 119.173 505.991
357 0 74.1685 12.9974 964 67.7998 119.228 504.797
358 0 77.2404 12.8819 995 67.3166 118.883 502.391
359 1 38.1122 10.3117 393 68.2748 118.59 521.275
360 0 39.0186 9.86708 385 68.5299 119.296 522.086
361 0 38.0169 11.7053 445 66.9798 118.721 520.802
362 0 42.0503 10.0832 424 68.0637 118.606 520.953
363 0 43.1351 12.2406 528 65.3182 118.597 519.214
364 0 44.0277 11.788 519 66.659 118.711 518.262
365 0 46.1469 11.5717 534 66.6255 119.198 516.605
366 0 46.0958 10.6083 489 69.4969 119.37 516.932
367 0 48.0218 11.4531 550 67.3273 118.115 516.393
368 0 51.1344 12.4965 639 65.7058 118.629 514.158
369 0 51.0685 11.7489 600 66.9367 118.803 513.865
370 0 52.0883 12.978 676 64.605 118.697 514.287
371 0 55.105 11.3783 627 66.7496 118.691 513.249
372 0 56.2334 13.1061 737 64.6472 118.274 512.573
373 0 57.1241 12.114 692 65.672 118.788 511.014
374 0 59.1167 11.2828 667 66.4243 119.18 512.357
375 0 60.0626 12.0041 721 65.871 119.168 507.043
376 0 62.0888 12.4982 776 65.1559 119.432 509.303
377 0 62.0498 9.50848 590 69.1441 118.941 508.039
378 0 64.0778 10.9554 702 67.6311 119.054 506.843
379 0 68.0321 11.3476 772 66.93 118.264 505.972
380 0 69.1631 11.509 796 66.8379 118.216 504.922
381 0 72.079 9.73932 702 68.5185 118.038 505.499
382 0 74.1165 12.1835 903 65.691 117.972 502.711
383 0 77.1308 11.863 915 66.165 118.515 500.844
384 0 77.1153 10.7372 828 68.2198 118.508 499.386
385 0 78.2354 10.1233 792 69.3737 119.234 495.092
386 0 86.2533 11.8836 1025 65.0351 118.712 502.161
387 0 88.3154 10.8362 957 67.4713 118.285 497.494
388 1 46.0709 10.028 462 67.2424 118.712 519.476
389 0 48.027 11.8683 570 65.3386 118.66 516.579
390 0 49.1167 11.8086 580 66.5155 119.507 514.379
391 0 50.097 10.7591 539 67.9332 120.122 516.202
392 0 55.0759 12.855 708 64.8122 119.739 513.657
393 0 56.0657 13.2523 743 64.7039 119.339 513.565
394 0 57.179 11.875 679 66.3873 118.904 513.44
395 0 56.1238 12.4903 701 66.4023 118.802 514.047
396 0 58.0564 11.5922 673 67.529 118.979 512.339
397 0 60.07 12.2191 734 65.8937 118.696 514.222
398 0 63.2221 12.8594 813 65.6052 119.151 510.402
399 0 64.0708 12.0492 772 66.7979 119.268 511.001
400 0 65.0531 13.3429 868 65.5369 119.056 510.031
401 0 67.0959 13.1454 882 65.3617 119.172 506.999
402 0 68.1617 12.5584 856 66.7407 119.343 507.199
403 0 68.0445 11.4778 781 68.2663 120.085 504.617
