time division length width area intensity CMx CMy
0 0 31.0364 7.66841 238 61.8698 889.954 528.324
1 0 32.0477 8.45615 271 60.7417 889.875 525.83
2 0 31.0119 9.15776 284 60.2077 889.345 526.599
3 0 33.038 10.3214 341 58.7302 889.202 526.117
4 0 34.0584 11.5977 395 57.1899 889.532 525.628
5 0 37.0395 10.6103 393 57.2824 889.522 525.448
6 0 37.2435 9.93462 370 58.4459 889.295 526.046
7 0 36.0162 11.2727 406 58.4261 888.254 525.788
8 0 38.0345 10.2013 388 58.8737 888.943 525.454
9 0 37.0343 10.2068 378 59.5979 888.556 525.172
10 0 37.0343 10.2338 379 125.763 888.573 525.172
11 0 39.0384 10.5537 412 59 888.284 527.024
12 0 40.0274 11.4172 457 58.3107 888.368 526.23
13 0 42.0228 11.4462 481 58.1788 888.865 524.769
14 0 43.0292 11.2482 484 58.7645 887.599 524.093
15 0 44.0584 10.9627 483 59.6315 887.656 522.776
16 0 44.0229 10.6763 470 60.5319 888.172 524.274
17 0 46.0086 11.9543 550 58.9855 887.971 522.136
18 0 48.0512 12.0288 578 58.9256 888.6 522.349
19 0 50.02 12.6549 633 58.5782 888.724 521.224
20 0 50.0559 10.3484 518 61.6544 888.205 520.544
21 0 48.0539 9.40611 452 63.4668 887.622 519.002
22 0 52.0501 12.3919 645 59.9147 887.82 517.828
23 0 54.0218 13.1429 710 59.3028 887.928 516.935
24 0 56.0221 12.1916 683 60.1874 887.958 518.745
25 0 56.0465 11.9722 671 61.1371 887.997 517.216
26 0 59.0689 12.2569 724 60.7459 888.39 515.323
27 0 62.0771 14.337 890 58.4921 888.822 514.067
28 0 62.0632 12.165 755 62.1166 888.303 512.466
29 0 65.1771 13.2255 862 60.623 888.501 511.3
30 0 64.1488 11.1616 716 64.1718 888.954 510.186
31 0 68.1096 11.4815 782 63.5703 887.684 510.646
32 0 67.0425 11.53 773 64.3997 888.217 509.163
33 0 71.0851 11.5917 824 64.7172 888.921 507.266
34 0 76.0751 12.3431 939 63.2162 888.872 506.605
35 0 78.0786 13.3199 1040 62.7644 889.449 504.289
36 0 80.1179 13.0183 1043 63.3097 888.821 505.031
37 0 83.057 12.7744 1061 64.197 888.952 504.232
38 0 85.0476 12.0286 1023 65.2532 889.586 503.027
39 0 88.1645 12.3065 1085 64.2903 889.801 506.76
40 0 90.2029 12.9042 1164 65.0859 889.207 499.348
41 0 92.1503 12.6424 1165 65.7047 889.174 496.983
42 0 95.1425 11.6982 1113 67.2534 889.647 498.253
43 0 99.121 14.0737 1395 64.091 889.913 494.657
44 0 102.408 13.2607 1358 65.3836 889.742 495.424
45 1 54.1285 9.92083 537 66.7914 889.501 519.184
46 0 56.073 11.378 638 66.127 889.075 516.422
47 0 57.1398 10.4656 598 67.403 890.142 517.308
48 0 61.1005 12.1767 744 65.1183 890.563 515.042
49 0 62.0336 12.0902 750 65.6187 889.537 514.757
50 0 64.2428 12.2504 787 65.2935 889.952 514.169
51 0 66.1182 11.8122 781 65.5467 889.868 514.653
52 0 68.2728 12.4501 850 65.6294 889.884 509.151
53 0 70.1069 11.4111 800 67.3775 889.756 507.665
54 0 72.1106 11.1495 804 67.3259 889.719 507.397
55 0 74.0923 11.5397 855 67.552 890.185 507.885
56 0 79.0792 12.2409 968 66.311 889.721 507.068
57 1 38.0505 10.2758 391 66.7263 890.235 523.657
58 0 41.0285 11.4798 471 64.2569 889.864 525.766
59 0 42.0254 11.969 503 63.6918 890.887 525.41
60 0 41.086 11.5855 476 65.624 891.149 523.334
61 0 45.0396 11.8562 534 64.3764 891.178 524.088
62 0 46.1139 12.5125 577 63.4801 890.754 524.158
63 0 45.0629 11.9833 540 65.4018 891.057 522.194
64 0 48.0792 11.5019 553 65.3816 890.722 522.045
65 0 49.0899 11.8151 580 64.9345 890.388 521.405
66 0 50.0715 11.6234 582 65.6186 890.198 521.505
67 0 51.0169 10.9572 559 65.5653 890.088 521.646
68 0 54.1029 11.3303 613 65.7113 889.581 519.481
69 0 54.0878 11.3889 616 66.4627 889.92 519.083
70 0 55.0429 10.7552 592 67.3649 890.417 516.693
71 0 56.0976 10.4282 585 67.7436 890.74 516.434
72 0 58.0624 10.7643 625 66.4576 890.565 516.728
73 0 61.0964 11.932 729 64.9863 889.627 515.726
74 0 61.0331 11.4036 696 66.3966 889.134 514.141
75 0 65.0972 12.274 799 64.5882 889.208 514.323
76 0 66.0871 10.0776 666 67.5616 890.134 512.794
77 0 67.0657 11.8988 798 65.8434 889.768 509.672
78 0 70.1652 12.1143 850 65.3859 889.895 508.773
79 0 72.1773 11.6519 841 66.3781 889.78 506.247
80 0 75.0498 9.84679 739 67.4438 890.042 510.258
81 0 75.0715 11.0162 827 67.5284 890.376 507.585
82 1 41.0469 10.354 425 63.8094 890.541 526.421
83 0 41.0629 10.9344 449 64.127 890.944 525.987
84 0 43.026 9.8545 424 66.1509 890.486 525.097
85 0 46.0319 10.9707 505 64.4238 890.15 524.661
86 0 47.0124 12.9115 607 63.0906 890.512 521.776
87 0 47.0225 10.7608 506 65.4901 890.322 522.2
88 0 47.0545 9.41461 443 67.1264 890.002 523.16
89 0 49.0823 10.5537 518 66.4247 889.9 521.859
90 0 50.0837 10.6821 535 66.6318 890.211 519.994
91 0 52.0995 11.4972 599 66.3873 890.145 519.508
92 0 52.0543 11.4304 595 66.5345 890.617 520.089
93 0 55.0439 10.6642 587 67.0477 890.532 519.678
94 0 55.0805 12.0006 661 67.059 890.779 516.033
95 0 59.0579 12.8179 757 64.8745 890.44 516.764
96 0 57.0926 10.194 582 68.067 890.689 519.342
97 0 60.0752 10.4869 630 68.3841 890.767 516.517
98 0 60.0742 10.9698 659 68.3778 890.572 514.856
99 0 62.0717 10.359 643 67.6672 890.1 516.896
100 0 63.0657 11.2105 707 68.1372 890.11 512.062
101 0 67.025 8.87728 595 71.3496 889.817 509.494
102 0 68.0513 11.2121 763 67.4889 890.232 511.414
103 0 71.0532 11.4281 812 68.3103 890.392 507.643
104 1 35.0227 6.59573 231 69.632 890.589 528.511
105 0 37.021 6.942 257 68.2996 890.374 528.479
106 0 40.0278 10.9424 438 64.4292 890.082 524.249
107 0 41.0417 11.0376 453 65.6137 890.448 523.194
108 0 39.0302 11.632 454 66.7841 889.645 520.764
109 0 41.0719 11.492 472 66.2182 889.854 522.483
110 0 44.0423 11.4208 503 66.33 890.467 520.875
111 0 44.0075 12.3842 545 65.989 890.525 520.224
112 0 45.0722 10.7383 484 67.9339 890.085 519.919
113 0 47.0555 11.6458 548 67.6022 890.133 519.179
114 0 48.078 10.9406 526 68.2015 889.901 517.692
115 0 49.1781 10.3095 507 68.7357 889.813 519.899
116 0 51.154 10.6345 544 67.4044 890.121 521.257
117 0 52.0388 10.031 522 69.433 890.328 517.686
118 0 54.0327 11.8262 639 66.7277 890.742 518.54
119 0 55.092 11.6169 640 67.4094 890.847 515.812
120 0 57.1287 12.7957 731 64.6895 890.596 517.052
121 0 57.1596 11.3367 648 67.1451 889.798 515.295
122 0 59.0795 10.3251 610 68.6688 889.661 514.003
123 0 60.1246 9.54684 574 69.1429 889.822 514.972
124 0 62.0835 10.2443 636 68.0503 889.086 515.093
125 0 65.1735 11.4924 749 66.8558 889.108 511.705
126 0 64.0921 9.25231 593 69.7437 889.482 511.683
127 0 68.1189 10.2468 698 67.1676 889.958 515.019
128 0 72.0785 11.3765 820 67.5207 888.989 508.872
129 0 73.113 10.9146 798 68.3446 889.628 507.139
130 1 37.0211 8.99488 333 67.961 890.336 526.583
131 0 36.0563 7.90431 285 70.1404 890.382 525.705
132 0 39.0339 9.83761 384 68.4062 890.232 523.865
133 0 41.0823 10.6859 439 67.1276 890.109 523.816
134 0 41.092 10.7077 440 67.6682 890.677 523.493
135 0 42.0397 11.1323 468 68.2457 890.301 522.338
136 0 44.0515 10.7828 475 68.1558 890.95 522.556
137 0 43.034 9.89915 426 69.2582 890.369 522.535
138 0 47.0324 10.9712 516 68.0484 890.682 520.132
139 0 47.0336 10.8858 512 68.6289 890.469 518.678
140 0 50.0271 10.9341 547 68.2066 890.249 519.435
141 0 51.0532 9.91123 506 69.6522 890.318 519.433
142 0 53.0855 12.8849 684 66.2866 891.057 516.624
143 0 54.0403 10.9918 594 68.5337 890.375 517.293
144 0 56.037 11.314 634 67.9527 890.142 517.722
145 0 57.0357 11.6418 664 67.0527 890.637 517.09
146 0 57.1042 10.6122 606 69.4967 890.378 515.018
147 0 61.0849 11.394 696 68.6121 890.079 512.874
148 0 62.0681 11.439 710 68.8704 890.121 511.721
149 0 62.0576 11.0543 686 69.3163 890.475 511.36
150 0 66.0274 11.6467 769 67.9844 890.267 511.931
151 0 65.0806 10.7098 697 70.2324 890.628 509.205
152 0 71.1303 12.4138 883 66.8075 889.599 511.022
153 0 70.0936 12.0268 843 68.2811 890.083 509.797
154 0 72.0677 9.75472 703 71.6913 889.754 506.347
155 0 74.054 10.5329 780 70.5744 890.163 506.927
156 0 78.1648 11.2711 881 69.6061 890.782 505.233
157 1 40.1272 11.6878 469 65.0149 890.544 523.537
158 0 40.0525 10.661 427 66.2131 890.501 522.796
159 0 41.0259 11.6999 480 65.3396 890.154 522.069
160 0 41.0558 10.1569 417 67.5875 890.07 523.175
161 0 44.0438 12.0562 531 65.0113 889.604 520.218
162 0 45.1265 10.526 475 66.2316 889.903 520.701
163 0 48.0874 11.5415 555 64.2613 889.575 520.474
164 0 47.0473 10.9677 516 66.1027 890.358 519.438
165 0 48.0221 10.745 516 66.3624 889.603 518.583
166 0 49.0472 10.1331 497 66.5956 890.686 519.292
167 0 51.0583 10.3803 530 66.7358 890.334 517.611
168 0 51.0928 10.8626 555 66.3658 890.126 515.306
169 0 53.0716 9.89229 525 66.9733 889.781 515.074
170 0 56.0306 9.85176 552 66.9547 889.888 515.268
171 0 58.1131 11.1162 646 65.4598 889.873 511.791
172 0 59.1006 10.5921 626 66.3339 890.157 512.708
173 0 61.0666 11.381 695 65.4892 890.378 513.573
174 0 65.0883 10.6932 696 65.908 889.746 511.737
175 0 66.0762 11.0479 730 65.3575 890.377 510
176 0 68.0486 12.3441 840 64.3107 890.814 507.368
177 0 68.0814 9.9146 675 68.0667 891.313 508.021
178 0 71.1459 10.0919 718 67.9986 891.565 508.344
179 0 72.0413 10.2858 741 68.4332 890.541 503.588
180 0 77.0696 10.8473 836 67.5395 890.556 505.136
181 0 77.1583 10.1609 784 69.5523 890.258 503.519
182 1 39.0157 8.86823 346 68.1676 889.789 523.994
183 0 41.0114 8.80243 361 68.6593 889.288 523.92
184 0 44.0659 10.2574 452 66.8451 888.834 521.938
185 0 46.0456 9.44716 435 67.7747 888.763 520.646
186 0 45.0628 10.3633 467 67.4582 889.302 519.752
187 0 46.029 9.05951 417 69.3933 889.424 520.216
188 0 49.0834 11.2665 553 66.8192 888.626 517.387
189 0 51.1232 9.05656 463 69.5248 888.002 516.566
190 0 51.1121 9.88025 505 68.2891 887.527 519.307
191 0 55.1712 10.8209 597 66.7286 887.181 518.256
192 0 57.1252 9.99558 571 67.6602 886.853 518.117
193 0 57.1288 9.24228 528 68.142 886.508 519.708
194 0 59.143 11.1594 660 66.2061 886.635 516.789
195 0 62.0973 11.2887 701 65.1783 887.074 517.277
196 0 64.189 10.3445 664 66.5949 887.02 517.006
197 0 65.1338 9.51887 620 68.2032 886.811 514.21
198 0 69.0855 11.1746 772 65.4793 886.276 512.819
199 0 68.057 7.74351 527 70.1746 886.49 514.047
200 0 72.0956 9.65385 696 67.7601 886.335 512.172
201 1 36.0509 9.45885 341 65.1144 887.009 530.874
202 0 36.0197 8.52312 307 66.2671 886.241 532.277
203 0 37.01 10.1864 377 64.6446 886.069 528.78
204 0 36.0196 9.85573 355 65.4789 886.355 528.527
205 0 39.024 10.3782 405 64.5259 886.388 530.175
206 0 41.0188 10.5561 433 64.1732 886.076 529.986
207 0 42.0446 12.2489 515 61.9204 884.713 527.911
208 0 45.0941 10.8883 491 64.2362 884.782 528.413
209 0 44.0273 10.4708 461 65.6616 885.442 527.538
210 0 45.0788 10.7811 486 65.1296 885.146 527.36
211 0 48.1253 11.7817 567 62.7831 885.018 528.959
212 0 50.0683 12.1035 606 62.4191 884.513 527.343
213 0 49.0592 10.2733 504 66.1448 884.948 525.347
214 0 51.0968 12.1143 619 63.6107 884.512 525.196
215 0 52.0564 12.2175 636 63.1871 884.006 525.283
216 0 54.2227 10.1802 552 65.4475 884.237 525.388
217 0 55.0476 11.9714 659 63.6828 884.118 522.8
218 0 57.1637 10.986 628 64.6385 884.61 523.304
219 0 59.1624 11.1557 660 63.5333 883.294 520.832
220 0 58.0666 10.9529 636 64.7311 883.627 517.989
221 0 62.0442 12.749 791 61.1504 883.919 519.025
222 0 64.116 13.0857 839 60.7366 883.552 517.298
223 0 67.1033 12.8608 863 60.073 884.899 518.984
224 0 68.0518 12.2701 835 60.5545 884.661 518.467
225 0 68.0259 10.937 744 62.3508 884.602 516.18
226 0 68.0604 10.9609 746 62.9437 884.466 511.395
227 0 71.0879 10.9442 778 62.2494 883.284 512.107
228 0 74.1046 12.4419 922 60.4078 883.405 510.164
229 0 77.0958 11.6738 900 61.1844 883.659 510.293
230 0 78.0427 10.7633 840 62.731 884.192 508.73
231 1 38.033 8.15082 310 64.2484 883.877 525.797
232 0 40.0372 9.49117 380 62.3447 884.432 526.968
233 0 44.0405 11.1261 490 60.3857 885.18 525.008
234 0 46.0186 11.365 523 59.26 885.231 524.656
235 0 46.0323 11.7961 543 58.7901 885.018 522.606
236 0 46.0693 11.1137 512 60.3926 884.705 523.348
237 0 48.0607 11.86 570 59.5965 884.874 520.288
238 0 50.0314 11.6327 582 59.7457 885.117 519.019
239 0 53.0325 10.8801 577 60.383 885.549 520.953
240 0 54.0208 10.9402 591 60.7225 885.685 519.306
241 0 53.0898 9.43683 501 63.0699 884.906 517.196
242 0 56.0665 10.2557 575 61.873 884.892 515.221
243 0 57.0381 10.9225 623 61.1059 885.238 515.201
244 0 58.1811 10.072 586 62.07 885.058 517.224
245 0 61.1025 10.5724 646 61.4582 884.915 515.212
246 0 63.0508 10.5788 667 61.7196 885.424 513.009
247 0 64.1056 12.6354 810 59.6062 884.88 511.717
248 0 66.2217 12.141 804 60.0945 885.669 513.07
249 0 67.0905 9.1071 611 63.6907 885.802 514.881
250 0 69.1457 12.1627 841 60.7218 885.709 511.51
251 0 71.1724 11.142 793 61.483 885.049 512.351
252 0 72.1144 11.246 811 62.4686 885.413 508.856
253 0 75.093 10.9065 819 62.503 885.845 510.197
254 0 79.078 11.71 926 60.8866 885.992 511.199
255 0 81.0896 11.2098 909 62.3949 886.394 506.984
256 0 83.1617 13.7443 1143 59.5766 886.087 505.173
257 0 86.1383 11.5744 997 62.1545 886.016 503.989
258 1 42.0407 9.70489 408 61.7402 886.502 527.174
259 0 45.1287 9.57261 432 60.6898 886.083 528.59
260 0 46.0973 8.93761 412 62.3228 886.43 524.34
261 0 47.0339 10.7369 505 60.295 885.667 524.35
262 0 48.0433 8.24257 396 62.4318 886.076 526.697
263 0 51.0576 11.2422 574 59.216 885.925 522.711
264 0 53.0534 9.00979 478 61.1757 885.971 524.222
265 0 54.0327 10.0865 545 60.0349 886.147 521.178
266 0 56.0684 10.1662 570 59.7544 886.012 521.642
267 0 58.0935 10.2249 594 58.6549 885.687 522.963
268 0 58.2328 11.1793 651 58.5607 886.091 520.287
269 0 61.0699 11.8389 723 57.4758 885.501 520.495
270 0 63.1703 10.9862 694 58.2334 885.804 521.098
271 0 65.0654 9.08317 591 60.242 885.489 517.352
272 0 66.0767 10.3819 686 58.8367 884.867 517.564
273 0 69.1612 9.94777 688 58.4433 885.023 519.215
274 0 72.1041 11.7885 850 56.7647 884.595 515.162
275 0 73.0998 10.5883 774 58.2984 884.714 513.474
276 0 74.0986 10.6615 790 58.3063 885.008 515.07
277 0 79.133 12.9908 1028 56.144 885.046 511.02
278 0 82.0703 11.6851 959 57.8279 883.964 508.364
279 0 83.0673 10.5216 874 59.2426 883.964 510.839
280 1 43.0352 10.1545 437 56.2426 884.565 531.446
281 0 43.0301 9.34231 402 57.301 884.572 531.886
282 0 43.0355 9.66644 416 58.0433 884.935 528.748
283 0 47.1039 10.5512 497 57.4326 884.754 527.988
284 0 47.0579 10.6465 501 57.2954 884.483 527.597
285 0 49.0133 10.9766 538 57.3011 884.052 526.981
286 0 49.0485 9.54157 468 58.8825 883.645 526.897
287 0 52.0239 9.57253 498 58.5301 883.823 527.813
288 0 54.0577 11.6912 632 55.7437 883.354 523.962
289 0 55.2272 10.484 579 57.3627 882.598 525.94
290 0 56.1088 9.46376 531 58.6874 882.934 522.435
291 0 58.1156 10.72 623 57.1188 883.096 524.014
292 0 59.1091 11.9271 705 56.1362 882.711 522.597
293 0 63.1268 8.88688 561 59.1373 882.515 518.537
294 0 64.0645 11.1606 715 57.3273 882.807 518.694
295 0 67.2051 12.3205 828 55.8358 882.853 518.058
296 0 68.1234 11.2003 763 56.5937 882.038 519.176
297 0 70.1295 12.2203 857 55.8156 882.982 516.984
298 0 73.1759 11.7252 858 57.0198 883.256 514.437
299 0 74.0724 10.6787 791 58.0607 882.775 511.919
300 0 77.1476 11.3678 877 56.4333 882.764 511.981
301 0 80.329 10.5068 844 57.5367 882.873 507.437
302 0 82.2168 10.4966 863 58.2248 883.053 506.703
303 1 42.219 9.73495 411 55.4453 883.401 528.029
304 0 43.1992 8.91221 385 56.852 883.06 527.351
305 0 44.2285 8.61435 381 57.4829 883.514 527.848
306 0 45.1886 10.8435 490 56.3959 883.967 524.439
307 0 47.2119 10.061 475 57.0568 883.095 522.716
308 0 49.1544 12.3082 605 54.9554 883.041 520.893
309 0 51.1391 12.6127 645 54.0806 883.273 519.195
310 0 52.1345 11.6813 609 55.1609 882.942 521.328
311 0 56.1914 11.6922 657 54.9315 882.562 520.422
312 0 55.1422 12.0416 664 55.3374 882.614 518.459
313 0 57.1357 12.094 691 54.7656 882.66 517.043
314 0 59.236 10.7029 634 56.4006 881.945 516.314
315 0 61.097 11.0971 678 55.6357 881.709 513.926
316 0 60.4534 10.3055 623 56.4944 882.791 514.613
317 0 65.4039 10.8403 709 55.6488 882.193 513.97
318 0 62.0881 9.30936 578 57.8495 882.51 512.614
319 0 67.1719 9.89997 665 56.4872 883.256 512.32
320 0 67.1294 9.60831 645 57.5395 883.324 508.38
321 0 71.0878 11.2959 803 55.4421 883.883 511.304
322 0 72.1706 9.33898 674 57.8576 883.803 508.282
323 0 77.2577 10.1737 786 56.5267 883.372 509.215
324 0 78.3054 12.3108 964 54.918 883.633 506.831
325 0 80.1939 10.3 826 57.2821 883.257 502.663
326 0 83.2542 9.95746 829 57.3848 882.725 503.271
327 0 86.1853 12.1947 1051 55.4377 882.952 503.169
328 0 88.2058 10.2488 904 57.6726 882.357 500.882
329 0 91.2463 10.4552 954 58.2453 882.644 498.169
330 1 44.1318 11.6469 514 54.8755 883.605 522.389
331 0 47.1502 10.3075 486 55.8704 884.023 524.737
332 0 48.1366 8.87059 427 57.822 884.012 524.201
333 0 49.123 10.1989 501 56.7904 883.567 520.629
334 0 51.1736 10.3374 529 56.983 882.526 519.369
335 0 53.2116 10.2045 543 56.558 883.313 519.589
336 0 54.0327 10.6602 576 56.2292 883.49 518.766
337 0 56.0964 11.5337 647 55.3138 882.968 516.25
338 0 57.0892 12.9622 740 54.4851 883.638 517.554
339 0 59.1521 10.1941 603 57.2902 882.927 518.521
340 0 62.1298 10.639 661 56.9228 882.634 516.26
341 0 63.0622 12.0357 759 55.4809 882.984 515.18
342 0 65.1414 10.6384 693 57.4358 883.24 514.332
343 0 68.0905 10.6182 723 57.2614 882.105 512.64
344 0 71.1045 10.9979 782 56.5422 883.349 512.861
345 0 72.1377 13.1 945 54.946 882.619 510.327
346 0 74.1155 11.0638 820 57.3683 883.594 510.159
347 0 75.2408 10.7521 809 58.2349 883.43 509.43
348 0 77.1774 9.89928 764 59.2552 883.308 507.254
349 0 80.227 11.5048 923 57.5125 882.952 504.498
350 1 38.0764 7.59 289 60.1038 882.374 526.083
351 0 44.076 9.93739 438 57.1826 882.297 525.489
352 0 44.0492 9.76182 430 58.2233 882.967 523.102
353 0 44.0811 10.1404 447 58.5638 882.899 521.414
354 0 45.0826 9.27186 418 59.7321 882.373 522.895
355 0 47.0485 9.60711 452 59.5664 882.812 522.445
356 0 50.2252 9.61669 483 58.793 882.536 523.132
357 0 49.1173 7.9809 392 61.7806 882.793 522.622
358 0 53.0747 10.5888 562 58.8808 882.927 518.142
359 0 54.1243 8.7761 475 59.5853 882.488 523.261
360 0 56.1392 10.8658 610 58.5393 883.098 517.934
361 0 54.0675 8.80381 476 61.9202 882.653 517.279
362 0 57.0484 11.3588 648 58.8272 883.043 517.759
363 0 60.0714 12.352 742 58.0566 882.183 516.232
364 0 63.0362 10.026 632 60.6551 882.51 514.26
365 0 63.0301 9.28128 585 61.6496 882.118 513.403
366 0 65.1396 10.3163 672 60.5208 882.141 512.634
367 0 71.0657 11.3557 807 58.8327 881.653 509.284
368 0 70.0489 10.0358 703 60.835 881.71 511.505
369 0 73.0433 9.82978 718 60.8579 882.255 507.077
370 0 75.0902 10.1212 760 59.9921 882.288 504.138
371 0 78.0728 10.6952 835 58.5497 881.829 506.939
372 0 80.1447 9.71992 779 61.5725 882.184 507.146
373 0 82.2942 9.42958 776 61.567 882.914 501.821
374 1 39.0337 8.53108 333 56.958 883.099 527.063
375 0 40.0418 8.11652 325 58.8954 881.905 527.135
376 0 43.0688 8.68378 374 58.0882 882.235 527.941
377 0 43.0441 10.2221 440 57.6705 883.186 524.536
378 0 45.0664 11.0504 498 57.3394 883.426 524.211
379 0 45.1163 8.06804 364 60.5055 883.157 524.206
380 0 45.084 7.40839 334 61.2096 883.374 523.168
381 0 50.1807 9.24657 464 58.8362 882.746 523.903
382 0 51.094 11.7235 599 56.1002 882.756 522.619
383 0 52.0549 10.3352 538 57.8439 883.197 519.402
384 0 54.1645 10.5973 574 57.4355 883.214 519.977
385 0 54.0677 9.04421 489 59.9284 882.029 517.851
386 0 58.1438 9.97527 580 59.2517 881.581 517.209
387 0 59.1484 10.9893 650 58.2169 882.018 516.062
388 0 62.0515 10.9264 678 57.6681 882.322 516.957
389 0 62.1432 10.685 664 57.9066 882.875 512.334
390 0 66.1258 11.6747 772 55.9845 882.505 514.772
391 0 65.2106 10.3818 677 57.5007 882.282 513.53
392 0 69.0538 10.5859 731 57.3885 882.449 510.64
393 0 70.1936 10.0294 704 57.2599 882.956 511.426
394 0 73.1942 10.6156 777 56.9022 883.703 510.295
395 0 74.1462 9.88588 733 57.8827 883.434 510.169
396 0 78.1955 10.9469 856 56.2243 883.338 509.699
397 0 78.2321 9.9959 782 57.6445 883.04 506.372
398 1 42.0677 8.62894 363 54.7658 881.873 528.917
399 0 42.0863 11.7378 494 53.9069 882.004 523.348
400 0 44.0698 11.3683 501 53.6387 881.806 524.954
401 0 44.1402 8.65424 382 56.7722 882.356 524.403
402 0 44.0437 7.7196 340 58.6912 882.724 520.474
403 0 48.0222 8.76679 421 52.9929 882.537 525.435
404 0 49.0994 9.85756 484 53.8636 882.376 520.771
