time division length width area intensity CMx CMy
0 0 56.144 11.328 636 58.7752 1269.66 445.384
1 0 56.1096 11.1211 624 59.1362 1269.04 440.215
2 0 58.0776 12.2078 709 56.7348 1269.33 445.629
3 0 59.1638 11.5104 681 58.5786 1269.63 444.355
4 0 59.1638 11.5273 682 116.199 1270.64 444.264
5 0 61.0285 10.7982 659 59.1062 1268.93 442.961
6 0 63.1174 10.6627 673 58.8247 1267.62 442.566
7 0 63.073 9.90916 625 59.9232 1268.13 440.722
8 0 67.0672 10.4224 699 59.0429 1267.36 437.764
9 1 34.0831 10.8852 371 57.8787 1267.56 454.407
10 0 37.0559 9.39121 348 59.1782 1267.76 453.833
11 0 38.0804 8.24571 314 59.9331 1266.83 453.576
12 0 38.0381 8.80696 335 59.8597 1266.79 450.982
13 0 40.0507 9.81255 393 58.4758 1266.58 451.489
14 0 42.0904 11.2852 475 56.7874 1267.06 450.701
15 0 43.0269 9.2965 400 58.2175 1266.49 452.868
16 0 44.0376 9.46919 417 58.6283 1265.65 450.139
17 0 47.0226 11.3137 532 56.2256 1266.1 450.812
18 0 47.0725 10.4307 491 57.8635 1265.76 447.925
19 0 49.0296 9.48407 465 59.1484 1265.84 445.492
20 0 51.0385 9.83571 502 58.3426 1265.89 443.118
21 0 52.0882 10.8662 566 57.864 1266.72 445.41
22 0 53.153 10.1217 538 58.7175 1266.59 445.13
23 0 57.0586 11.1815 638 57.1426 1265.96 446.44
24 0 58.1735 10.8297 630 57.7 1265.95 446.035
25 0 59.0646 11.2419 664 57.8087 1266.77 441.827
26 0 60.1534 8.92717 537 60.5438 1267.3 443.35
27 0 64.1027 11.1696 716 58.3478 1266.46 435.376
28 0 67.0799 10.808 725 58.5407 1266.43 436.098
29 0 66.1137 10.2248 676 59.7115 1266.55 436.135
30 0 72.0608 11.3654 819 58.2015 1266.61 434.545
31 1 38.1001 9.97372 380 57.2737 1266.26 453.097
32 0 37.0574 9.87658 366 58.6312 1266.62 453.888
33 0 40.0539 11.9589 479 55.62 1266.43 454.269
34 0 37.0374 10.1249 375 59.28 1266.1 452.603
35 0 40.0405 10.5893 424 58.8467 1265.76 450.054
36 0 41.0207 12.5546 515 56.4078 1265.85 449.518
37 0 42.0524 10.9387 460 58.7348 1266.21 451.941
38 0 43.024 9.64579 415 60.4024 1266.06 451.706
39 0 45.1507 12.7794 577 56.9237 1265.94 449.127
40 0 48.0416 13.5299 650 55.5123 1266.15 450.132
41 0 49.1087 10.8535 533 59.2664 1266.17 448.221
42 0 49.0171 10.9146 535 59.828 1266.02 447.963
43 0 50.0358 10.7523 538 60.132 1265.86 445.366
44 0 53.0339 12.8031 679 57.5744 1266.34 446.723
45 0 53.1317 11.3492 603 59.8491 1266.27 445.824
46 0 56.0593 11.5057 645 59.5163 1265.7 444.522
47 0 57.0917 12.331 704 58.7812 1265.62 444.763
48 0 58.0294 12.8038 743 58.3486 1265.69 443.581
49 0 59.0405 11.4159 674 60.1365 1265.72 443.645
50 0 61.0772 12.0012 733 59.7708 1265.2 440.607
51 0 64.0594 13.2377 848 58.2158 1265.44 438.272
52 0 64.0748 12.86 824 59.4515 1265.74 435.687
53 0 67.137 12.7203 854 59.4368 1265.63 437.457
54 0 68.1198 11.5972 790 61.0025 1265.76 438.011
55 0 68.1182 11.1424 759 62.4704 1265.78 433.831
56 0 73.1624 11.1259 814 61.8378 1265.65 436.914
57 1 38.058 10.3526 394 61.2665 1265.88 452.972
58 0 38.0286 9.96618 379 62.9076 1265.98 449.652
59 0 41.0366 12.0624 495 59.5717 1266.32 450.675
60 0 41.0967 10.3415 425 62.3812 1266.49 451.104
61 0 42.0439 11.821 497 60.342 1266.33 449.962
62 0 44.017 11.2911 497 60.7002 1266.07 450.338
63 0 44.0561 11.0995 489 61.4172 1266.08 450.292
64 0 47.0382 10.5659 497 61.7565 1265.68 449.008
65 0 46.0779 10.5908 488 62.6885 1266.32 449.15
66 0 48.0257 10.9316 525 61.9829 1265.92 447.99
67 0 51.1356 13.122 671 58.9255 1265.32 448.464
68 0 52.0713 11.2538 586 61.2474 1265.4 450.195
69 0 54.0845 12.6839 686 60.0466 1266 447.207
70 0 54.0386 11.8434 640 61.8875 1265.11 446.683
71 0 55.0349 11.4655 631 62.0364 1265.62 448.407
72 0 56.0626 11.3445 636 62.3884 1265.48 445.484
73 0 60.0934 12.2642 737 61.0611 1265.85 446.186
74 0 62.022 11.2379 697 62.2468 1266.02 445.39
75 0 64.1083 11.9017 763 61.4731 1265.77 443.636
76 0 65.0704 11.2647 733 61.9031 1265.7 444.824
77 0 69.1312 12.281 849 60.3946 1265.78 444.859
78 0 69.1378 12.6414 874 61.262 1266.45 442.219
79 0 68.0735 10.8118 736 64.413 1266.17 440.177
80 0 73.1689 13.1067 959 60.999 1266.37 440.304
81 0 75.2014 12.3801 931 62.4962 1266.38 437.136
82 0 77.1521 12.4041 957 62.5496 1265.45 435.967
83 1 40.0328 9.54217 382 64.8194 1265.23 455.547
84 0 41.0454 9.64786 396 64.5657 1264.81 456.091
85 0 44.0964 12.0418 531 60.7006 1265.4 457.273
86 0 42.0658 11.1254 468 63.3013 1265.81 456.904
87 0 45.0613 10.8075 487 63.0739 1265.96 457.152
88 0 43.0458 11.1277 479 64.7557 1265.52 453.19
89 0 44.0853 10.0033 441 66.7846 1266.22 453.327
90 0 47.1014 11.1037 523 65.0784 1266.08 452.847
91 0 50.0214 11.715 586 63.029 1266.35 454.575
92 0 50.0566 11.8466 593 64.8921 1266.16 451.356
93 0 52.0562 12.7747 665 63.1308 1265.92 448.334
94 0 53.0407 12.2924 652 64.2761 1266.15 450.975
95 0 55.0393 12.2821 676 64.3062 1265.78 450.059
96 0 57.0404 11.3604 648 65.6327 1266.2 450.355
97 0 56.0408 12.473 699 65.0444 1265.58 448.691
98 0 61.0243 12.3066 751 64.4075 1265.77 449.208
99 0 60.0387 12.5253 752 64.4508 1265.83 448.972
100 0 59.1077 9.59267 567 69.5802 1265.93 446.725
101 0 63.057 11.3707 717 67.2915 1266.29 446.471
102 0 66.0751 11.6988 773 66.4722 1266.23 446.45
103 0 68.0701 13.7505 936 63.8536 1266.05 444.446
104 0 68.0926 10.3389 704 68.8878 1265.71 443.763
105 0 70.0747 11.5876 812 67.2451 1266.04 442.287
106 1 37.0869 9.49122 352 69.1392 1266.66 459.159
107 0 40.0487 11.6608 467 64.5332 1266.41 460.276
108 0 41.0532 10.255 421 66.7102 1266.03 460.181
109 0 41.0628 10.8127 444 67.2658 1266.33 458.11
110 0 41.0261 10.7005 439 67.6811 1266.94 458.084
111 0 42.0252 11.6359 489 66.4029 1266.67 458.262
112 0 44.0485 10.6927 471 67.7091 1266.67 457.654
113 0 47.0433 10.2246 481 67.4366 1266.13 458.709
114 0 48.0236 11.5152 553 66.5027 1266.03 457.031
115 0 49.0305 11.1563 547 67.4863 1266.23 456.057
116 0 52.0431 12.6626 659 64.4279 1266.93 455.985
117 0 54.0825 12.8323 694 64.5086 1266.51 454.774
118 0 54.0491 11.323 612 67.2173 1266.81 454.907
119 0 53.0643 12.8335 681 65.9721 1266.69 454.59
120 0 57.0259 11.6088 662 67.5393 1266.81 451.982
121 0 58.1182 11.9412 694 66.5259 1267.24 453.558
122 0 61.0493 12.8748 786 64.8753 1266.28 452.976
123 0 60.097 11.8142 710 67.162 1265.97 451.927
124 0 63.1122 13.1036 827 65.1705 1266.19 448.601
125 0 64.1245 12.4289 797 66.9009 1267.05 446.703
126 0 64.164 11.2057 719 68.847 1266.92 448.266
127 0 67.1396 12.7495 856 66.5748 1267.35 446.979
128 0 70.0878 12.1705 853 67.197 1266.9 445.587
129 0 72.2302 11.8095 853 68.2204 1266.42 440.785
130 0 75.2494 13.2493 997 66.2939 1266.15 440.479
131 0 76.151 12.7641 972 68.0658 1265.77 435.738
132 0 79.1243 12.6004 997 68.5326 1265.67 434.394
133 1 45.0495 9.70045 437 68.9771 1266.22 453.995
134 0 45.039 10.8128 487 68.0493 1266.87 452.698
135 0 48.027 10.0985 485 67.6887 1266.73 452.718
136 0 50.0569 11.5469 578 65.8495 1266.82 450.611
137 0 51.0797 10.6304 543 66.4217 1266.12 450.236
138 0 52.053 10.7391 559 66.3488 1266.3 451.365
139 0 54.1392 12.2462 663 64.5385 1266.71 448.908
140 0 51.1272 11.2856 577 67.026 1266.69 447.563
141 0 57.1787 12.5396 717 63.6862 1267.89 447.555
142 0 60.111 11.3124 680 64.6294 1267.16 448.75
143 0 59.1214 11.8401 700 65.0486 1266.46 446.487
144 0 60.0667 11.2708 677 65.8375 1265.91 444.911
145 0 65.14 11.9589 779 64.0719 1266.69 445.277
146 0 65.2124 12.4823 814 64.2334 1266.75 441.289
147 0 67.0661 11.3321 760 65.3329 1267.06 442.214
148 0 72.0359 12.2161 880 62.8875 1267.42 443.457
149 0 72.095 12.0258 867 63.6274 1266.6 441.64
150 0 73.0911 10.8221 791 65.0569 1266.52 439.647
151 0 75.0437 11.8997 893 64.0112 1266.72 436.84
152 0 78.1533 14.0621 1099 61.2884 1267.12 435.501
153 1 41.0979 9.00289 370 66.2973 1266.46 454.746
154 0 42.0098 10.9498 460 63.563 1266.87 453.974
155 0 41.052 9.50015 390 64.5333 1266.63 455.392
156 0 44.0369 11.3768 501 62.7405 1266.35 453.172
157 0 45.0282 11.5705 521 62.9635 1266.61 450.261
158 0 47.0394 11.5222 542 62.1642 1266.78 452.491
159 0 49.115 12.2977 604 60.7616 1267 451.589
160 0 48.0519 10.3014 495 63.7556 1266.77 449.364
161 0 50.0761 11.0632 554 62.3736 1266.41 449.103
162 0 53.0662 9.68602 514 62.9786 1266.7 450.228
163 0 55.0256 10.8677 598 62.1388 1267.01 447.768
164 0 54.0813 9.94798 538 63.7007 1266.05 444.848
165 0 58.0582 11.2473 653 60.8576 1266.61 447.654
166 0 57.1417 10.6402 608 62.1283 1266.29 446.285
167 0 60.0462 12.174 731 59.9521 1265.69 444.237
168 0 60.0467 11.7409 705 60.9121 1265.55 443.474
169 0 62.1114 11.4794 713 60.6297 1266.26 444.604
170 0 65.1576 12.3393 804 59.3682 1266.78 442.325
171 0 66.129 11.659 771 60.1894 1266.53 441.533
172 0 68.0404 11.4491 779 60.1142 1266.82 443.185
173 0 71.1027 11.9967 853 59.6178 1266.7 439.37
174 0 74.0746 11.7989 874 59.5686 1266.89 440.775
175 0 75.1033 11.7039 879 59.6496 1266.9 439.061
176 0 77.1686 11.5721 893 59.6909 1266.72 437.753
177 1 42.0567 10.2243 430 60.514 1267.53 454.567
178 0 43.0382 12.0358 518 58.695 1267.85 453.766
179 0 46.0272 11.7105 539 58.8609 1267.59 452.683
180 0 46.1894 11.4528 529 58.9698 1266.5 453.183
181 0 48.082 11.002 529 59.6654 1266.71 452.544
182 0 50.0879 11.3401 568 59.1602 1267.14 451.077
183 0 48.1197 11.8247 569 59.1705 1267.11 449.993
184 0 52.0625 12.1008 630 58.527 1267.49 449.076
185 0 52.0665 10.5058 547 59.7441 1266.93 451.013
186 0 53.1742 10.8699 578 60.2163 1266.8 447.766
187 0 57.1067 15.4273 881 54.9012 1266.83 444.758
188 0 57.0924 11.1223 635 59.7559 1267.06 445.68
189 0 60.1449 10.7407 646 59.743 1267.14 446.752
190 0 61.0343 12.0752 737 58.498 1267.24 445.719
191 0 64.0508 13.0209 834 57.1103 1267.4 445.222
192 0 64.084 11.8282 758 58.9301 1267.36 444.909
193 0 68.1341 12.402 845 57.7243 1267.27 444.088
194 0 68.1496 11.196 763 59.5845 1267.58 442.017
195 0 72.0427 13.9362 1004 56.753 1267.25 440.122
196 0 73.1148 12.4051 907 58.4906 1266.95 438.802
197 0 73.089 11.5886 847 59.4463 1266.56 439.437
198 0 78.0346 13.0327 1017 57.6981 1266.76 437.375
199 0 81.086 13.7262 1113 56.9479 1266.44 435.122
200 0 82.1087 11.7284 963 59.1205 1266.72 436.587
201 0 89.2241 17.047 1521 52.1197 1267.27 439.378
202 1 43.0649 11.5175 496 58.5665 1266.81 453.506
203 0 46.0568 11.6812 538 57.7993 1266.48 452.801
204 0 46.034 11.9042 548 58.0584 1265.77 451.19
205 0 49.033 12.2571 601 57.2795 1266.04 451.715
206 0 50.0979 11.8368 593 57.8179 1266.65 451.646
207 0 53.0637 11.7029 621 56.4444 1266.7 451.179
208 0 52.0425 11.8365 616 56.9464 1266.64 450.118
209 0 56.0305 12.9751 727 55.4993 1266.17 449.029
210 0 56.0968 12.5854 706 55.8442 1266.21 447.599
211 0 55.0767 10.676 588 58.7296 1266.71 449.58
212 0 58.0548 11.5753 672 57.8973 1266.55 446.039
213 0 63.0411 11.897 750 56.0347 1267.03 449.777
214 0 64.071 11.6589 747 57.0509 1266.7 446.424
215 0 64.0672 11.0977 711 57.7398 1266.68 446.918
216 0 70.0871 14.9528 1048 52.8149 1266.95 447.663
217 0 71.1842 11.4492 815 57.1975 1265.84 444.531
218 0 71.0716 11.6924 831 57.1817 1265.87 444.946
219 0 74.1692 11.6895 867 57.5432 1265.7 442.329
220 0 74.114 12.1435 900 57.9289 1265.79 437.652
221 0 78.095 11.6525 910 58.8132 1266.09 437.397
222 0 82.1011 11.6685 958 58.1242 1266.94 437.217
223 0 82.1604 11.1246 914 59.5613 1267.32 434.196
224 0 88.0647 13.2176 1164 56.835 1266.9 434.204
225 1 47.1243 11.0559 521 56.4587 1266 453.768
226 0 47.0669 13.1302 618 55.7346 1266.25 453.142
227 0 47.0326 10.9924 517 58.648 1266.12 452.718
228 0 48.0556 9.6971 466 60.1202 1266.58 452.779
229 0 50.0656 10.4463 523 58.7706 1266.67 452.837
230 0 52.0976 11.9967 625 57.8576 1266.81 450.152
231 0 55.098 10.926 602 58.103 1266.73 450.939
232 0 55.0762 11.2935 622 59.3537 1267.5 449.968
233 0 56.1058 11.7457 659 57.9727 1266.96 447.9
234 0 59.04 11.416 674 58.5341 1267.28 448.211
235 0 58.152 10.9884 639 59.5305 1267.11 446.601
236 0 61.0735 11.6417 711 58.2813 1266.51 446.622
237 0 64.1755 13.0112 835 56.5389 1266.66 444.895
238 0 67.056 11.0952 744 58.1882 1266.77 445.184
239 0 69.0954 12.0847 835 57.7497 1267.41 442.697
240 0 68.0311 11.0832 754 59.0902 1267.18 441.208
241 0 72.1318 11.8117 852 58.0211 1267.39 439.669
242 0 73.0872 11.6847 854 58.1487 1266.68 439.601
243 0 77.1324 11.2015 864 58.4792 1266.68 438.016
244 0 80.1902 12.3706 992 57.5131 1266.75 435.018
245 0 82.1969 11.5454 949 58.4942 1266.58 433.218
246 0 84.0637 11.2653 947 58.9926 1266.4 431.11
247 1 40.0727 10.2314 410 56.8854 1265.98 451.763
248 0 42.0391 9.94314 418 57.61 1265.38 448.232
249 0 43.0709 12.0499 519 55.2158 1264.83 447.565
250 0 44.0824 11.1609 492 56.5386 1265.47 448.209
251 0 46.0652 10.9193 503 56.3698 1265.98 449.062
252 0 46.0078 9.82442 452 57.5133 1266.07 449.653
253 0 47.0402 10.119 476 57.1492 1265.99 450.901
254 0 51.0376 13.01 664 53.8132 1266.41 449.717
255 0 50.0592 12.5651 629 54.628 1266.51 448.884
256 0 50.1088 10.2776 515 57.3146 1266.3 447.427
257 0 51.0896 9.37568 479 58.1754 1265.68 447.159
258 0 54.0359 12.1956 659 54.8771 1265.91 447.124
259 0 59.0465 12.7865 755 54.1907 1265.9 444.515
260 0 57.0696 9.42709 538 58.2082 1266.11 443.364
261 0 59.0362 10.8408 640 56.9328 1266.25 441.158
262 0 63.1144 11.5505 729 55.1235 1266.91 443.305
263 0 63.177 10.2252 646 57.4071 1266.58 441.258
264 0 65.077 10.2955 670 57.0358 1266.14 440.749
265 0 70.0927 11.87 832 55.0986 1266.7 441.567
266 1 36.0607 9.23442 333 55.5796 1266.23 457.318
267 0 40.437 10.7575 435 53.0874 1266.37 456.329
268 0 36.1077 10.7179 387 56.863 1265.59 450.646
269 0 38.1262 11.016 420 56.1357 1266.02 452.333
270 0 41.0485 10.5972 435 56.3149 1265.92 452.108
271 0 40.0876 12.0486 483 55.2899 1266 451.104
272 0 44.0943 12.0651 532 53.7312 1267.17 451.882
273 0 44.0129 11.5648 509 55.4656 1266.93 448.112
274 0 43.0247 11.691 503 55.9304 1267.05 447.243
275 0 47.0442 12.6264 594 54.0488 1265.9 449.086
276 0 48.0859 10.2733 494 56.4575 1266.4 448.496
277 0 48.0537 11.3623 546 55.7528 1266.21 447.297
278 0 51.0596 10.5171 537 56.1844 1265.81 447.475
279 0 52.0536 11.9492 622 55.0852 1265.59 443.476
280 0 52.0642 11.4858 598 55.9599 1266.04 445.219
281 0 56.0491 12.3285 691 54.5847 1266.5 444.858
282 0 55.0643 11.8407 652 55.5353 1266.51 442.459
283 0 57.1055 11.47 655 55.8305 1265.62 441.505
284 0 59.039 11.5348 681 55.8003 1265.8 438.366
285 0 61.0752 12.7057 776 54.5722 1265.17 435.831
286 0 65.2066 12.4067 809 54.4104 1265.32 436.265
287 0 64.1156 11.3389 727 56.3232 1265.84 434.149
288 0 64.1276 10.6195 681 56.9471 1265.72 436.577
289 0 70.1832 12.9661 910 54.0286 1266.07 433.638
290 0 72.1036 14.5208 1047 52.467 1265.97 430.952
291 1 36.0388 10.461 377 55.6711 1265.77 447.162
292 0 36.0548 10.2067 368 56.4511 1266.02 446.807
293 0 39.0405 10.5275 411 55.8272 1265.72 447.129
294 0 39.0229 11.2498 439 55.1595 1265.95 449.624
295 0 42.2001 11.1374 470 55.0128 1265.63 448.415
296 0 43.121 11.7808 508 54.9921 1265.4 444.671
297 0 46.0378 10.6 488 55.7357 1265.36 445.629
298 0 45.1342 10.214 461 56.6399 1265.58 443.868
299 0 47.0604 10.6247 500 56.15 1265.85 444.45
300 0 48.0185 10.6626 512 56.5977 1265.86 442.844
301 0 51.0265 12.2681 626 54.1821 1265.44 442.88
302 0 53.0171 12.562 666 54.1772 1266.38 442.593
303 0 54.0604 11.5427 624 55.101 1266.29 444.032
304 0 55.0191 12.3775 681 54.7489 1266.09 441.496
305 0 56.0606 10.8454 608 56.5066 1266.5 441.76
306 0 57.0496 12.568 717 54.6471 1266.29 442.736
307 0 59.2074 13.1065 776 54.2397 1266.04 441.116
308 0 63.3172 13.5034 855 52.2561 1266.19 445.063
309 0 60.2772 11.248 678 56.3186 1266.58 439.814
310 0 65.1094 13.0089 847 53.7544 1266.66 440.575
311 0 66.1598 10.7769 713 56.5989 1265.93 437.09
312 0 67.1094 10.8778 730 56.6849 1266.14 436.521
313 0 72.1373 12.7119 917 54.3599 1265.96 435.786
314 0 72.0411 10.9937 792 56.303 1266.18 435.279
315 0 75.069 12.695 953 54.702 1266.22 432.489
316 0 77.1744 12.1672 939 55.6858 1266.25 427.817
317 0 78.0744 11.4506 894 57.0179 1266.14 429.305
318 0 81.0905 11.7153 950 56.5021 1265.7 428.263
319 0 81.1784 10.9881 892 58.1233 1266.07 428.081
320 1 44.0384 11.3764 501 56.1317 1266.34 448.445
321 0 46.0363 10.861 500 56.956 1266.71 447.578
322 0 47.024 12.1215 570 56.0386 1266.89 447.367
323 0 47.028 11.1423 524 57.5324 1265.9 445.985
324 0 52.0385 12.0872 629 55.6534 1266.14 447.48
325 0 50.0564 10.9876 550 57.8836 1266.22 446.213
326 0 53.0832 11.5856 615 56.8976 1266.15 446.06
327 0 54.0581 13.0045 703 56.1152 1266.24 446.589
328 0 55.0785 12.9633 714 56.2731 1266.27 447.181
329 0 58.0671 14.2938 830 55.1 1266.77 445.799
330 0 59.058 13.1566 777 56.6667 1266.26 446.176
331 0 59.0338 11.4341 675 58.8933 1265.53 445.182
332 0 61.1065 11.1118 679 59.2769 1265.87 445.015
333 0 65.1136 13.9756 910 56.1264 1265.55 444.535
334 0 67.1428 13.2553 890 56.8978 1266.34 443.976
335 0 67.1014 11.8776 797 59.5872 1266.46 443.405
336 0 70.1008 11.3408 795 60.2579 1266.36 442.569
337 0 74.0585 14.1105 1045 56.9416 1266.66 441.243
338 1 36.081 11.4188 412 58.9053 1266.37 458.91
339 0 39.0935 11.5364 451 59.4523 1266.23 457.237
340 0 41.1483 12.1512 500 58.506 1266.68 456.312
341 0 42.0893 12.2121 514 58.8346 1266.59 455.951
342 0 44.0207 10.6768 470 60.8766 1266.56 454.7
343 0 45.0841 11.3787 513 59.0994 1266.8 456.312
344 0 45.0551 11.1197 501 60.481 1266.28 452.715
345 0 45.0174 11.5067 518 61.1969 1266.13 452.139
346 0 48.0981 10.1875 490 61.2326 1266.18 453.345
347 0 51.1035 12.0344 615 59.4472 1266.57 450.522
348 0 51.0391 11.9516 610 59.4754 1265.6 451.531
349 0 54.0205 12.3657 668 59.1272 1265.55 449.823
350 0 53.0501 12.0264 638 59.2774 1265.49 450.784
351 0 56.0258 12.1908 683 59.4056 1265.36 448.671
352 0 58.05 12.2308 710 58.8239 1265.36 448.201
353 0 59.0934 11.998 709 59.7024 1265.87 445.913
354 0 59.0205 11.1656 659 60.4628 1265.76 445.489
355 0 62.127 12.233 760 59.7803 1265.75 442.272
356 0 64.0971 13.0115 834 58.7002 1265.77 444.074
357 0 67.0442 11.2016 751 60.1052 1265.28 443.381
358 0 71.0791 11.8178 840 59.3452 1265.21 441.708
359 0 74.0714 12.434 921 59.1922 1265.16 438.238
360 0 75.1494 10.7652 809 60.5315 1265.9 439.754
361 1 38.0536 9.43406 359 61.6574 1266.05 454.398
362 0 39.0173 9.99557 390 60.5897 1266.06 454.946
363 0 46.1126 11.2551 519 58.0578 1266.53 454.956
364 0 45.1126 12.103 546 57.8626 1266.36 453.615
365 0 41.0884 8.85895 364 62.7967 1266.3 454.437
366 0 47.0492 13.0289 613 56.9396 1266.48 451.684
367 0 49.1125 11.0766 544 58.8438 1266.5 452.45
368 0 50.0617 10.567 529 59.7164 1266.24 450.845
369 0 51.0684 10.8482 554 59.4206 1265.43 447.339
370 0 53.0648 9.9878 530 60.2245 1265.64 447.292
371 0 56.0625 10.9164 612 58.9788 1265.89 446.301
372 0 58.0864 11.6895 679 58.0133 1265.79 446.18
373 0 60.085 11.7334 705 58.1078 1266.71 443.626
374 0 61.0901 10.5582 645 59.5411 1266.54 440.991
375 0 63.0505 10.8167 682 59.11 1266.8 438.249
376 0 67.1833 13.932 936 55.8483 1267.29 433.935
377 0 68.166 10.8999 743 58.6218 1267.12 437.405
378 0 71.1438 11.3994 811 58.5364 1266.42 432.734
379 0 73.1684 11.2344 822 58.6144 1266.24 431.114
380 0 76.1497 11.832 901 57.3729 1266.91 434.508
381 1 38.0243 8.20528 312 59.3173 1266.15 449.638
382 0 41.0775 10.2733 422 57.4597 1266.11 448.453
383 0 41.0407 10.8429 445 57.4517 1265.96 447.279
384 0 44.0732 9.93801 438 57.3516 1266.22 448.338
385 0 44.0711 10.8688 479 56.9979 1266.27 445.977
386 0 48.1642 12.4989 602 54.5997 1266.26 448.194
387 0 46.0779 10.2652 473 57.5476 1266.33 444.937
388 0 49.0647 11.3524 557 56.2711 1266.38 445.022
389 0 53.1315 12.4032 659 54.126 1266.67 446.557
390 0 54.1232 10.938 592 56.0946 1266.72 443.47
391 0 56.0948 13.192 740 53.6473 1266.8 443.253
392 0 55.1535 11.604 640 55.7609 1266.78 444.886
393 0 59.1399 12.0731 714 55.0056 1266.77 443.436
394 0 58.1615 9.69714 564 58.3298 1266.18 440.209
395 0 62.1063 11.8506 736 55.6495 1265.48 440.342
396 0 62.1773 11.7889 733 56.3956 1265.6 439.248
397 0 68.0897 11.2646 767 55.8761 1265.4 439.619
398 0 68.0839 10.5752 720 56.6069 1265.91 441.425
399 0 70.0443 10.5933 742 57.3167 1266.37 437.652
400 0 72.2617 11.0432 798 56.9361 1266.52 435.579
401 0 75.1509 12.5747 945 55.3672 1265.85 436.692
402 0 75.121 11.3284 851 57.6757 1266.14 432.451
403 0 80.0751 10.6775 855 57.8187 1265.78 434.123
404 0 84.1016 11.7239 986 57.2373 1265.63 430.363
