time division length width area intensity CMx CMy
0 0 48.0285 12.909 620 62.4274 814.532 514.111
1 0 49.0628 11.2713 553 64.2929 814.548 512.09
2 0 49.0598 12.4746 612 62.5556 813.757 514.657
3 0 52.0158 12.3232 641 62.3791 813.637 513.457
4 0 52.078 11.1564 581 63.5904 814.084 515.589
5 0 55.0956 12.7959 705 61.7191 814.18 514.962
6 0 54.0897 12.5532 679 62.6819 814.016 515.15
7 0 56.0266 11.8694 665 63.0316 813.126 515.018
8 0 56.0663 12.5387 703 62.1807 813.44 516.817
9 0 59.0881 12.3037 727 62.4085 813.341 514.732
10 0 59.0881 12.3883 732 150.835 813.354 514.795
11 0 62.1604 13.9478 867 60.0715 813.003 513.504
12 0 64.1143 14.3962 923 59.3987 813.121 510.957
13 0 64.0734 11.799 756 62.9034 813.616 510.499
14 0 68.0722 12.3692 842 61.6116 812.322 510.859
15 0 68.1085 12.4948 851 62.5123 812.347 510.626
16 0 70.1663 12.6556 888 62.4809 812.824 510.481
17 0 72.0807 13.0409 940 62.3479 812.655 507.536
18 0 76.037 12.1651 925 63.3157 813.168 507.562
19 0 78.0833 14.0491 1097 61.1787 813.273 507.728
20 1 37.019 10.6432 394 62.8934 813.104 526.32
21 0 37.0208 10.3185 382 64.4058 812.395 525.673
22 0 38.0331 9.62319 366 63.9317 812.691 528.18
23 0 38.0131 10.7068 407 65.2015 812.671 524.462
24 0 40.0661 11.8305 474 64.4641 812.833 523.631
25 0 42.0212 10.9944 462 65.132 812.673 523.846
26 0 44.0218 10.5402 464 65.4634 813.213 524.252
27 0 45.0231 10.3058 464 66.6789 813.537 524.81
28 0 46.0602 11.485 529 66.5104 813.108 522.011
29 0 48.0222 11.9944 576 65.8559 813.245 521.51
30 0 47.0566 9.81795 462 69.7597 813.597 520.139
31 0 51.0141 11.193 571 67.2609 812.513 521.968
32 0 52.0388 11.453 596 67.6913 812.909 518.465
33 0 54.0284 11.679 631 66.1949 813.681 520.721
34 0 57.0556 11.8481 676 66.6139 813.53 516.249
35 0 57.0684 9.84784 562 69.5836 814.004 517.742
36 0 60.0278 11.9944 720 66.2931 813.411 515.379
37 0 60.0815 10.2195 614 69.0212 813.58 515.28
38 0 65.0327 11.8556 771 66.3839 814.016 512.208
39 0 66.0927 12.1799 805 65.8509 814.313 512.075
40 0 69.1352 12.1646 841 65.8811 813.75 510.382
41 0 71.0747 12.4939 888 65.5822 813.571 508.828
42 0 72.0841 11.4727 827 67.1028 814.114 508.287
43 0 75.1858 10.8265 814 67.5676 814.36 508.312
44 1 37.0589 9.63331 357 66.2017 814.597 526.686
45 0 40.0138 11.4461 458 63.3013 814.321 525.742
46 0 39.0361 11.1948 437 64.0343 813.947 526.201
47 0 41.0947 11.364 467 64.3619 814.85 525.165
48 0 42.0543 12.8643 541 62.5434 815.346 523.224
49 0 44.0257 10.6529 469 65.339 814.256 523.821
50 0 43.0249 10.1104 435 66.1724 814.786 524.529
51 0 47.0523 10.4989 494 65.253 814.676 523.555
52 0 49.0428 11.2555 552 64.346 814.567 520.462
53 0 49.0515 10.7438 527 65.0626 814.554 520.448
54 0 50.0234 11.2547 563 64.611 814.536 518.107
55 0 50.0541 11.8871 595 64.484 814.864 518.326
56 0 50.0303 11.9528 598 64.5201 814.443 518.396
57 0 53.1338 10.9723 583 65.06 814.407 516.731
58 0 56.0746 12.1267 680 63.5809 814.141 517.882
59 0 56.086 11.3219 635 64.8614 815.219 516.288
60 0 60.1051 11.796 709 63.2073 815.657 515.746
61 0 62.1306 12.007 746 63.3874 815.743 512.701
62 0 63.0205 11.4883 724 63.9185 815.403 513.623
63 0 65.0902 11.0309 718 64.6908 815.547 510.336
64 0 68.1068 11.3792 775 64.0426 815.27 512.213
65 0 70.1594 11.3171 794 64.2632 814.947 508.904
66 0 73.1035 13.0637 955 62.4524 814.591 507.487
67 0 74.1084 12.1579 901 64.0644 814.447 504.565
68 1 39.0932 9.82269 384 63.2135 814.281 526.331
69 0 37.031 8.96547 332 67.0572 814.816 524.434
70 0 41.0237 10.823 444 63.7275 815.446 524.056
71 0 40.0375 11.2894 452 64.4624 815.569 522.106
72 0 44.0264 10.4028 458 64.9716 815.262 520.83
73 0 42.0477 9.60813 404 66.6312 814.45 521.205
74 0 44.0346 10.6961 471 65.0318 813.989 521.106
75 0 47.0333 11.0347 519 64.3372 813.952 520.287
76 0 47.084 9.93968 468 66.7585 814.705 519.013
77 0 48.043 11.0526 531 65.3785 814.379 519.915
78 0 51.0852 12.2149 624 64.2404 814.468 516.208
79 0 52.0482 11.1435 580 65.7397 814.309 517.01
80 0 54.0702 13.5565 733 62.8186 814.87 516.27
81 0 55.0996 11.1072 612 66.5147 814.951 516.518
82 0 57.0776 12.1414 693 65.0058 815.212 515.052
83 0 56.02 11.0139 617 68.3971 815.585 514.112
84 0 60.0327 11.2439 675 68.08 815.095 513.813
85 0 63.0786 12.8094 808 65.7611 814.761 513.692
86 0 64.1098 12.8374 823 66.3985 815.205 513.4
87 0 65.1101 12.1026 788 67.3668 815.011 512.184
88 0 67.0563 10.6478 714 69.9692 814.606 510.559
89 0 69.0779 12.9709 896 66.885 814.584 508.831
90 0 72.1517 13.1806 951 66.9769 814.862 505.419
91 0 74.1074 12.4549 923 68.2232 814.863 505.555
92 0 76.0668 14.2112 1081 66.1656 815.174 504.482
93 0 77.1865 11.7119 904 69.5177 815.152 505.824
94 0 80.0361 12.3819 991 69.0787 815.396 502.48
95 0 82.0706 11.9775 983 69.1994 815.053 503.519
96 0 85.1123 11.3497 966 70.6905 815.326 502.529
97 0 86.1405 11.4232 984 71.0772 815.381 499.584
98 1 43.0268 9.36625 403 70.6849 815.159 520.948
99 0 45.0105 11.5973 522 67.3908 814.736 520.703
100 0 48.0211 12.9735 623 65.4366 815.008 519.612
101 0 49.0308 11.4418 561 67.5597 814.602 520.841
102 0 51.0141 12.1143 618 66.7282 815.146 518.123
103 0 52.0283 12.4932 650 66.3877 815.277 518.425
104 0 54.0658 11.8004 638 67.4044 815.152 517.102
105 0 55.0613 11.3873 627 67.9059 814.994 516.018
106 0 56.0149 13.0322 730 65.9452 815.008 513.137
107 0 59.0225 12.7917 755 65.7483 815.191 514.77
108 0 59.0322 11.1126 656 68.5244 814.465 512.409
109 0 62.0341 12.9284 802 65.7731 814.549 512.44
110 0 64.0433 12.96 830 64.5072 815.187 513.595
111 0 64.1124 11.745 753 67.5843 815.353 508.301
112 0 66.0771 13.4691 890 64.8202 814.83 508.733
113 0 66.1163 11.9638 791 68.182 814.866 506.31
114 0 69.1189 11.7479 812 67.5936 814.622 506.001
115 0 73.1441 13.1931 965 65.1264 814.405 507.16
116 0 74.0667 11.5031 852 67.8768 814.805 505.282
117 0 76.1141 12.9805 988 65.7753 815.095 505.062
118 1 39.0527 10.9339 427 65.5902 815.569 522.183
119 0 41.049 10.8164 444 65.8829 815.651 521.367
120 0 41.068 9.69123 398 67.2638 815.508 521.985
121 0 41.0406 11.3059 464 65.694 814.578 521.644
122 0 44.0433 10.8984 480 66.4938 814.498 520.221
123 0 44.0088 10.5434 464 66.7392 814.403 519.5
124 0 48.0463 10.7604 517 65.53 813.847 520.696
125 0 46.063 10.7462 495 66.1677 813.842 520.636
126 0 49.0232 10.6276 521 66.5317 814.311 518.885
127 0 50.0151 10.4568 523 67.3614 814.692 516.866
128 0 51.0663 11.1228 568 67.0757 813.651 514.317
129 0 52.0237 9.74556 507 68.3195 814.446 514.219
130 0 54.0562 9.73061 526 68.0342 814.831 515.719
131 0 58.0495 11.5763 672 65.6429 814.918 513.939
132 0 59.0495 10.686 631 66.878 814.439 512.726
133 0 60.0301 12.8102 769 64.4928 814.605 512.655
134 0 61.0496 11.204 684 66.6213 815.126 513.208
135 0 63.0499 11.0071 694 67.3415 814.87 510.065
136 0 67.0533 12.6914 851 64.8649 815.508 509.222
137 0 65.0889 10.0478 654 68.5382 814.881 509.379
138 0 71.0518 12.1742 865 65.6971 815.357 506.86
139 0 72.0996 11.4425 825 67.1515 815.079 503.766
140 0 75.0836 11.2941 848 66.7512 814.93 505.666
141 1 38.044 9.41015 358 65.6788 815.268 522.584
142 0 39.0129 9.58656 374 65.5267 815.858 522.473
143 0 39.068 8.42121 329 67.3617 815.407 522.088
144 0 43.067 10.7739 464 63.5776 815.015 521.672
145 0 43.0845 10.4678 451 64.8337 815.508 520.344
146 0 45.095 11.7751 531 63.8004 815.284 520.339
147 0 45.0709 10.2283 461 66.1193 814.959 520.633
148 0 45.0926 10.8665 490 66.7918 814.861 517.586
149 0 48.1379 10.3661 499 66.8677 815.349 518.082
150 0 50.0371 10.9719 549 64.5774 815.189 519.304
151 0 50.0371 9.89266 495 66.9172 815.768 516.604
152 0 51.0862 11.8036 603 64.9685 814.582 514.784
153 0 53.0232 11.1649 592 65.0355 815.199 515.688
154 0 55.054 10.7168 590 65.2051 814.837 516.007
155 0 57.0378 11.694 667 63.7106 815.325 514.562
156 0 56.0278 10.709 600 65.86 816.008 513.375
157 0 58.0733 12.0537 700 64.68 815.729 511.589
158 0 60.0468 10.8749 653 65.7106 815.547 510.995
159 0 64.1104 12.2289 784 63.4184 815.253 511.643
160 0 66.094 10.9541 724 65.5414 815.122 510.174
161 0 68.0653 12.3852 843 64.2135 814.544 507.523
162 0 69.0582 11.3527 784 65.6747 814.929 507.886
163 0 72.0924 11.3327 817 65.8029 814.466 506.263
164 0 74.0798 13.3505 989 63.7189 815.149 503.763
165 0 77.0524 12.3293 950 64.4979 814.561 503.921
166 0 80.121 12.6059 1010 64.499 815.642 501.359
167 1 39.0068 10.7674 420 63.0929 815.486 522.531
168 0 40.0089 10.3727 415 64.4289 815.422 521.065
169 0 43.0233 9.57622 412 64.9587 814.876 521.308
170 0 42.0281 9.44606 397 66.5416 815.123 520.403
171 0 45.0376 10.2359 461 65.0738 815.059 519.918
172 0 45.0533 10.8316 488 65.5738 815.381 518.988
173 0 45.054 10.5651 476 66.2857 815.471 518.973
174 0 49.0723 11.3302 556 65.6493 814.782 518.178
175 0 45.0849 8.1402 367 70.3406 815.545 517.548
176 0 50.0611 11.1064 556 65.2734 815.746 517.5
177 0 55.1002 10.3811 572 65.0052 816.177 518.488
178 0 54.1266 9.95813 539 66.6048 816.733 517.416
179 0 57.0699 11.1793 638 65.2915 815.412 513.846
180 0 57.1073 10.9268 624 64.6891 815.603 517.314
181 0 61.1369 11.6296 711 63.9648 815.11 514.186
182 0 59.0757 9.22545 545 68.4404 815.121 511.96
183 0 63.0828 10.4307 658 66.8906 814.48 511.5
184 0 64.1765 10.1906 654 66.7187 814.424 513.084
185 0 69.1071 10.9251 755 65.7272 814.266 511.192
186 0 69.1023 10.7232 741 66.3846 814.57 510.568
187 0 73.0664 10.9216 798 66.2444 814.345 508.078
188 1 35.0304 9.44893 331 65.6375 814.1 527.514
189 0 35.0149 9.76728 342 66.7105 813.5 525.251
190 0 37.0145 10.5904 392 65.5663 812.796 525.253
191 0 36.0198 8.66191 312 68.8013 812.455 527.237
192 0 40.0441 10.5633 423 64.7163 812.168 528.182
193 0 39.0375 9.96479 389 67.2905 811.81 527.429
194 0 42.0329 11.372 478 64.2301 811.952 528.906
195 0 40.1105 11.1692 448 67.2902 812.426 525.565
196 0 42.0374 9.75321 410 69.539 812.495 524.629
197 0 45.0598 11.9397 538 65.7565 812.199 525.329
198 0 46.0485 11.7485 541 66.9482 811.93 523.094
199 0 48.0663 11.2761 542 66.7435 811.983 524.924
200 0 48.0449 10.5735 508 68.3957 811.801 522.644
201 0 49.0248 10.5457 517 68.234 812.323 523.532
202 0 51.0333 11.3063 577 66.7296 811.503 522.66
203 0 53.0969 11.6579 619 65.9725 811.342 522.375
204 0 54.045 11.953 646 65.4737 811.584 521.506
205 0 54.062 11.2833 610 66.4377 811.607 522.803
206 0 58.0798 12.4312 722 64.1717 811.35 519.856
207 0 59.0992 12.1321 717 64.9038 809.722 518.715
208 0 59.1081 11.7243 693 65.153 809.714 521.003
209 0 62.1311 11.6045 721 65.5631 810.508 519.513
210 0 63.1049 11.2669 711 66.2686 810.27 517.658
211 0 66.051 11.4306 755 64.9974 809.936 517.359
212 0 69.084 10.8274 748 65.3195 809.424 517.257
213 0 70.0762 9.61811 674 67.2092 810.006 518.528
214 0 71.0921 10.1136 719 67.2503 809.331 514.527
215 0 73.0347 11.0632 808 66.4505 808.835 513.028
216 0 77.1532 13.1427 1014 63.4448 809.145 511.493
217 1 40.0845 10.2034 409 65.1247 809.005 529.213
218 0 40.0508 9.13839 366 66.6831 809.552 530.721
219 0 41.1439 11.8122 486 63.716 808.177 528.128
220 0 41.0512 12.0094 493 63.5538 808.578 528.7
221 0 43.0254 11.1097 478 64.8766 808.372 526.169
222 0 44.0474 9.83031 433 65.9746 807.979 527.857
223 0 45.0489 10.4997 473 65.611 809.353 526.334
224 0 48.0473 10.8227 520 65.0173 808.892 523.748
225 0 49.0742 11.9615 587 63.5622 809.283 524.276
226 0 49.0243 10.2602 503 66.6581 809.169 521.495
227 0 52.0737 11.1957 583 64.2436 808.132 521.835
228 0 53.0752 11.8134 627 64.1356 808.118 520.496
229 0 54.041 9.43727 510 66.7451 808.365 519.792
230 0 55.0331 10.5391 580 65.6241 809.084 517.678
231 0 58.0423 11.3021 656 64.7378 808.576 516.345
232 0 62.016 11.9163 739 62.9161 809.18 518.613
233 0 62.066 11.1494 692 64.8569 809.902 517.556
234 0 64.1002 11.4196 732 65.2036 809.895 513.324
235 0 67.0439 11.3955 764 64.5969 809.726 515.575
236 0 68.0605 12.4301 846 64 809.595 510.73
237 0 71.0793 10.8189 769 66.0078 809.459 509.879
238 0 74.0356 12.2914 910 63.8857 809.764 509.226
239 1 39.0419 10.0661 393 64.1145 810.036 527.789
240 0 38.0258 12.097 460 62.987 810.33 525.6
241 0 41.0316 11.6496 478 63.0335 809.584 525.146
242 0 41.0885 11.2197 461 63.8351 809.375 524.623
243 0 41.0679 10.6166 436 65.1651 809.844 524.608
244 0 45.0701 11.8926 536 63.3265 809.603 522.756
245 0 44.0598 9.87295 435 66.0851 809.377 523.124
246 0 47.098 11.9963 565 63.5097 810.108 521.68
247 0 49.0537 11.3345 556 63.9209 809.903 521.236
248 0 49.1016 11.3846 559 64.1914 810.526 522.179
249 0 51.1723 12.6826 649 62.3282 810.444 520.724
250 0 51.0329 11.3848 581 64.6885 810.487 520.16
251 0 55.0803 11.1111 612 63.2108 809.873 521.26
252 0 56.0384 11.8133 662 63.1571 810.251 519.559
253 0 58.0558 11.11 645 63.5674 810.631 520.808
254 0 61.1082 11.6515 712 63.198 810.791 517.829
255 0 63.0283 12.4388 784 62.0625 811.318 518.362
256 0 64.0851 11.079 710 63.0535 810.908 520.224
257 0 63.0621 10.5769 667 64.7841 810.753 516.154
258 0 68.058 11.0053 749 63.6862 811.2 516.836
259 0 69.0761 11.9289 824 62.767 810.816 515.28
260 0 70.0605 10.705 750 64.2947 810.615 515.492
261 0 75.2685 11.6516 877 63.1038 809.975 511.51
262 0 74.0939 11.229 832 64.1923 810.425 512.316
263 0 79.1831 11.8207 936 63.2927 810.198 511.267
264 0 82.0875 12.7303 1045 62.6373 810.373 509.48
265 1 41.0467 10.9875 451 63.6297 810.729 528.461
266 0 43.0356 9.01579 388 65.4768 810.644 528.477
267 0 44.0479 10.1935 449 64.8196 810.247 528.171
268 0 47.1125 11.5468 544 63.171 810.656 528.347
269 0 47.0344 12.8204 603 61.8988 810.118 527.179
270 0 49.0579 11.3539 557 63.8115 810.425 527.436
271 0 48.0169 9.91317 476 66.3445 810.246 526.998
272 0 50.0377 10.3522 518 65.6602 809.442 526.627
273 0 53.0509 10.7255 569 64.5606 809.685 525.545
274 0 54.0248 11.3096 611 64.2651 809.273 524.093
275 0 55.0324 11.575 637 63.7928 809.495 523.458
276 0 59.0659 11.3941 673 63.2704 809.811 522.629
277 0 59.0882 11.6775 690 63.8493 809.8 519.961
278 0 61.0705 11.9206 728 62.9643 808.843 519.409
279 0 65.1296 12.406 808 61.9196 808.769 520.046
280 0 64.072 11.5339 739 63.5616 808.874 518.217
281 0 66.041 11.1749 738 63.6179 808.905 517.648
282 0 66.089 11.197 740 63.9973 809.057 516.008
283 0 72.0723 11.6133 837 63.0251 809.106 516.268
284 0 75.1112 13.9793 1050 59.5933 808.691 512.842
285 0 76.1391 12.464 949 61.7524 808.145 511.013
286 0 78.0553 11.7609 918 62.3519 807.986 512.38
287 0 81.1485 11.9534 970 62.9196 808.136 508.534
288 1 41.0085 9.33953 383 63.6632 808.065 528.585
289 0 44.1133 10.9944 485 62.3856 807.649 526.169
290 0 47.094 10.8082 509 61.3792 807.862 527.784
291 0 48.0241 10.0575 483 63.1284 807.979 529.4
292 0 51.0257 12.0332 614 60.9365 807.694 527.702
293 0 52.0547 12.2563 638 60.9483 807.459 526.597
294 0 54.0122 11.4419 618 62.3269 807.715 523.845
295 0 54.051 10.2866 556 64.5414 807.64 523.065
296 0 55.0279 11.4306 629 62.8839 807.052 523.396
297 0 57.0699 12.1255 692 62.2399 807.926 522.199
298 0 61.0388 11.6811 713 62.439 808.209 521.391
299 0 62.0597 12.069 749 62.267 807.513 520.015
300 0 63.0693 13.0809 825 61.1079 807.594 519.537
301 0 65.0636 12.2803 799 62.0964 807.38 517.393
302 0 68.035 11.3765 774 63.6796 807.656 517.553
303 0 69.0527 13.3232 920 61.4391 807.714 513.641
304 0 71.0381 12.0358 855 63.1041 807.306 512.676
305 0 75.0585 13.616 1022 60.2613 807.729 516.212
306 0 75.1175 11.8215 888 63.6025 808.197 512.319
307 0 78.0621 13.7199 1071 61.6237 807.481 509.019
308 0 81.1772 13.4644 1093 62.1116 807.432 507.19
309 0 82.0994 12.3631 1015 64.3586 807.318 505.973
310 0 86.1219 12.4242 1070 64.2589 806.906 505.04
311 0 87.0911 12.6764 1104 64.2201 806.722 505.476
312 0 91.07 13.9563 1271 62.7215 806.927 501.736
313 0 93.1921 12.5118 1166 64.9511 807.041 500.389
314 0 96.2258 12.0654 1161 65.5177 806.548 498.326
315 0 101.086 12.2668 1240 65.1363 806.261 498.714
316 0 105.124 12.1096 1273 65.4352 807.219 498.922
317 1 50.0703 10.4054 521 64.9674 806.687 523.72
318 0 51.1497 10.4986 537 64.8939 807.326 523.475
319 0 54.0608 10.8581 587 64.6048 807.853 521.445
320 0 55.0976 11.5795 638 63.7962 808.086 521.168
321 0 59.0349 13.2125 780 61.5103 808.372 520.521
322 0 61.0902 11.704 715 63.4196 808.291 519.538
323 0 60.0737 11.5025 691 64.8003 807.815 516.276
324 0 62.0359 12.654 785 62.7363 807.982 516.88
325 0 64.0487 11.7723 754 63.9058 807.867 516.907
326 0 66.1495 10.9147 722 64.0623 807.331 517.622
327 0 69.1169 11.6903 808 63.5755 807.524 515.071
328 0 68.0789 11.6629 794 64.2544 807.033 512.953
329 0 73.0905 12.3545 903 63.0454 807.303 511.164
330 0 74.0447 10.2235 757 66.4729 807.935 509.88
331 0 76.033 11.2583 856 64.7886 808.193 508.403
332 0 80.1363 11.1186 891 65.2817 808.228 505.627
333 0 82.1261 10.7761 885 64.8045 807.852 508.391
334 0 86.1365 12.1551 1047 63.213 806.887 506.582
335 1 45.0834 9.89277 446 62.583 808.265 525.318
336 0 45.0676 10.2069 460 62.8783 807.913 523.554
337 0 45.1551 9.61133 434 63.5092 807.394 524.581
338 0 47.087 10.7248 505 62.8594 808.337 523.461
339 0 47.0275 10.6746 502 63.3267 808.44 521.801
340 0 47.0497 10.4995 494 63.4757 808.093 522.431
341 0 52.1239 10.571 551 62.9129 808.354 520.648
342 0 53.0427 10.501 557 63.3034 808.524 519.995
343 0 54.034 11.2337 607 61.5601 807.191 518.906
344 0 55.1093 11.3048 623 62.0193 808.125 517.345
345 0 58.0986 12.4788 725 59.9393 807.481 519.701
346 0 59.1068 11.7922 697 61.4347 808.126 516.643
347 0 61.0966 10.1479 620 64.0968 807.816 516.423
348 0 61.0973 12.1446 742 61.7129 807.702 515.749
349 0 65.12 11.6093 756 60.9841 807.306 516.55
350 0 65.174 13.1648 858 60.2949 807.02 512.716
351 0 68.0952 11.4252 778 62.3663 807.139 512.09
352 0 71.112 11.6577 829 62.1303 807.723 509.622
353 0 73.0467 11.0067 804 63.143 807.595 510.195
354 0 76.179 10.4491 796 63.6093 807.191 510.638
355 0 78.0665 11.708 914 62.7177 807.595 508.516
356 0 80.1921 13.3305 1069 61.0992 807.261 506.466
357 1 41.1001 10.2919 423 61.6714 807.222 526.574
358 0 41.0628 9.86295 405 62.2025 807.398 524.054
359 0 45.1207 9.90675 447 61.9306 807.107 525.197
360 0 43.039 9.68889 417 62.5444 807.897 524.151
361 0 47.0539 11.0299 519 61.657 807.617 522.293
362 0 48.0826 11.1059 534 61.7697 807.89 522.594
363 0 50.1447 11.8058 592 60.3784 807.167 521.519
364 0 52.117 9.5938 500 62.944 807.736 519.64
365 0 53.1368 10.6706 567 61.9912 807.372 518.228
366 0 55.0513 11.68 643 61.3795 807.331 517.992
367 0 58.1078 11.4098 663 61.3047 807.278 517.777
368 0 58.0542 12.2472 711 60.3671 807.146 516.044
369 0 58.0979 9.00205 523 64.4704 807.507 516.874
370 0 62.089 10.4688 650 62.4954 807.266 514.709
371 0 64.1359 11.0235 707 61.5941 806.502 514.32
372 0 65.0533 9.40767 612 63.482 806.845 513.716
373 0 68.0475 11.7712 801 60.7191 807.563 513.342
374 0 71.0478 11.26 800 60.9288 808.499 513.376
375 0 75.0578 13.4296 1008 58.124 807.766 510.869
376 0 74.1028 10.391 770 62.3364 807.892 510.158
377 0 76.1319 10.8233 824 62.5146 808.604 506.428
378 0 77.1311 10.346 798 63.1203 808.698 506.924
379 0 82.08 12.0127 986 61.0325 808.474 505.335
380 0 84.0554 11.2188 943 61.983 808.332 504.158
381 1 44.0622 8.32914 367 62.4033 807.793 523.425
382 0 47.1882 9.43032 445 60.6539 807.721 524.535
383 0 47.0773 8.79405 414 62.8913 807.877 522.065
384 0 46.044 7.99235 368 64.7201 807.726 522.429
385 0 51.0683 10.6524 544 61.0882 807.263 521.138
386 0 53.1677 10.8336 576 61.4479 806.785 518.033
387 0 54.0901 11.6657 631 61.271 807.525 520.051
388 0 55.0113 9.34353 514 64.6868 807.984 515.224
389 0 56.0602 10.8812 610 63.0426 808.515 517.907
390 0 59.1169 9.8449 582 64.2302 807.952 516.43
391 0 61.0979 10.0494 614 64.0081 807.788 515.787
392 0 64.1114 12.1507 779 61.5931 807.924 514.235
393 0 66.1099 11.6775 772 62.0803 807.807 513.595
394 0 67.0994 10.8049 725 63.1228 808.651 511.85
395 0 70.1536 11.0757 777 62.7941 808.789 511.265
396 0 73.0775 11.1799 817 62.7589 808.744 511.131
397 0 75.0955 10.187 765 63.9961 808.522 509.584
398 0 78.0789 10.2332 799 62.9449 807.676 511.081
399 0 80.1117 11.0221 883 62.8845 807.956 508.778
400 0 82.1723 11.0499 908 63.0441 807.789 508.024
401 1 44.0402 10.5131 463 61.622 808.4 524.918
402 0 47.0682 11.7914 555 59.0685 808.759 525.73
403 0 45.0428 9.94609 448 62.8661 808.433 524.721
404 0 46.1308 8.84442 408 64.1275 808.282 525.468
