time division length width area intensity CMx CMy
0 0 62.0804 13.4825 837 64.1374 1270.7 498.014
1 0 64.0574 15.0022 961 62.0271 1269.45 498.351
2 0 64.0709 14.6869 941 62.9979 1269.41 498.962
3 0 67.0867 14.8614 997 61.996 1268.89 500.424
4 0 69.0327 13.2111 912 64.7555 1269.14 498.264
5 0 70.0492 13.2478 928 65.3179 1268.94 498.582
6 0 72.1027 14.4932 1045 63.5043 1269.1 496.672
7 0 74.046 15.0582 1115 63.4771 1268.72 496.942
8 0 76.1668 14.3238 1091 64.4977 1269 497.454
9 0 76.0787 15.3394 1167 64.5853 1268.81 495.229
10 1 39.0828 13.3563 522 66.6284 1268.12 513.295
11 0 40.0214 12.0186 481 68.8191 1268.18 513.873
12 0 40.0628 13.2542 531 68.2109 1268.66 513.774
13 0 41.0545 11.6918 480 69.75 1268.72 513.487
14 0 44.0648 12.8674 567 67.1376 1268.27 514.884
15 0 46.0664 13.5674 625 67.5296 1268.72 512.941
16 0 45.0165 13.5728 611 68.3339 1267.99 512.836
17 0 45.0205 13.8382 623 69.1782 1267.81 510.584
18 0 47.0213 16.0353 754 65.5027 1267.8 510.946
19 0 49.0661 13.8385 679 68.6554 1267.61 510.976
20 0 48.0413 11.9064 572 71.4493 1268.42 511.36
21 0 52.0311 14.8373 772 67.7189 1268.3 509.35
22 0 52.1192 12.9511 675 70.0015 1267.9 510.563
23 0 55.0684 14.6363 806 67.6985 1267.72 508.788
24 0 55.0346 14.4818 797 69.3287 1267.63 507.356
25 0 56.0524 13.7193 769 70.5332 1268.12 506.38
26 0 58.0717 13.7244 797 70.5621 1268.01 506.824
27 0 58.0598 13.2966 772 72.4223 1267.91 506.108
28 0 63.0222 14.8995 939 69.7764 1268.05 504.561
29 0 65.0627 15.5081 1009 68.8028 1267.94 503.9
30 0 66.0512 14.3828 950 71.1263 1268.62 503.936
31 0 69.0751 16.5327 1142 67.6217 1268.66 504.295
32 0 70.1884 14.2189 998 71.7856 1268.03 500.674
33 0 70.1884 14.1619 994 160.156 1267.02 500.82
34 0 75.0646 15.1336 1136 70.0519 1269.01 498.929
35 0 75.0746 12.1746 914 74.5405 1269.47 498.522
36 0 78.0736 13.5385 1057 72.1665 1269.24 499.162
37 0 80.2301 13.8975 1115 72.5552 1269.33 496.45
38 0 82.0992 13.4837 1107 73.1762 1270.02 495.895
39 0 85.1001 13.9835 1190 72.4269 1269.53 494.594
40 1 41.086 15.285 628 69.4968 1269.62 513.877
41 0 42.0795 11.7872 496 72.5766 1269.45 514.889
42 0 44.0572 11.9617 527 72.5066 1269.58 515.228
43 0 46.0238 12.8846 593 71.5987 1269.65 513.563
44 0 46.1067 11.4083 526 73.3593 1269.94 513.106
45 0 49.0252 13.6868 671 70.076 1270.17 512.873
46 0 49.0279 12.4827 612 71.8856 1269.61 513.054
47 0 54.0957 14.7331 797 68.8908 1269.49 509.783
48 0 54.0362 14.9344 807 69.3755 1269.74 507.846
49 0 54.0783 11.9826 648 73.2515 1269.63 508.981
50 0 57.0497 12.7433 727 71.3604 1269.3 509.286
51 0 59.0659 12.7654 754 71.8886 1269.94 507.718
52 0 61.0731 14.147 864 69.7755 1270.11 507.655
53 0 63.047 13.4027 845 71.9645 1270.5 504.376
54 0 64.1553 13.9038 892 71.5975 1270.58 503.123
55 0 66.0735 12.7131 840 73.3607 1270.54 503.24
56 0 69.0399 13.5284 934 72.4079 1270.84 501.881
57 0 69.1262 13.092 905 74.1215 1270.48 500.148
58 0 72.0468 13.4774 971 73.5829 1270.74 497.946
59 0 75.4412 12.8709 971 74.6674 1270.55 497.64
60 0 79.0788 13.1767 1042 73.3704 1271.17 499.052
61 0 78.1403 12.9511 1012 74.5 1270.77 498.139
62 0 80.1406 14.2874 1145 73.7328 1270.44 494.587
63 0 83.0645 13.3511 1109 73.9333 1270.69 496.453
64 1 42.03 12.5862 529 72.8922 1270.7 515.355
65 0 41.0503 11.9853 492 74.8252 1270.94 514.323
66 0 43.0411 12.3138 530 75.3358 1269.8 513.275
67 0 46.0743 12.545 578 73.7543 1270.47 512.913
68 0 45.0093 11.0644 498 76.7711 1269.82 512.938
69 0 48.0508 13.569 652 72.9509 1270.12 512.301
70 0 46.0588 11.9847 552 77.5399 1269.96 510.002
71 0 49.0672 12.8191 629 75.1828 1269.67 510.068
72 0 52.0978 13.3595 696 74.8003 1270.51 507.856
73 0 54.0571 13.7817 745 73.6094 1270.14 508.682
74 0 55.0815 11.9822 660 76.6061 1269.71 506.171
75 0 59.0504 13.0905 773 74.3312 1270.18 506.278
76 0 60.0208 12.8955 774 75.2571 1270.39 506.209
77 0 62.0533 12.7471 791 76.1277 1270.01 505.394
78 0 63.0341 12.1046 763 76.8073 1269.75 506.254
79 1 136.137 12.9061 1757 77.5925 1269.53 473.226
80 0 137.119 13.1492 1803 78.0688 1269.4 472.318
81 0 141.071 13.6243 1922 78.1769 1270.33 468.596
82 1 106.08 13.6218 1445 78.3377 1270.49 483.281
83 0 109.159 12.5597 1371 79.7826 1270.34 484.085
84 0 113.094 14.855 1680 76.553 1270.3 482.123
85 0 115.265 13.3693 1541 78.9163 1270.42 481.282
86 0 119.188 13.357 1592 80.4472 1270.02 478.028
87 0 122.08 14.1875 1732 79.295 1270.77 475.346
88 0 129.056 11.9638 1544 81.0544 1270.48 478.582
89 0 131.14 14.191 1861 77.7931 1270.8 474.257
90 0 134.086 13.73 1841 78.3878 1270.25 473.228
91 0 137.111 14.222 1950 78.4503 1270.43 470.817
92 0 140.151 12.2511 1717 80.7449 1270.48 472.55
93 0 146.197 13.3108 1946 79.3052 1270.46 467.22
94 1 100.116 13.5643 1358 77.4823 1270.96 489.7
95 0 103.106 13.7141 1414 77.5205 1270.59 487.298
96 0 103.079 12.2527 1263 80.3452 1270.7 484.193
97 0 108.264 13.9936 1515 77.6073 1270.42 482.298
98 0 111.165 12.8818 1432 78.5203 1270.99 484.598
99 0 115.099 14.9698 1723 74.8427 1270.79 483.153
100 0 118.141 14.2965 1689 77.254 1270.76 477.571
101 0 122.115 13.5282 1652 78.7724 1270.82 475.946
102 0 125.091 13.9578 1746 77.9055 1270.76 473.449
103 1 66.1209 13.1577 870 78.7069 1270.42 501.76
104 0 69.0582 12.9166 892 79.5673 1270.44 497.914
105 0 70.0611 12.5319 878 79.7323 1270.54 500.12
106 0 71.0355 13.6833 972 77.9465 1270.37 499.106
107 0 76.069 13.8558 1054 77.2268 1270.4 498.483
108 0 77.0835 14.1016 1087 77.9844 1270.59 493.894
109 1 39.0423 12.6529 494 77.2389 1270.37 514.283
110 0 40.0352 13.3383 534 76.1442 1270.8 514.073
111 0 41.0151 12.6539 519 77.2563 1270.83 512.674
112 0 42.0076 11.3789 478 78.751 1270.54 512.433
113 0 44.0374 13.2615 584 77.4418 1270.79 509.188
114 0 45.0434 11.5222 519 79.4682 1270.05 509.027
115 0 45.0471 12.1429 547 77.6673 1270.73 510.071
116 0 48.0772 12.8335 617 77.2804 1270.99 508.478
117 0 49.0726 12.5325 615 77.4016 1270.45 508.272
118 0 52.1172 14.2947 745 74.1517 1270.34 507.224
119 0 51.0324 13.8735 708 76.8955 1270.94 504.942
120 0 55.026 14.0297 772 74.9158 1270.81 504.355
121 0 58.043 13.1971 766 74.2794 1270.83 505.037
122 0 58.0522 13.5912 789 75.602 1270.11 502.891
123 0 62.0367 12.8795 799 75.9299 1270.57 503.377
124 0 62.0365 15.6521 971 72.6571 1270.54 500.652
125 0 65.0709 12.2635 798 78.2757 1270.02 500.221
126 0 68.0358 13.39 911 76.2086 1269.91 500.727
127 0 69.0807 13.3901 925 77.0627 1270.15 497.862
128 0 72.0502 13.5045 973 76.667 1270.46 497.144
129 0 74.0595 12.3009 911 78.8595 1270.08 497.673
130 0 74.0437 12.4251 920 79.6891 1270.24 495.941
131 0 78.0509 14.7084 1148 75.649 1270.27 494.589
132 1 38.0255 12.2812 467 77.3148 1270.45 512.349
133 0 39.1214 10.8381 424 79.0731 1270.06 512.658
134 0 41.0287 12.406 509 77.2417 1269.74 510.758
135 0 43.034 12.2694 528 77.2216 1270.69 509.864
136 0 43.0209 12.645 544 76.7812 1270.55 509.355
137 0 44.0298 13.5136 595 74.7277 1270.19 509.284
138 0 46.0399 13.2928 612 74.0637 1270.37 510.31
139 0 48.0297 12.7005 610 75.0016 1270.74 508.943
140 0 51.0584 12.5543 641 74.6178 1270.32 508.647
141 0 51.1628 12.1964 624 74.8526 1271.1 507.942
142 0 51.0601 12.0838 617 75.7682 1270.8 506.316
143 0 55.0911 12.2887 677 74.2304 1270.18 505.415
144 0 56.1287 12.7208 714 73.2185 1270.61 505.015
145 0 57.0857 12.1396 693 74.3766 1270.06 504.789
146 0 59.0277 11.9605 706 75.1459 1270.54 502.252
147 0 62.0344 13.1218 814 72.9349 1270.18 500.748
148 0 63.0543 11.9897 756 74.6296 1270.24 501.146
149 0 65.1663 13.5346 882 72.2812 1270.38 499.738
150 0 68.0801 12.8231 873 73.8293 1270.54 497.7
151 0 71.0573 13.5384 962 71.8035 1270.38 496.827
152 0 71.0555 12.4128 882 74.7086 1269.89 495.323
153 0 74.0372 12.5207 927 74.1197 1270.08 494.194
154 0 75.1827 12.7024 955 74.2031 1270.02 494.152
155 0 79.058 13.3573 1056 72.2917 1270.17 494.953
156 1 39.0164 11.7387 458 72.4738 1270.28 511.795
157 0 40.0164 12.0451 482 72.6058 1269.89 509.718
158 0 41.0128 11.5574 474 72.6709 1270.57 510.262
159 0 43.0653 13.3286 574 69.4007 1270.29 510.321
160 0 43.0162 11.949 514 72.9591 1270.57 508.625
161 0 44.0904 10.9774 484 74.2211 1270.06 508.785
162 0 48.036 13.2401 636 69.4167 1270.16 507.61
163 0 48.0303 12.5546 603 71.2587 1270.03 506.662
164 0 49.0271 11.973 587 71.1056 1270.25 507.327
165 0 49.081 12.2858 603 72.2454 1270.36 504.219
166 0 52.0801 11.9431 622 70.9887 1270.62 506.658
167 0 55.0211 13.0859 720 69.1167 1270.21 504.132
168 0 54.0597 13.929 753 68.7543 1270.47 501.392
169 0 57.1074 13.7636 786 68.3804 1270.51 500.668
170 0 59.0781 12.8812 761 69.5756 1271.04 500.737
171 0 60.0266 12.6444 759 70.3847 1270.77 498.793
172 0 62.0595 13.2131 820 69.7524 1270.47 497.663
173 0 65.0731 12.8471 836 70.64 1269.86 496.657
174 0 67.0631 12.9281 867 69.7935 1270.51 496.717
175 0 69.0639 12.7563 881 70.3076 1270.4 495.823
176 0 71.0661 12.3547 878 71.3633 1269.89 494.204
177 0 74.0278 13.3869 991 69.8315 1270.76 493.859
178 0 76.0786 12.8026 974 70.7834 1270.82 493.231
179 0 78.0689 13.4112 1047 70.022 1270.47 491.758
180 1 41.0237 10.5305 432 70.1227 1270.72 510.704
181 0 41.0457 10.9878 451 69.6585 1269.84 510.945
182 0 43.0219 10.0646 433 70.8545 1269.41 510.316
183 0 45.0888 11.555 521 68.7754 1268.83 509.695
184 0 45.0468 12.0763 544 69.5037 1268.66 508.739
185 0 46.1081 10.6272 490 70.9122 1268.65 508.739
186 0 46.0386 11.1428 513 71.1209 1268.57 508.082
187 0 50.1198 11.1932 561 69.6114 1268.8 508.011
188 0 53.0622 12.5513 666 66.9204 1268.36 506.853
189 0 52.0765 12.2704 639 68.7433 1267.66 505.856
190 0 56.0349 11.0467 619 69.916 1267.59 504.123
191 0 56.0849 10.0205 562 69.9893 1267.45 506.151
192 0 56.086 11.9103 668 68.1587 1266.54 503.999
193 0 61.0832 11.6399 711 66.6596 1267.04 505.374
194 0 63.0546 13.2901 838 64.0859 1267.15 504.977
195 0 63.0542 12.4179 783 66.4917 1266.98 501.953
196 0 67.0243 11.5779 776 66.5606 1267.04 502.59
197 0 68.0541 11.2704 767 67.691 1267.22 500.047
198 0 68.0667 11.6063 790 67.1165 1266.65 501.842
199 1 35.0165 9.93816 348 64.2126 1266.4 518.833
200 0 33.0095 8.24005 272 66.7904 1266.62 519.897
201 0 35.0165 9.39558 329 66.2614 1266.95 517.24
202 0 37.0648 10.0904 374 63.516 1266.23 519.612
203 0 39.0415 10.5273 411 63.3236 1266.29 516.91
204 0 40.047 11.886 476 60.8992 1266.27 517.809
205 0 40.0789 10.5292 422 63.0237 1266.33 516.545
206 0 41.0533 9.45112 388 64.1134 1266.37 516.794
207 0 44.0358 10.8775 479 61.7161 1266.48 515.514
208 0 43.0755 9.81997 423 64.1537 1266.14 514.728
209 0 46.0396 10.3389 476 62.7038 1266.12 514.082
210 0 48.0418 10.4492 502 62.4821 1265.29 513.936
211 0 48.0652 9.59113 461 62.5336 1265.25 515.128
212 0 48.0294 10.7434 516 61.8081 1264.9 512.959
213 0 51.0954 11.273 576 60.875 1265.15 512.469
214 0 50.1677 9.98651 501 63.1018 1264.69 511.413
215 0 54.0441 11.065 598 61.4331 1264.2 508.967
216 0 54.1073 8.85278 479 63.9624 1264.66 511.996
217 0 59.097 11.7942 697 59.792 1264.4 509.244
218 0 58.1162 11.4598 666 61.2568 1264.47 508.48
219 0 61.0458 11.6634 712 60.3708 1264.19 508.449
220 0 63.0856 11.8094 745 60.5436 1264.27 506.095
221 0 62.1252 9.46475 588 63.2211 1263.8 507.417
222 0 65.1146 10.4892 683 62.9927 1264.25 501.382
223 0 69.0966 11.4043 788 61.0419 1264.17 503.354
224 0 69.1984 11.5321 798 61.6742 1263.88 500.723
225 0 69.1417 10.2254 707 64.0085 1263.83 496.703
226 1 39.0311 11.1706 436 59.0298 1264.28 515.812
227 0 41.0138 10.0698 413 59.6755 1264.33 515.811
228 0 41.061 11.4464 470 60.2064 1264.98 512.66
229 0 44.0453 11.7152 516 58.5872 1264.82 513.293
230 0 46.0298 10.7974 497 58.7807 1264.51 513.346
231 0 47.0577 12.134 571 58.3415 1264.95 510.919
232 0 45.0583 10.0093 451 61.6829 1264.36 511.692
233 0 49.054 11.2529 552 59.712 1264.03 511.263
234 0 50.0446 10.9502 548 60.8905 1264.15 508.5
235 0 52.1541 10.7758 562 60.71 1264.78 508.496
236 0 54.0663 11.3194 612 60.0833 1264.29 506.667
237 0 54.0463 9.86191 533 61.5366 1264.38 508.857
238 0 58.0821 11.4149 663 60.0875 1264.14 506.094
239 0 57.109 11.5043 657 60.1583 1264.05 506.355
240 0 59.1816 10.8311 641 61.0936 1264.87 505.417
241 0 62.0567 11.8762 737 59.5115 1265.27 502.733
242 0 61.1202 11.8455 724 60.0912 1264.75 500.372
243 0 62.1646 8.73487 543 62.0166 1264.83 503.777
244 0 64.0782 11.3923 730 60.011 1264.88 499.412
245 0 66.1158 11.8429 783 59.4738 1264.99 497.978
246 0 69.0426 10.718 740 60.5838 1265.71 497.834
247 0 71.0923 10.0996 718 60.4429 1265.34 499.915
248 0 72.0734 10.1286 730 60.7397 1265.54 498.949
249 1 40.1301 10.0423 403 57.9926 1266.1 515.149
250 0 39.1191 10.6342 416 57.8822 1266.29 514.632
251 0 41.0154 9.16728 376 58.5718 1266.21 515.963
252 0 43.1141 11.342 489 56.3497 1266.16 514.29
253 0 44.0555 11.0996 489 57.3027 1265.91 514.072
254 0 45.0226 11.1277 501 57.5709 1265.43 511.796
255 0 47.151 10.2437 483 58.0062 1266.08 514.743
256 0 48.0757 10.5251 506 57.3893 1266.21 512.202
257 0 48.0681 10.8804 523 58.2447 1266.03 509.86
258 0 50.0588 10.8672 544 57.5864 1266.47 512.221
259 0 50.0597 9.88818 495 59.3071 1266.37 509.248
260 0 55.1093 12.1395 669 56.1076 1266.71 508.601
261 0 54.1413 11.784 638 56.837 1266.44 509.829
262 0 56.2012 12.2951 691 56.0029 1266.54 508.997
263 0 57.1247 10.5734 604 58.4719 1266.64 506.697
264 0 59.1783 11.609 687 56.7045 1266.62 506.821
265 0 61.1473 9.23999 565 59.554 1266.12 508.8
266 0 62.134 11.4913 714 57.8571 1265.82 504.42
267 0 64.1579 10.7235 688 57.4753 1265.76 507.562
268 0 67.0642 12.9577 869 55.7768 1265.47 504.422
269 0 67.2214 11.7522 790 57.5456 1265.95 503.616
270 0 66.1602 9.90021 655 59.9985 1265.96 502.869
271 0 70.1346 9.83823 690 60.029 1265.67 500.961
272 0 74.1097 13.3181 987 56.2087 1266.12 500.716
273 0 74.1268 12.5056 927 57.6451 1265.08 498.566
274 0 76.2122 12.1109 923 57.5233 1264.71 498.914
275 1 42.0517 10.2017 429 57.1748 1264.7 519.678
276 0 41.0332 10.2113 419 58.3246 1264.58 517.05
277 0 45.0813 12.5773 567 56.0282 1264.89 517.042
278 0 47.0311 12.3748 582 56.866 1264.4 514.845
279 0 48.0168 12.0166 577 57.2253 1264.72 515.516
280 0 48.0238 11.8691 570 57.8386 1264.37 514.865
281 0 51.086 13.8394 707 55.4328 1264.27 513.877
282 0 53.0846 11.9244 633 57.2259 1264.42 514.529
283 0 52.0602 11.3907 593 59.2428 1264.63 512.113
284 0 53.0388 11.3502 602 60.0282 1264.4 509.357
285 0 57.0621 12.723 726 57.6198 1263.84 509.711
286 0 58.0163 11.4451 664 59.012 1264.1 511.605
287 0 58.036 11.3206 657 60.1689 1264.35 507.592
288 0 59.1168 11.0798 655 60.5725 1263.8 506.774
289 0 62.1409 12.1337 754 59.4483 1264.11 506.603
290 0 62.0254 11.721 727 60.3879 1263.38 502.906
291 0 66.0464 12.9454 855 58.7965 1263.36 503.779
292 0 68.0892 12.513 852 59.2195 1263.22 504.932
293 0 70.1445 13.0017 912 59.6151 1263.52 500.47
294 0 73.121 12.0895 884 60.0147 1263.75 501.589
295 0 75.1743 12.89 969 59.4799 1264.32 499.183
296 0 77.0473 11.6941 901 60.7891 1264.27 498.024
297 0 79.1968 12.1722 964 60.6338 1264.16 498.607
298 1 45.0456 11.3441 511 60.9256 1263.89 514.595
299 0 43.0553 10.3123 444 62.9077 1264.08 513.432
300 0 48.0749 12.5429 603 59.9701 1263.62 513.151
301 0 48.0743 12.6055 606 60.6205 1263.02 512.427
302 0 49.0168 12.0367 590 61.7356 1262.82 511.82
303 0 52.1048 12.686 661 60.5371 1263.3 507.366
304 0 52.0615 12.005 625 61.9984 1263.44 508.618
305 0 55.0925 12.597 694 60.6816 1263.25 510.114
306 0 56.0383 12.5807 705 61.4624 1263.43 507.052
307 0 57.0879 12.4019 708 61.4548 1263.09 507.198
308 0 59.0403 11.128 657 62.624 1263.33 507.291
309 0 61.0161 13.5374 826 60.0654 1263.33 504.513
310 0 63.0737 12.1762 768 62.3073 1262.79 502.766
311 0 65.0384 11.6547 758 62.5409 1263.13 503.455
312 0 66.2552 13.0707 866 61.3025 1262.71 501.072
313 0 70.1471 13.3149 934 60.4111 1262.48 500.44
314 0 70.1233 11.765 825 62.4315 1262.46 499.766
315 0 74.0779 12.7703 946 60.4524 1262.34 498.152
316 0 76.0968 13.0097 990 60.8515 1263.53 496.043
317 1 39.0321 11.0422 431 59.6497 1262.59 515.144
318 0 41.0362 9.8937 406 59.8645 1262.28 515.823
319 0 41.0549 12.1544 499 58.3026 1262.98 514.056
320 0 41.0765 9.51883 391 62.0767 1263.27 514.762
321 0 43.0496 10.9641 472 60.7585 1262.78 512.386
322 0 45.0497 10.7437 484 59.9938 1262.92 512.63
323 0 44.0391 10.3544 456 61.4846 1262.95 510.899
324 0 48.0374 12.5319 602 57.912 1263.6 511.744
325 0 49.0309 10.626 521 60.7678 1263.03 509.908
326 0 50.0822 8.86542 444 61.8041 1263.54 510.471
327 0 51.0493 11.8709 606 59.8878 1263.86 507.124
328 0 52.0257 10.9946 572 60.2448 1264.16 508.698
329 0 54.0206 11.5511 624 59.2869 1263.24 508.535
330 0 55.1553 11.9481 659 59.0668 1263.11 507.332
331 0 58.1076 11.1517 648 59.6204 1263.12 504.606
332 0 60.0372 12.3423 741 58.2294 1263.33 503.421
333 0 62.0618 10.1995 633 59.9163 1263.16 505.077
334 0 62.0361 10.3811 644 60.4146 1263 501.896
335 0 64.0206 10.7934 691 59.8263 1264.14 498.153
336 0 69.0828 10.5815 731 58.922 1263.52 501.997
337 0 71.0952 12.0402 856 58.0409 1263.13 496.825
338 0 75.0235 12.2762 921 57.6069 1263.37 497.388
339 0 74.0644 11.0849 821 59.922 1263.11 493.373
340 0 77.1597 12.1566 938 58.4339 1263.23 492.743
341 1 38.0372 10.0428 382 57.2435 1262.67 514.924
342 0 42.0331 11.0389 464 55.2522 1262.92 513.938
343 0 43.0181 10.7629 463 56.1382 1262.5 512.035
344 0 42.0263 9.37509 394 58.3401 1263.12 512.086
345 0 45.0506 10.7435 484 57 1263.42 510.064
346 0 45.0533 11.1867 504 56.6151 1263.14 509.923
347 0 50.0649 11.5051 576 55.5642 1263.44 511.431
348 0 49.0991 10.3464 508 58.7815 1263.31 508.835
349 0 51.0367 11.815 603 56.8541 1262.92 508.91
350 0 52.1735 11.8643 619 57.7044 1263.22 506.268
351 0 53.0328 10.9178 579 58.1382 1263.19 506.482
352 0 57.0737 12.3524 705 56 1263.18 504.6
353 0 57.0719 11.249 642 57.3115 1263.29 505.861
354 0 61.0518 12.4812 762 55.8832 1263.12 502.869
355 0 58.1395 9.1332 531 60.032 1263.95 498.627
356 0 63.1399 11.9259 753 57.2457 1263.79 499.639
357 0 66.0489 10.8404 716 57.9749 1263.38 501.881
358 0 65.1373 10.4241 679 59.2091 1263.73 497.756
359 0 70.1538 12.0877 848 56.8538 1263.67 500.303
360 0 70.2562 11.5862 814 58.2052 1263.68 497.419
361 0 72.1557 11.3643 820 58.3415 1263.56 495.873
362 0 75.1598 10.7903 811 59.4427 1263.52 496.8
363 0 77.0743 12.4815 962 58.4501 1263.77 492.065
364 0 81.243 11.5087 935 59.2674 1263.47 493.357
365 0 84.2185 12.8831 1085 57.9594 1263.89 492.257
366 0 86.1353 12.6777 1092 59.1685 1263.72 487.208
367 0 90.2241 14.0096 1264 57.1084 1263.08 489.07
368 1 45.0835 11.024 497 58.3119 1263.97 509.757
369 0 47.0302 9.58959 451 60.388 1263.49 509.663
370 0 47.0295 10.1 475 60.3242 1263.83 507.366
371 0 49.0473 10.2146 501 60.006 1264.34 508.505
372 0 50.0395 12.0705 604 58.5215 1263.69 507.692
373 0 52.032 11.9926 624 58.5817 1264.17 507.306
374 0 53.0648 11.7404 623 58.4157 1263.78 508.38
375 0 55.0608 12.35 680 57.7765 1264.23 504.987
376 0 59.0779 11.4594 677 57.4638 1264.43 506.297
377 0 59.0412 11.4158 674 58.2062 1263.74 504.761
378 0 62.0827 11.9679 743 57.4711 1264 502.984
379 0 63.1381 11.657 736 57.9443 1263.91 502.954
380 0 65.0651 11.4654 746 57.874 1263.84 501.174
381 0 64.0655 11.4726 735 58.5986 1263.27 500.799
382 0 69.1037 11.7649 813 57.8512 1263.71 498.442
383 0 73.1515 13.2465 969 55.5531 1264.09 499.315
384 0 75.1325 12.4048 932 56.4517 1263.86 499.487
385 0 75.0718 11.7621 883 57.8177 1264.27 497.176
386 0 75.0681 11.0167 827 59.0798 1263.97 494.944
387 0 83.1323 13.28 1104 55.9701 1264.33 493.985
388 0 82.0513 11.6391 955 58.9173 1264.01 494.807
389 0 83.113 10.2391 851 61.3901 1263.95 492.025
390 0 89.1566 11.5415 1029 59.0194 1263.7 492.623
391 0 90.0725 11.9459 1076 59.277 1263.62 491.684
392 0 96.0451 13.2958 1277 57.7197 1264 488.467
393 0 97.0821 12.5049 1214 58.7858 1263.27 485.789
394 1 52.0694 9.89064 515 58.6854 1263.3 509.691
395 0 54.0877 11.0376 597 58.0402 1263.35 508.233
396 0 56.1706 11.3404 637 57.8791 1263.42 507.603
397 0 57.0577 11.5497 659 57.7481 1264.01 505.857
398 0 58.0744 11.778 684 58.0687 1264.36 505.037
399 0 59.1668 11.3577 672 58.7351 1263.83 506.037
400 0 61.0589 9.89209 604 60.1142 1263.43 505.015
401 0 63.0464 10.8016 681 59.207 1262.99 504.64
402 0 65.0983 12.028 783 58.0664 1263.39 501.732
403 0 67.0875 11.3434 761 58.8936 1263.77 500.463
