time division length width area intensity CMx CMy
0 0 48.1612 11.2539 542 61.5185 1119.78 503.411
1 0 50.0739 12.8211 642 59.0685 1118.36 505.017
2 0 53.1079 13.8398 735 57.6354 1118.51 503.759
3 0 52.0815 10.6756 556 61.8345 1118.13 505.016
4 0 55.0535 12.6423 696 59.2716 1118.41 503.693
5 0 56.0865 14.1924 796 57.9799 1118.23 502.372
6 0 56.151 12.9472 727 59.9147 1118.41 501.895
7 0 58.1898 11.7718 685 61.1737 1117.88 504.742
8 0 58.1943 12.3552 719 61.3658 1118.22 502.506
9 0 61.1231 14.0863 861 59.1405 1118.03 502.992
10 0 61.1046 12.945 791 60.6953 1117.56 502.028
11 0 61.0929 10.214 624 64.008 1117.39 503.066
12 0 63.1416 11.7514 742 62.9245 1117.78 502.263
13 0 66.1949 12.433 823 61.9514 1117.96 500.176
14 0 69.1536 14.9378 1033 58.7522 1117.61 499.596
15 0 70.1648 13.454 944 60.9852 1118.02 497.608
16 0 70.193 13.9188 977 61.002 1117.26 498.534
17 0 72.2134 11.8814 858 63.162 1116.9 500.034
18 0 75.115 13.7656 1034 61.4555 1117.04 496.18
19 0 77.0556 12.757 983 63.0865 1116.97 496.249
20 1 36.0554 11.5933 418 63.3804 1117.44 515.883
21 0 38.0208 14.2554 542 61.0111 1117.49 514.22
22 0 40.0207 12.2936 492 62.8679 1116.99 515.067
23 0 38.0479 10.7233 408 67.0392 1116.69 513.853
24 0 41.0243 11.7735 483 65.6232 1116.72 512.855
25 0 43.0244 11.6446 501 65.0359 1117.06 513.172
26 0 43.0381 12.0823 520 65.9269 1117.14 511.796
27 0 42.0259 11.0646 465 68.2839 1116.94 511
28 0 46.0545 11.4647 528 66.5587 1117.13 511.686
29 0 47.0673 12.9814 611 64.9362 1117.03 510.319
30 0 47.0429 13.8172 650 65.2154 1117.5 507.806
31 0 49.1681 11.0844 545 67.8972 1117.77 510.011
32 0 50.0395 11.6908 585 67.1863 1117 509.436
33 0 50.0395 11.7307 587 134.276 1117 509.397
34 0 55.063 12.6401 696 66.1552 1118.02 506.125
35 0 56.0134 13.4968 756 65.9894 1118.62 504.151
36 0 58.0388 12.4916 725 66.8041 1118.4 505.745
37 0 60.1225 10.7614 647 69.7264 1118.41 505.958
38 0 59.041 11.5005 679 69.9543 1119.09 504.673
39 0 62.0519 12.8602 798 67.7794 1118.59 505.282
40 0 64.0374 11.4152 731 70.6265 1118.8 502.884
41 0 67.0679 13.6131 913 67.839 1118.57 501.166
42 0 69.0242 13.488 931 68.8195 1118.79 502.029
43 0 72.0935 13.6212 982 68.7037 1118.72 500.255
44 0 73.1401 12.1411 888 71.4054 1118.93 499.245
45 0 74.0751 12.5008 926 71.2505 1119.14 499.265
46 0 78.1007 12.6631 989 71.3893 1118.73 496.333
47 0 78.1102 13.2505 1035 71.7275 1118.61 494.201
48 0 82.1257 13.7838 1132 70.1546 1118.81 495.535
49 0 77.0585 11.9909 924 78.6645 1118.51 496.856
50 0 75.0282 12.6886 952 78.7857 1118.44 499.038
51 0 79.0666 13.027 1030 77.568 1119.05 496.925
52 0 79.0874 13.4535 1064 77.7735 1119.23 494.531
53 0 83.0897 12.998 1080 77.5907 1119.55 495.391
54 0 85.118 12.9585 1103 77.8033 1119.75 491.899
55 0 87.0702 13.6786 1191 76.2057 1119.63 492.751
56 0 89.2371 12.9655 1157 77.7165 1119.9 489.273
57 1 145.925 14.3361 2092 74.816 1119.37 465.191
58 0 148.118 9.99201 1480 69.802 1119.96 462.624
59 1 65.4529 18.838 1233 57.9059 1120.17 497.164
60 0 68.1851 15.8099 1078 63.0891 1120.62 501.395
61 0 67.0913 14.92 1001 64.7163 1120.16 500.518
62 0 69.0722 18.2273 1259 61.2589 1119.85 501.829
63 0 67.1005 20.3277 1364 59.8204 1120.21 498.454
64 0 70.1406 19.746 1385 61.0029 1120.15 497.638
65 0 71.1598 22.3722 1592 58.6407 1120.38 494.627
66 0 72.1172 18.0817 1304 64.819 1119.29 497.661
67 0 72.0966 17.1298 1235 66.8753 1119.87 497.688
68 0 75.1445 23.0889 1735 58.9066 1119.29 490.39
69 0 80.1702 18.5605 1488 64.1841 1119.47 494.427
70 0 85.1357 19.0754 1624 62.3177 1119.29 490.871
71 0 83.1622 24.1937 2012 58.4488 1118.76 489.084
72 0 87.1331 18.6267 1623 64.3075 1119.84 489.983
73 0 90.2037 16.5071 1489 67.1558 1119.49 487.492
74 0 88.2175 20.4268 1802 63.1127 1119.07 485.307
75 0 97.6018 20.1738 1969 60.743 1119.19 480.472
76 0 97.1211 22.4771 2183 59.546 1119.81 482.99
77 0 103.35 16.4296 1698 66.258 1119.3 482.784
78 1 47.0163 11.2514 529 76.4745 1118.68 510.253
79 0 47.0434 12.6904 597 75.124 1118.19 509.712
80 0 48.0358 11.429 549 77.0984 1118.1 509.514
81 0 50.0497 12.4077 621 75.2222 1118.99 508.214
82 0 50.0588 13.1445 658 75.2234 1119.31 506.722
83 0 51.5805 13.1251 677 74.8656 1118.96 507.386
84 0 52.5492 12.3123 647 78.1947 1119.01 509.19
85 0 52.2507 12.7654 667 79.024 1119.26 510.504
86 0 51.4394 12.6557 651 81.9831 1118.87 509.237
87 0 52.6811 13.0977 690 80.8783 1119.54 507.735
88 0 52.4648 12.7705 670 82.6 1119.24 508.693
89 0 53.01 1.84871 98 63.8673 1118.46 509.143
90 0 53.0003 1.18867 63 53.8571 1116.35 527.698
91 0 51.0089 1.43112 73 52.7397 1114.82 522.575
92 1 94.1371 1.09415 103 41.8155 1117.41 485.942
93 0 91.9328 3.20887 295 32.9525 1116.28 465.203
94 0 93.5006 3.40105 318 33.6101 1117.16 466.664
95 0 94.7562 0.780951 74 36.4595 1116.55 464.23
96 0 90.637 0.717146 65 41.6615 1116.89 493.631
97 0 86.0564 0.546153 47 41.7021 1117.91 492.915
98 0 77.0976 0.376147 29 39.8966 1118.69 489.621
99 0 82.2396 1.55643 128 33.7734 1118.05 465.914
100 0 89.9826 1.81146 163 31.0245 1118.49 450.135
101 0 83.8649 1.21624 102 37.0294 1116.51 487.627
102 0 86.75 8.73775 758 29.9868 1116.76 467.185
103 0 90.6424 1.99686 181 31.221 1112.39 459.878
104 0 75.1168 13.4058 1007 62.3247 1119.51 396.516
105 0 75.0893 11.6395 874 64.8009 1119.48 396.981
106 0 79.1188 12.1716 963 62.6947 1119.31 398.626
107 1 40.0523 9.91203 397 63.6297 1119.15 416.31
108 0 41.029 11.236 461 61.9913 1119.38 415.805
109 0 43.0443 10.0362 432 64.1366 1119.19 416.1
110 0 45.0439 12.5655 566 60.8693 1120.17 414.037
111 0 45.0407 11.9004 536 61.4104 1120.22 414.243
112 0 48.0808 11.6055 558 61.7867 1119.93 413.289
113 0 49.0406 12.3163 604 61.6424 1120.08 413.728
114 0 51.0729 11.4542 585 61.8496 1119.5 416.171
115 0 52.0514 11.5271 600 62.2483 1120.07 416.315
116 0 55.1238 11.0479 609 62.133 1119.8 419.796
117 0 55.1112 13.0826 721 60.172 1119.4 419.338
118 0 58.0722 13.2077 767 60.6949 1119.34 413.408
119 0 60.083 13.1152 788 60.7652 1119.97 414.529
120 0 61.0872 13.538 827 59.9794 1119.74 413.503
121 0 64.0599 12.6913 813 60.1562 1119.74 414.667
122 0 66.0566 12.3833 818 60.5159 1119.01 413.644
123 0 67.159 11.4653 770 60.9221 1119.71 412.581
124 0 69.0477 11.0648 764 61.4267 1119.75 408.245
125 0 73.1997 13.2514 970 58.7856 1119.28 400.908
126 0 75.0779 13.4926 1013 58.4748 1118.92 400.027
127 0 78.1846 13.596 1063 58.445 1119.13 397.071
128 0 79.0865 12.3915 980 58.9235 1119.49 401.591
129 0 81.0902 12.3443 1001 59.3606 1119.18 398.263
130 0 85.1277 12.4871 1063 59.5146 1119.33 398.062
131 1 41.0254 10.9444 449 59.8686 1119.09 415.762
132 0 43.0586 10.6599 459 59.8257 1119.29 415.865
133 0 45.023 13.2155 595 57.6286 1118.96 415.521
134 0 44.0668 10.5749 466 61.2446 1118.72 415.968
135 0 47.0369 8.99293 423 62.0378 1119.47 421.199
136 0 49.0225 11.7701 577 59.4957 1119.57 419.078
137 0 52.0207 11.8607 617 58.6856 1119.09 421.549
138 0 52.043 11.6826 608 59.3059 1119.41 422.222
139 0 56.0465 12.2934 689 58.4978 1119.62 418.894
140 0 53.0486 10.0474 533 62.728 1119.31 415.137
141 0 56.0347 10.779 604 61.8477 1119.96 414.884
142 0 60.0312 12.5768 755 59.7444 1119.81 414.385
143 0 61.087 11.8683 725 59.709 1119.05 415.317
144 0 61.0264 11.6999 714 60.8361 1119.49 410.815
145 0 66.0805 10.9412 723 60.8686 1119.04 411.26
146 0 66.0859 12.287 812 60.4126 1119.57 407.341
147 0 69.0536 12.3527 853 60.0528 1119.09 408.102
148 0 74.03 13.2649 982 58.0499 1119.24 409.254
149 0 75.0499 12.2319 918 59.8584 1119.27 408.279
150 0 76.0431 12.1247 922 60.6486 1119.5 405.502
151 0 80.1063 12.8954 1033 59.4966 1119.34 403.742
152 0 83.0638 12.4483 1034 60.0377 1118.78 404.39
153 0 84.2167 13.2278 1114 59.6598 1119.07 402.526
154 0 86.092 12.1266 1044 61.3372 1118.91 402.869
155 0 89.064 12.4966 1113 60.6577 1119.08 402.79
156 0 92.112 11.6489 1073 62.15 1119.12 399.235
157 0 95.1093 11.7234 1115 61.7327 1118.93 402.641
158 0 99.1151 14.7909 1466 58.9004 1119.58 397.122
159 1 48.0854 10.7101 515 60.299 1119.29 425.658
160 0 48.1129 10.1844 490 62.7531 1119.56 421.433
161 0 49.0258 12.422 609 60.4171 1119.05 421.773
162 0 54.1678 13.9382 755 58.498 1119.31 418.2
163 0 52.0706 11.7533 612 61.951 1119 418.083
164 0 56.0797 12.9994 729 59.8683 1119.23 416.347
165 0 58.0501 12.9199 750 60.192 1119.37 415.335
166 0 59.0197 11.8774 701 61.4807 1119.49 416.924
167 0 60.1368 12.2221 735 61.3646 1119.11 416.214
168 0 62.0738 13.0651 811 60.4957 1119.42 412.086
169 0 64.079 12.1257 777 61.6577 1119.54 413.493
170 0 67.0289 11.786 790 62.1835 1119.96 411.633
171 0 69.1484 14.2881 988 59.4636 1119.89 411.423
172 0 69.0289 11.8936 821 63.0524 1119.52 412.381
173 0 73.0712 12.9463 946 61.6607 1119.05 410.212
174 0 76.0756 13.9729 1063 60.0141 1119.6 410.733
175 0 79.0491 13.6877 1082 60.5351 1119.4 410.083
176 0 80.0611 12.4405 996 62.6084 1119.01 409.412
177 0 83.0634 14.4829 1203 60.9958 1119.91 405.779
178 0 87.0895 13.2507 1154 62.4627 1119.9 404.595
179 0 89.0894 14.2778 1272 61.3821 1119.57 402.941
180 0 92.1241 13.4384 1238 62.937 1119.82 402.214
181 0 93.1096 13.178 1227 63.533 1118.87 403.342
182 0 98.1281 13.5843 1333 62.9617 1118.4 399.065
183 0 98.0791 11.5315 1131 66.1017 1117.91 400.191
184 0 104.075 13.1444 1368 63.6411 1117.8 400.147
185 0 107.074 13.0378 1396 63.4828 1117.72 398.831
186 0 111.085 13.4221 1491 63.3233 1117.58 396.219
187 1 59.021 10.725 633 65.218 1117.84 422.524
188 0 62.1641 11.2123 697 64.6758 1117.33 420.802
189 0 64.0696 11.5031 737 63.4898 1116.54 421.882
190 0 67.0757 10.7192 719 64.6704 1116.65 419.745
191 0 70.0551 13.7891 966 61.0062 1116.37 419.229
192 0 71.0519 11.8364 841 63.5957 1115.56 419.968
193 0 75.074 14.3459 1077 60.7502 1116.04 418.791
194 0 76.1106 12.7052 967 63.4612 1116.29 416.794
195 0 79.0901 12.7576 1009 63.3171 1116.07 417.501
196 0 80.1576 12.7624 1023 64.0518 1116.07 414.141
197 0 83.0608 11.4976 955 65.5686 1116.28 415.245
198 0 85.1411 12.7201 1083 64.5337 1115.69 412.727
199 0 88.2178 12.3445 1089 64.91 1115.03 411.91
200 0 92.0675 11.5676 1065 65.9887 1115.32 412.692
201 0 93.056 11.5414 1074 66.4534 1115.7 410.321
202 1 51.0776 11.8643 606 64.4406 1114.92 434.337
203 0 52.0389 12.1832 634 63.623 1115.09 434.688
204 0 55.1035 11.5238 635 64.4441 1115.03 433.313
205 0 55.0611 10.7698 593 66.1939 1115.2 432.793
206 0 55.0537 11.9701 659 65.1396 1115.16 430.454
207 0 57.0588 13.6 776 62.7088 1115.28 430.165
208 0 59.0693 11.6812 690 65.5261 1115.3 427.651
209 0 62.0734 13.0652 811 64.0863 1115.14 427.233
210 0 63.036 11.7235 739 65.7118 1114.36 426.604
211 0 66.05 13.293 878 63.2745 1114.05 425.605
212 0 67.0611 13.1522 882 63.7154 1113.85 425.118
213 0 71.1626 15.317 1090 60.744 1114.02 426.067
214 0 73.0483 13.9907 1022 62.1742 1113.61 425.119
215 0 72.1709 11.7637 849 66.6207 1113.13 420.469
216 0 76.0636 14.1198 1074 64.0447 1113.5 418.759
217 0 79.0554 12.1054 957 66.6447 1113.4 415.104
218 0 80.1809 13.931 1117 65.1961 1113.48 416.242
219 0 83.0644 12.5324 1041 66.1028 1113.15 418.717
220 0 86.1797 12.7176 1096 66.5995 1113.22 413.666
221 1 44.0458 12.7822 563 63.8792 1112.68 435.703
222 0 46.025 12.8191 590 64.3644 1113.28 434.642
223 0 45.088 11.0229 497 67.5252 1113.12 434.076
224 0 49.0296 12.0539 591 65.9036 1112.97 433.518
225 0 50.1054 13.0325 653 65.0352 1113.02 433.126
226 0 52.0431 13.7194 714 63.7549 1112.84 433.27
227 0 53.0401 13.0844 694 65.2061 1112.89 431.854
228 0 53.0205 13.2024 700 66.1371 1113.59 429.816
229 0 55.0794 14.5971 804 64.2002 1113.29 430.762
230 0 57.0843 12.3852 707 66.5898 1112.85 430.146
231 0 59.0352 14.4998 856 63.9953 1113.67 428.835
232 0 60.0549 13.9705 839 64.8248 1113.35 428.987
233 0 62.0963 14.5419 903 64.7076 1113.48 426.854
234 0 63.0381 13.595 857 66.3676 1113.38 425.567
235 0 67.0913 13.2357 888 66.036 1114.28 425.854
236 0 68.0785 13.4991 919 65.901 1113.78 423.915
237 0 72.1634 13.802 996 65.1386 1113.86 424.365
238 0 71.077 12.0151 854 68.3396 1113.59 421.683
239 0 73.057 12.9351 945 67.3354 1113.6 423.395
240 0 76.0779 12.8947 981 67.3293 1114.23 422.122
241 0 77.0403 11.9158 918 69.0654 1114.62 420.291
242 0 82.1381 13.0999 1076 66.868 1114.16 420.94
243 0 83.0707 12.8926 1071 68.1783 1114.15 415.083
244 0 87.1323 11.9933 1045 68.9943 1114.36 417.583
245 1 41.0485 10.2562 421 67.7126 1114.56 441.76
246 0 44.0344 10.3328 455 68.3604 1115.22 440.655
247 0 45.0428 12.8322 578 64.6557 1114.63 442.308
248 0 49.084 12.3666 607 65.4267 1114.78 440.944
249 0 48.0413 12.4892 600 66.6833 1114.96 438.767
250 0 47.0183 11.5912 545 68.2183 1115.34 440.251
251 0 52.0462 10.7597 560 67.5429 1114.58 441.968
252 0 52.0478 13.3147 693 65.2612 1114.8 440.652
253 0 55.0805 12.7268 701 66.0371 1115.23 440.425
254 0 54.064 12.4297 672 67.689 1114.73 438.664
255 0 57.0533 12.1991 696 67.6451 1115.34 439.918
256 0 57.102 12.8717 735 66.7551 1115.48 441.19
257 0 61.1079 12.0443 736 67.9633 1115.21 439.863
258 0 63.0664 13.2242 834 65.7566 1115.69 443.204
259 0 65.0464 12.5603 817 68.2032 1115.34 438.163
260 0 70.1542 14.4111 1011 64.6924 1115.74 439.176
261 0 69.1904 13.658 945 67.2085 1115.46 436.603
262 0 72.1014 13.1482 948 66.9958 1115.58 438.145
263 0 75.1065 13.8204 1038 66.9605 1115.62 435.589
264 0 76.2086 12.8201 977 68.8669 1115.36 435.259
265 0 79.1459 11.9147 943 70.1644 1115.02 436.426
266 0 82.0799 12.6706 1040 69.7048 1114.68 432.901
267 0 83.0559 11.7511 976 70.7756 1114.59 435.298
268 1 43.0244 10.6684 459 68.5795 1114.12 456.388
269 0 44.0834 12.0227 530 68.0755 1114.59 454.632
270 0 46.0624 12.4397 573 67.548 1114.66 453.78
271 0 49.0499 10.418 511 69.2387 1114.5 454.885
272 0 50.0246 11.6743 584 67.8562 1114.78 454.865
273 0 49.1694 10.5553 519 70.1445 1113.79 453.713
274 0 49.0701 11.0454 542 69.5148 1113.48 453.022
275 0 55.0338 12.7558 702 65.9288 1113.51 453.769
276 0 55.0662 10.8415 597 69.2295 1113.51 451.33
277 0 57.0694 10.7939 616 68.8653 1113.9 451.484
278 0 59.0648 13.172 778 66.8779 1113.38 448.12
279 0 61.2047 12.6298 773 67.4799 1113.89 446.38
280 0 65.0594 14.1563 921 64.4419 1113.68 445.958
281 0 65.1457 12.8635 838 66.4463 1113.52 446.958
282 0 67.1482 13.2989 893 66.3191 1113.54 444.325
283 0 68.0728 13.5296 921 66.4213 1113.79 443.194
284 0 70.1546 11.9308 837 67.8387 1113.47 443.114
285 0 73.0896 12.9977 950 66.3105 1113.06 442.567
286 0 75.0806 12.5598 943 67.5949 1113.11 440.661
287 0 77.0769 13.1297 1012 66.8587 1113.4 440.894
288 0 79.2025 13.1056 1038 67.3632 1113 436.976
289 0 82.1151 12.6164 1036 67.6486 1113.26 437.114
290 1 42.0695 11.7663 495 65.4828 1112.51 456.261
291 0 42.0376 11.5373 485 66.5299 1112.65 458.124
292 0 45.0288 11.8813 535 66.0486 1112.49 455.951
293 0 46.0458 12.9002 594 66.1785 1112.89 454.005
294 0 48.0083 11.7271 563 65.9964 1112.98 455.888
295 0 49.0589 10.8237 531 68.5235 1113.57 453.356
296 0 51.0339 12.4427 635 66.2961 1113.49 452.636
297 0 51.0469 12.3612 631 67.504 1113.26 450.525
298 0 54.0568 12.4314 672 67.4717 1112.9 450.058
299 0 55.0385 11.7917 649 67.6133 1113.02 451.82
300 0 58.0245 13.8045 801 66.0836 1112.55 448.561
301 0 60.1043 12.9442 778 66.8458 1112.2 447.621
302 0 60.0881 12.0656 725 69.3214 1111.93 445.713
303 0 63.0715 13.4768 850 67.0353 1112.4 443.615
304 0 67.098 13.4281 901 66.9123 1112.48 443.373
305 0 66.0573 11.3235 748 70.9933 1112.42 440.416
306 0 70.1471 14.5409 1020 66.7863 1112.64 439.862
307 0 74.0613 13.4483 996 67.5994 1112.2 439.452
308 0 74.0726 11.5697 857 71.0653 1112.41 438.553
309 0 76.0779 13.5782 1033 69.0484 1112.59 436.836
310 0 79.0473 13.979 1105 67.9783 1111.97 435.804
311 0 81.1451 13.5683 1101 68.941 1112.33 434.818
312 0 84.1404 12.7406 1072 69.5 1111.75 435.69
313 0 87.1124 14.5904 1271 66.8804 1111.67 432.398
314 1 42.0294 10.1358 426 68 1111.56 456.894
315 0 43.0664 11.7261 505 66.9406 1111.41 454.513
316 0 45.0336 10.5255 474 68.9873 1112.56 453.549
317 0 46.0547 14.3742 662 63.1798 1112.08 453.544
318 0 46.0605 12.7658 588 65.1344 1111.6 453.854
319 0 47.2134 12.1576 574 66.7195 1112.16 451.585
320 0 50.076 12.9803 650 65.54 1112.53 452.434
321 0 51.065 12.3176 629 65.8537 1112.21 451.434
322 0 54.0758 13.0373 705 64.9291 1112.25 448.556
323 0 53.018 12.8258 680 65.7426 1112.36 449.349
324 0 52.0391 12.0871 629 67.4913 1112.79 446.188
325 0 55.0837 11.183 616 67.625 1112.39 449.089
326 0 57.0819 12.3682 706 67.5439 1112.68 444.46
327 0 61.1527 12.4279 760 67.0197 1113.03 446.283
328 0 63.0769 11.7159 739 67.5074 1113.46 447.494
329 0 63.0422 10.8657 685 69.2044 1112.48 446.972
330 0 66.0554 11.2633 744 68.9355 1112.2 446.452
331 0 69.1178 13.1081 906 66.447 1112.25 445.202
332 0 71.0387 13.3589 949 66.4089 1112.49 446.216
333 0 74.0695 13.5683 1005 65.7323 1112.38 446.086
334 1 40.0891 11.2 449 65.7439 1112.26 461.708
335 0 37.0338 9.36982 347 68.6571 1113.23 463.366
336 0 42.0139 11.2106 471 67.1401 1112.74 462.081
337 0 44.0399 11.4442 504 67.3115 1112.29 461.673
338 0 44.0892 12.883 568 65.7729 1112.54 462.447
339 0 45.044 12.5211 564 66.9468 1112.06 460.809
340 0 46.0641 11.0715 510 67.9784 1112.22 464.2
341 0 48.0225 13.3687 642 65.6324 1111.71 463.785
342 0 50.0294 11.4333 572 66.5839 1112.23 465.816
343 0 51.0877 11.3922 582 66.7749 1111.76 464.68
344 0 53.059 11.0443 586 66.6485 1112.46 465.677
345 0 52.0502 12.0461 627 66.7767 1112.61 467.032
346 0 56.1299 12.3642 694 64.8386 1112.33 468.752
347 0 60.1418 12.3375 742 64.3787 1112.9 471.257
348 0 60.0596 11.1056 667 66.3838 1112.7 471.886
349 0 62.0443 13.0552 810 63.8975 1112.3 473.412
350 0 65.1162 12.4393 810 64.6852 1112.57 476.109
351 0 66.1352 11.9906 793 64.2724 1112.59 477.961
352 0 70.2186 12.6177 886 63.509 1112.69 476.979
353 0 71.1739 11.2963 804 65.0174 1112.67 479.384
354 0 72.1169 11.5646 834 65.3082 1112.45 477.717
355 0 74.0793 10.1108 749 66.3298 1113.22 481.178
356 1 38.0465 9.51467 362 66.8508 1113.17 495.072
357 0 41.0434 11.9386 490 63.6755 1112.77 497.353
358 0 41.0789 11.2223 461 62.8026 1113.31 500.262
359 0 42.156 11.4812 484 64.0434 1113.06 498.07
360 0 44.0346 11.9906 528 63.4508 1113.1 499.653
361 0 46.0823 11.9786 552 63.442 1112.86 499.007
362 0 47.1137 10.3791 489 65.1636 1112.91 501.153
363 0 48.18 11.0834 534 64.5787 1113.22 500.976
364 0 49.0913 13.2814 652 61.6702 1112.94 502.81
365 0 50.0341 11.8919 595 63.0353 1113.17 501.667
366 0 53.0898 11.3016 600 63.9083 1113.08 502.758
367 0 55.0744 12.6556 697 61.7346 1112.39 503.783
368 0 55.0435 12.2812 676 62.7234 1113.18 502.638
369 0 58.0339 12.3032 714 62.7269 1112.86 503.796
370 0 60.0747 11.5856 696 63.5101 1113.09 504.708
371 0 60.0771 11.8847 714 63.7605 1113.61 502.854
372 0 63.0522 12.3073 776 63.6585 1113.07 502.817
373 0 64.0771 13.1404 842 63.0356 1113.44 503.455
374 0 66.1895 12.7664 845 63.529 1113.15 503.507
375 0 68.1017 12.7163 866 63.7598 1113.44 503.374
376 0 69.115 11.5894 801 65.0886 1113.66 503.518
377 0 71.1441 14.4214 1026 62.693 1112.98 501.019
378 0 76.1333 14.606 1112 62.3489 1113.18 500.69
379 0 77.1524 12.8836 994 64.7123 1113.08 500.367
380 0 78.1282 12.7355 995 65.9106 1113.04 494.578
381 0 81.1189 12.266 995 66.4683 1112.37 495.483
382 0 84.1153 13.636 1147 65.2537 1112.9 493.489
383 0 86.209 12.0637 1040 66.8808 1113.06 495.787
384 0 88.0948 11.8282 1042 67.9146 1112.92 493.6
385 0 92.0805 12.0221 1107 68.2565 1113.23 491.055
386 0 94.0523 13.3436 1255 66.7283 1113.08 488.786
387 1 47.0933 11.5303 543 67.4052 1113.48 512.267
388 0 48.0185 11.7038 562 67.6032 1113.22 511.319
389 0 50.0382 12.7702 639 66.7981 1113.37 509.362
390 0 52.0565 12.448 648 66.0633 1113.05 509.924
391 0 54.0241 10.847 586 68.5683 1113.05 505.98
392 0 56.0921 11.8555 665 67.8481 1113.5 505.123
393 0 57.024 12.2931 701 67.321 1112.79 506.101
394 0 60.0877 12.9977 781 66.1767 1112.68 505.682
395 0 58.0658 10.5742 614 70.759 1112.78 504.562
396 0 63.0865 12.8554 811 66.8718 1112.77 505.683
397 0 65.0795 12.7383 829 67.4355 1113.3 503.852
398 0 65.1698 11.5698 754 70.1804 1113.49 500.501
399 0 68.0299 11.98 815 68.9558 1112.99 503.422
400 0 72.1378 11.5889 836 68.9318 1112.82 503.494
401 1 37.0649 11.7092 434 67.9724 1112.74 516.359
402 0 40.1441 11.5833 465 67.6387 1113 517.351
403 0 39.0119 10.7916 421 69.6033 1113.29 516.791
