time division length width area intensity CMx CMy
0 0 55.0576 13.168 725 52.6179 1040.61 509.679
1 0 58.072 13.0011 755 51.947 1040.27 510.805
2 0 58.1528 11.5558 672 53.7396 1039.95 507.098
3 0 59.1284 10.029 593 55.2985 1039.43 508.589
4 0 63.2154 12.054 762 52.4711 1039.42 506.71
5 0 64.1947 13.4746 865 51.1815 1039.3 506.825
6 0 66.204 12.7032 841 52.2402 1038.98 503.786
7 0 65.1239 10.4263 679 55.4418 1039.01 506.268
8 0 68.1607 11.8837 810 53.7111 1038.06 504.932
9 0 71.0578 13.9042 988 51.4737 1038.54 502.505
10 0 75.1775 13.7807 1036 51.3224 1038.58 503.809
11 0 75.2634 11.9846 902 53.5876 1039.09 501.127
12 0 78.2118 12.5812 984 53.4177 1038.44 498.771
13 0 80.1713 12.9223 1036 53.2172 1038.26 496.533
14 0 84.1418 13.6436 1148 52.4225 1038.63 496.754
15 1 42.043 11.3693 478 54.3619 1038.85 519.634
16 0 43.0577 10.7298 462 56.0498 1039.36 518.199
17 0 43.0212 11.4827 494 54.3887 1038.74 520.302
18 0 45.0583 12.0067 541 54.4713 1038.48 518.919
19 0 47.038 12.6493 595 53.8118 1038.51 517.694
20 0 48.0703 10.5887 509 55.9077 1037.89 515.806
21 0 48.2186 10.7427 518 56.1023 1038.44 515.371
22 0 49.1417 11.5177 566 55.6767 1037.71 515.018
23 0 54.1385 11.7107 634 54.459 1037.43 515.093
24 0 54.0873 12.221 661 54.711 1038.3 513.519
25 0 57.0759 11.7913 673 54.8276 1037.52 512.467
26 0 58.1443 11.695 680 55.4176 1037.56 511.056
27 0 56.0725 11.396 639 56.507 1038.45 509.773
28 0 60.1777 12.3135 741 55.3954 1037.5 508.35
29 0 61.2237 12.3808 758 55.6108 1038.56 507.612
30 0 64.0545 12.583 806 55.8052 1037.95 508.428
31 0 65.0383 11.0858 721 57.8419 1038.2 507.712
32 0 66.0868 12.3474 816 57.0392 1038.56 503.974
33 0 69.0874 11.8835 821 57.7734 1038.5 505.886
34 0 73.119 13.0336 953 56.3421 1038.55 504.224
35 0 74.059 12.0715 894 58.1566 1038.68 501.625
36 0 78.1074 13.5839 1061 56.7257 1039.46 499.967
37 0 79.0785 12.6457 1000 58.324 1038.62 498.141
38 0 84.0839 12.6659 1065 57.8122 1039.35 499.206
39 0 85.1224 12.3822 1054 58.8121 1040.07 496.316
40 1 45.1176 10.9713 495 59.4667 1039.61 516.818
41 0 47.0198 10.8252 509 60.2534 1039.92 516.631
42 0 49.1416 11.2532 553 59.4919 1039.67 517.293
43 0 50.0484 12.2681 614 59.3078 1039.86 515.622
44 0 51.0376 12.2263 624 59.9311 1039.81 512.936
45 0 51.0237 11.72 598 61.1672 1039.41 512.811
46 0 54.0563 12.783 691 59.3719 1040.38 513.54
47 0 56.0573 11.2563 631 61.4453 1040.7 511.423
48 0 56.1119 11.9582 671 62.0522 1040.09 508.225
49 0 59.0623 12.1905 720 61.7625 1040.42 507.494
50 0 62.1085 13.6857 850 59.3 1040.72 507.864
51 0 63.0607 11.8457 747 61.6774 1040.35 507.43
52 0 66.0232 12.6622 836 60.8301 1040.72 504.909
53 0 67.0634 13.0772 877 60.7834 1040.42 503.527
54 0 69.1289 13.106 906 60.7583 1040.75 501.751
55 0 69.0559 10.7015 739 64.2111 1040.68 500.544
56 0 76.1331 13.5289 1030 59.9078 1040.87 500.443
57 0 75.0799 11.4012 856 63.132 1041.94 501.301
58 0 81.0555 12.9171 1047 60.8797 1040.81 498.472
59 0 83.1619 13.9126 1157 59.7191 1041.37 498.091
60 0 85.1162 13.6049 1158 60.0069 1040.91 498.671
61 1 41.0302 11.065 454 60.2291 1040.46 518.822
62 0 42.0738 11.5036 484 58.7066 1040.18 519.663
63 0 44.0462 12.0328 530 59.2943 1040.81 516.896
64 0 46.0441 11.337 522 59.387 1040.41 518.092
65 0 48.0189 10.8915 523 59.5296 1040.62 518.312
66 0 48.1165 10.5993 510 59.7412 1040.55 518.737
67 0 50.0395 10.2319 512 60.7734 1040.15 516.582
68 0 50.0285 10.1942 510 61.3196 1040.08 515.055
69 0 53.1276 11.2747 599 59.4023 1040.27 515.619
70 0 52.085 11.3276 590 60.6034 1039.81 511.778
71 0 55.0656 9.93361 547 60.8885 1038.85 515.197
72 0 56.0327 12.8675 721 59.061 1039.28 509.069
73 0 58.1086 10.7729 626 60.7732 1039.41 509.821
74 0 63.0336 11.7874 743 58.9892 1040.38 510.004
75 0 60.0581 10.3233 620 61.8661 1040.02 507.444
76 0 65.0972 12.7348 829 58.5754 1040.22 507.01
77 0 66.0566 12.2773 811 59.4291 1040.33 505.787
78 0 69.0628 11.685 807 59.7658 1039.91 506.922
79 0 72.0933 11.4574 826 60.4564 1039.82 504.404
80 0 71.0229 11.0246 783 61.8072 1040.64 502.883
81 1 37.0375 9.53089 353 60.7167 1040.94 519.431
82 0 37.0326 9.18109 340 61.0912 1040.64 521.229
83 0 40.0237 11.6931 468 58.7628 1041.04 520.767
84 0 41.0253 9.94508 408 60.9657 1041.17 520.645
85 0 41.0501 9.98781 410 61.1854 1040.56 518.249
86 0 43.0348 12.2924 529 59.155 1041.43 518.378
87 0 43.0278 10.1562 437 61.9405 1041.11 517.119
88 0 46.0406 10.5559 486 60.9259 1040.98 517.726
89 0 47.0533 10.6475 501 61.5948 1040.7 516.427
90 0 50.1122 12.5319 628 59.2564 1040.83 514.669
91 0 49.072 11.7378 576 60.8021 1041.17 514.688
92 0 52.0486 11.5469 601 61.1963 1041.64 513.256
93 0 53.1041 12.0518 640 61.6891 1041.4 513.17
94 0 56.0375 9.88624 554 63.8502 1041.86 512.39
95 0 57.0401 10.817 617 62.8622 1040.71 511.746
96 0 58.079 10.1241 588 63.483 1040.27 511.366
97 0 61.1267 11.5171 704 61.6136 1040.75 509.57
98 0 63.0368 11.993 756 61.1746 1040.34 508.901
99 0 66.1545 11.0952 734 62.2902 1040.58 507.307
100 0 67.0753 12.717 853 61.0176 1040.28 504.274
101 0 70.1615 11.5733 812 61.4249 1040.11 507.158
102 0 70.1744 10.5024 737 62.536 1041.2 505.974
103 0 73.0761 10.578 773 62.4269 1040.97 504.256
104 1 36.0365 9.93437 358 61.648 1040.56 519.645
105 0 37.0132 9.45608 350 61.5314 1040.48 519.189
106 0 38.0421 10.6724 406 59.5172 1040.51 518.569
107 0 40.0413 8.79093 352 60.4517 1040.19 521.071
108 0 42.0505 11.0819 466 59.8047 1040.22 518.655
109 0 44.1076 11.1092 490 59.7796 1039.5 517.755
110 0 45.1177 10.5059 474 60.7426 1038.22 515.344
111 0 45.0964 12.5953 568 58.7658 1039.46 515.498
112 0 45.0854 9.91451 447 62.472 1039.53 513.345
113 0 47.1179 10.166 479 61.9541 1039.89 514.848
114 0 49.0518 10.2341 502 61.4801 1040.24 513.014
115 0 50.1501 10.8674 545 61.7413 1039.71 511.883
116 0 53.129 12.4226 660 59.15 1040.13 511.865
117 0 52.2163 12.8121 669 59.4634 1040.27 511.599
118 0 52.1648 10.1601 530 63.3849 1040.29 509.996
119 0 55.1399 11.3167 624 61.8061 1041.11 508.909
120 0 57.1085 9.78838 559 63.2218 1040.76 510.712
121 0 57.1047 10.9973 628 62.1162 1040.49 508.159
122 0 59.0984 10.8971 644 62.7236 1040.82 504.208
123 0 60.0334 9.71126 583 63.5763 1041.02 505.942
124 0 63.1153 11.6929 738 61.4959 1040.68 503.736
125 0 64.0398 11.5397 739 61.9878 1040.08 504.223
126 0 64.0541 11.7713 754 61.9642 1040.25 504.033
127 0 69.08 11.1899 773 61.7801 1040.89 504.308
128 0 68.1381 12.1518 828 61.4046 1041.61 502.533
129 0 72.169 10.6001 765 63.1373 1040.77 498.8
130 0 73.0272 11.4752 838 62.5251 1040.39 498.874
131 0 77.1906 11.5428 891 61.7497 1040.58 497.777
132 0 80.0775 11.6762 935 61.5861 1040.12 497.733
133 0 79.104 9.80987 776 64.8647 1040.77 494.115
134 0 83.2161 10.9354 910 62.6022 1039.8 493.999
135 0 88.1866 11.9746 1056 61.2945 1040.85 492.592
136 0 89.1372 9.99583 891 63.7093 1041.18 490.029
137 1 44.0302 7.54027 332 62.9759 1040.61 516.614
138 0 44.063 9.16869 404 62.8094 1040.73 513.077
139 0 46.0285 10.3631 477 61.5262 1040.35 512.532
140 0 50.0386 11.1314 557 60.4237 1040.52 512.575
141 0 50.0587 10.3279 517 61.8182 1041.23 511.745
142 0 50.1265 10.2341 513 62.5634 1041.08 511.012
143 0 52.0694 9.14165 476 63.9685 1041.32 510.529
144 0 55.0868 13.4152 739 59.0311 1041.28 508.832
145 0 56.0677 10.4338 585 62.694 1040.66 509.169
146 0 55.1186 9.14392 504 63.5516 1040.19 509.629
147 0 58.1297 9.40999 547 64.0091 1040.19 505.876
148 0 59.1587 9.70271 574 63.122 1039.76 507.359
149 0 62.173 12.1435 755 60.4821 1040.11 504.374
150 0 65.1463 11.1442 726 61.4463 1039.62 505.354
151 0 64.0739 11.0497 708 61.8305 1040.89 504.733
152 0 64.1348 10.743 689 63.1263 1040.53 502.103
153 0 67.156 10.7809 724 62.4793 1040.56 503.688
154 0 70.061 11.4614 803 61.5305 1040.69 500.521
155 0 73.036 13.1168 958 59.0292 1042.31 503.255
156 0 75.0551 11.7913 885 60.9299 1041.56 500.541
157 0 76.1122 9.61738 732 63.4986 1041.08 498.597
158 0 78.0974 10.9863 858 62.5385 1041.36 496.928
159 0 83.0914 11.6257 966 61.6553 1040.49 496.247
160 1 42.0387 10.6569 448 60.4464 1040.99 517.205
161 0 44.0328 9.96984 439 61.5945 1041.14 514.563
162 0 47.015 13.1447 618 58.6084 1041.44 513.605
163 0 46.0269 10.1028 465 62.9226 1041.55 512.768
164 0 48.0179 10.9959 528 61.2424 1041.01 514.053
165 0 49.0515 10.2953 505 63.602 1040.32 510.356
166 0 50.1406 10.6899 536 62.4403 1041.6 512.866
167 0 52.0816 11.4244 595 62.8269 1040.72 509.58
168 0 55.0682 11.967 659 60.5235 1040.88 510.753
169 0 54.0477 10.9163 590 62.7847 1041.31 508.614
170 0 56.1039 10.0528 564 63.1702 1041.05 509.216
171 0 57.0625 12.5126 714 60.6821 1040.59 507.594
172 0 60.105 10.7978 649 62.319 1041.62 506.7
173 0 62.0977 12.1583 755 60.8609 1040.9 503.339
174 0 63.0634 10.3705 654 62.6835 1040.97 504.089
175 0 62.0579 9.58782 595 64.2723 1040.81 503.637
176 0 67.0552 10.1111 678 62.2788 1040.62 505.631
177 0 66.0627 9.18824 607 63.7512 1040.74 504.399
178 0 70.0324 10.9235 765 61.9647 1040.6 502.617
179 0 72.0841 11.1398 803 61.6775 1040.39 499.65
180 0 75.0968 12.2109 917 60.1101 1040.81 499.979
181 0 78.2208 10.5982 829 62.006 1039.94 496.953
182 0 80.1208 12.2939 985 59.8487 1039.98 497.096
183 0 84.172 11.5834 975 60.5744 1039.68 496.114
184 1 42.094 9.55005 402 60.2264 1038.68 517.007
185 0 45.0987 10.3551 467 58.2805 1038.81 517.039
186 0 46.0386 13.2498 610 55.7836 1039.7 516.011
187 0 47.0684 11.3027 532 58.4962 1039.31 515.246
188 0 46.0358 10.4267 480 60.5333 1039.06 514.581
189 0 50.0485 12.3081 616 56.9221 1038.27 513.284
190 0 51.0596 12.1035 618 57.2476 1037.78 514.285
191 0 51.0746 11.2189 573 59.349 1037.52 513.595
192 0 52.0949 8.19658 427 62.1101 1038.3 515.037
193 0 56.0597 12.5224 702 56.8846 1038.17 512.333
194 0 55.0358 10.6658 587 59.5111 1038.09 513.739
195 0 55.0501 10.8447 597 59.6064 1037.93 513.018
196 0 60.0602 12.3043 739 57.3288 1037.55 511.421
197 0 60.0472 10.5917 636 59.7516 1037.07 511.358
198 0 63.0435 11.151 703 59.1394 1036.47 510.158
199 0 63.0235 11.8844 749 57.3204 1037.72 513.203
200 0 65.0892 10.9235 711 59.0098 1037.66 510.045
201 0 67.0896 11.3281 760 58.3658 1037.01 509.507
202 0 68.0612 10.5787 720 59.4542 1036.66 508.264
203 0 72.1731 11.6525 841 57.365 1036.92 506.968
204 0 73.148 12.0578 882 57.8741 1036.68 504.272
205 0 75.08 12.4134 932 57.6867 1037.2 505.159
206 0 77.1107 11.0361 851 58.812 1037.79 505.538
207 0 78.0997 9.76956 763 60.4338 1037.2 504.754
208 0 83.0662 10.4976 872 59.5103 1037.3 505.039
209 1 44.1004 9.79582 432 59.9236 1037.36 523.944
210 0 44.0513 11.759 518 58.6699 1036.96 522.332
211 0 47.0689 10.7077 504 59.2044 1036.64 524.698
212 0 49.0422 11.7654 577 58.8995 1035.65 523.189
213 0 49.0471 11.4992 564 60.5213 1035.01 521.427
214 0 53.0709 10.1939 541 60.8577 1035.77 521.795
215 0 49.0208 10.7301 526 61.9202 1035.25 520.555
216 0 50.0624 11.9052 596 60.5973 1035.13 519.54
217 0 52.0097 12.0939 629 60.5628 1034.48 517.612
218 0 56.1421 13.6261 765 58.3673 1035.3 517.931
219 0 57.0756 12.72 726 59.6873 1035.12 516.862
220 0 59.0356 13.6189 804 58.3657 1035.1 515.807
221 0 59.0497 10.6012 626 62.2588 1035.13 516.725
222 0 61.061 12.8232 783 60.2401 1034.86 514.387
223 0 63.1617 10.861 686 62.4315 1034.75 513.931
224 0 63.1617 10.7977 682 139.207 1034.74 514.043
225 0 64.0832 11.0637 709 62.9154 1035.18 510.135
226 0 67.1022 11.6539 782 62.3708 1034.84 507.078
227 0 70.0506 12.3482 865 61.3156 1034.92 507.28
228 0 72.1299 10.8693 784 62.6339 1034.6 507.037
229 0 71.151 9.31821 663 65.3137 1035.14 504.202
230 0 77.1419 11.3427 875 62.9771 1035.46 502.349
231 0 79.1058 10.821 856 63.6519 1035.67 499.813
232 0 81.0894 12.1964 989 62.8645 1035.46 501.73
233 1 40.0472 10.2879 412 63.9029 1034.96 520.35
234 0 40.0691 7.53698 302 67.5861 1034.52 521.834
235 0 42.0511 9.5598 402 65.8756 1035.39 517.888
236 0 42.0237 8.75695 368 67.7908 1035.19 516.712
237 0 44.0218 11.4489 504 64.4425 1035.75 515.062
238 0 45.0421 11.3894 513 64.6764 1035.82 516.926
239 0 48.063 11.3185 544 65.4596 1036.13 517.66
240 0 50.042 11.89 595 65.5563 1036.29 514.758
241 0 51.0446 11.6761 596 65.4581 1035.7 513.517
242 0 54.1154 11.7157 634 64.9117 1036.72 513.703
243 0 56.0394 11.4919 644 64.4953 1036.18 514.641
244 0 57.0587 10.2876 587 66.1056 1036.2 514.533
245 0 59.1556 11.4106 675 65.7422 1035.52 509.037
246 0 63.105 12.5981 795 63.5698 1036.03 511.189
247 0 66.1193 13.2639 877 61.8381 1036.14 511.141
248 0 66.0161 13.7845 910 61.9473 1036.59 509.625
249 0 67.0795 12.1945 818 64.3399 1036.29 509.674
250 0 69.0787 10.9585 757 65.6433 1036.37 507.51
251 0 72.1541 12.598 909 63.4763 1037.19 506.914
252 1 36.0544 10.817 390 62.9564 1036.13 526.056
253 0 38.0362 10.306 392 64.5179 1036.58 524.349
254 0 39.0545 11.0871 433 63.4042 1037.29 524.961
255 0 38.02 10.363 394 65.1168 1036.65 524.926
256 0 38.0809 10.2939 392 65.9031 1037.09 523.944
257 0 41.0132 11.9474 490 63.6265 1036.7 521.645
258 0 42.0982 10.0954 425 66.44 1036.36 521.44
259 0 41.0436 8.99044 369 67.9946 1036.99 520.916
260 0 45.0939 9.84612 444 65.6712 1037.42 522.137
261 0 46.0296 10.4715 482 64.9938 1036.79 521.83
262 0 47.1711 10.5573 498 65.8976 1036.29 520.279
263 0 48.0385 10.4499 502 66.9223 1036.99 517.022
264 1 59.0178 4.55795 269 74.0483 1036.77 469.078
265 0 60.0962 7.78751 468 71.25 1036.69 461.34
266 0 61.1211 10.7164 655 67.6229 1036.08 459.598
267 0 57.0603 11.8296 675 64.04 1035.81 515.963
268 0 60.027 12.1445 729 63.5693 1036.86 515.081
269 0 62.0764 11.6953 726 64.157 1035.53 516.642
270 0 64.0498 11.3662 728 65.4409 1035.35 513.163
271 0 65.1779 11.8599 773 64.8318 1036.01 514.521
272 0 68.0779 12.6766 863 64.5041 1035.58 511.876
273 0 70.0783 11.4443 802 65.8267 1035.2 512.544
274 0 73.1147 10.8323 792 67.1149 1034.04 510.173
275 0 77.0898 12.3363 951 64.7182 1034.72 508.228
276 1 36.024 9.1328 329 65.6596 1035.2 529.906
277 0 36.0215 8.68925 313 67.7061 1034.33 528.105
278 0 40.0249 10.5934 424 65.5566 1035.07 525.533
279 0 41.0067 12.4858 512 63.5098 1035.12 524.92
280 0 41.0381 11.4528 470 64.6064 1035.15 523.651
281 0 44.0391 12.716 560 62.1232 1035.56 524.777
282 0 46.053 12.5942 580 63.5897 1034.87 522.941
283 0 48.1061 12.1191 583 63.8782 1034.48 523.117
284 0 47.0327 10.3545 487 66.6735 1033.72 521.31
285 0 50.0343 13.171 659 61.692 1034.56 519.325
286 0 51.0617 12.573 642 62.7944 1034.91 520.336
287 0 52.097 11.9009 620 63.7645 1034.26 519.818
288 0 54.0774 11.1877 605 64.2777 1034.29 518.587
289 0 56.0524 11.0432 619 64.2569 1034.05 517.263
290 0 58.0207 11.3235 657 63.1903 1034.07 517.819
291 0 58.0483 12.6619 735 62.2735 1033.83 515.313
292 0 59.1236 11.18 661 63.9713 1034.68 515.731
293 0 63.1746 11.0013 695 62.754 1035.24 517.796
294 0 65.0766 12.2164 795 61.9195 1035.16 513.467
295 0 65.1299 10.8552 707 63.2645 1034.92 514.743
296 0 69.0266 11.9229 823 61.7631 1034.28 511.914
297 0 70.0857 11.1435 781 62.265 1034.34 512.887
298 0 73.1309 10.3376 756 64.2381 1033.54 509.492
299 0 78.0862 13.3955 1046 59.7036 1033.91 507.708
300 0 79.1789 11.9855 949 61.8841 1033.53 506.91
301 1 44.0546 12.6661 558 59.1613 1033.43 524.075
302 0 46.0741 12.2629 565 60.2708 1034.12 523.223
303 0 44.0136 11.2692 496 62.3669 1034.11 522.185
304 0 47.0899 12.6779 597 61.474 1033.96 519.702
305 0 48.0258 12.2018 586 62.1928 1033.93 520.628
306 0 50.1581 12.002 602 62.4419 1033.85 519.743
307 0 52.0404 14.777 769 58.5007 1033.8 517.612
308 0 52.0526 12.545 653 62.7044 1034.1 515.802
309 0 54.0561 11.9506 646 63.3034 1034 516.368
310 0 57.0651 12.0915 690 62.6464 1033.89 515.828
311 0 57.0381 11.8342 675 63.1926 1033.75 515.846
312 0 57.1098 11.7843 673 63.7875 1033.83 513.181
313 0 61.0713 12.2316 747 62.6104 1034.12 513.527
314 0 63.1464 12.2414 773 62.8305 1033.56 511.718
315 0 66.2405 12.6962 841 61.1094 1033.54 512.017
316 0 68.0834 13.9682 951 59.8265 1033.84 509.287
317 0 70.169 12.1564 853 61.6835 1034.25 509.748
318 0 72.0575 12.0737 870 61.9011 1034.22 507.562
319 0 74.2457 12.3374 916 61.5677 1034.19 505.889
320 0 76.1921 13.2954 1013 60.5104 1033.91 503.654
321 0 80.1082 12.6329 1012 60.5889 1034.85 502.937
322 0 83.1594 12.0251 1000 61.4 1034.52 502.424
323 0 84.1005 11.0106 926 62.9471 1034.4 500.948
324 0 86.2425 11.6532 1005 62.3453 1034.01 496.939
325 1 39.0938 9.82254 384 64.3646 1034.18 520.331
326 0 41.0988 10.0003 411 63.399 1034.53 520.864
327 0 41.0833 10.7099 440 63.3909 1034.5 518.405
328 0 44.0739 11.5488 509 60.9745 1034.36 519.731
329 0 45.0905 12.1533 548 61.3102 1034.79 517.4
330 0 46.0491 12.7907 589 60.1664 1035.69 517.728
331 0 47.0318 11.6729 549 61.8634 1035.41 516.219
332 0 49.1514 11.5561 568 62.0299 1034.81 515.12
333 0 51.1737 13.2881 680 59.7059 1034.96 513.299
334 0 53.0959 12.92 686 59.7187 1034.1 513.071
335 0 53.1839 10.003 532 63.5883 1034.65 511.246
336 0 54.075 11.9279 645 61.7581 1034.81 509.842
337 0 59.2496 11.7975 699 60.6781 1034.76 510.871
338 0 57.0456 11.5171 657 61.5556 1035 510.011
339 0 62.1725 14.0416 873 58.0687 1035.24 510.039
340 0 62.1841 15.0842 938 56.4808 1034.34 511.83
341 0 64.0891 11.5932 743 61.4361 1034.68 508
342 0 68.1707 11.9993 818 60.7836 1034.55 504.147
343 0 69.1051 13.096 905 59.1116 1034.72 504.916
344 0 71.2084 11.9649 852 60.8533 1033.18 503.896
345 0 74.049 13.6936 1014 58.4882 1033.92 505.931
346 0 73.1759 11.0146 806 62.371 1034.64 500.916
347 0 79.1152 12.9305 1023 59.4213 1035.26 503.915
348 0 79.2015 11.7675 932 61.4818 1033.97 498.939
349 0 83.2479 13.658 1137 59.2691 1034.62 497.964
350 0 85.1211 12.77 1087 60.2576 1035.25 499.17
351 1 43.076 11.5842 499 61.6473 1035.12 517.539
352 0 45.045 11.6106 523 61.7285 1034.81 517.746
353 0 45.1262 11.08 500 63.278 1034.74 514.326
354 0 48.0416 13.6757 657 59.4855 1034.84 516.496
355 0 48.0477 12.5084 601 61.5507 1033.74 515.326
356 0 50.1328 11.8485 594 62.5152 1034.43 514.236
357 0 53.1269 13.2513 704 61.0028 1034.57 512.812
358 0 54.0903 10.7413 581 63.1532 1035.14 514.224
359 0 55.1313 12.443 686 61.7026 1035.25 512.827
360 0 57.0277 12.4326 709 61.6037 1033.81 513.388
361 0 59.0927 14.3334 847 59.8064 1033.63 510.838
362 0 59.0253 11.2833 666 64.3243 1033.56 509.623
363 0 62.2003 13.0224 810 61.9667 1034.4 511.348
364 0 66.0433 14.2937 944 60.7574 1034.95 508.202
365 0 65.1157 13.0844 852 63.0669 1034.44 506.325
366 0 69.1276 13.6704 945 62.5534 1035.38 504.236
367 0 72.1016 13.9664 1007 62.2165 1035.14 503.902
368 0 74.0861 13.4843 999 63.2513 1034.78 505.041
369 0 75.1368 12.8699 967 64.3423 1034.44 503.548
370 0 78.0362 14.1601 1105 63.2208 1034.45 503.012
371 0 81.0511 15.3113 1241 61.9936 1034.42 500.532
372 0 84.1664 14.0555 1183 63.9459 1034.4 501.232
373 0 87.1497 14.3546 1251 63.761 1034.56 499.284
374 0 89.0272 13.524 1204 64.9086 1034.71 499.14
375 1 47.0317 11.6304 547 65.9982 1034.7 519.097
376 0 49.0172 11.343 556 66.6025 1034.28 518.396
377 0 49.0451 12.254 601 66.604 1034.82 516.354
378 0 53.0566 13.6647 725 64.3255 1034.11 516.443
379 0 53.0322 11.9927 636 66.478 1033.95 518.009
380 0 54.061 12.2639 663 66.1357 1033.16 516.172
381 0 56.0963 11.5516 648 67.2346 1033.84 514.517
382 0 57.0956 12.4003 708 66.4929 1032.91 513.034
383 0 59.0614 12.0045 709 66.2158 1033.8 513.334
384 0 61.0937 12.6036 770 65.9195 1033.83 512.543
385 0 64.1922 12.6339 811 65.381 1034.14 510.207
386 0 67.0699 13.5381 908 63.3381 1033.15 510.574
387 0 69.0955 13.3149 920 64.175 1033.49 507.429
388 0 69.0693 11.597 801 66.422 1034.31 504.653
389 0 74.1272 13.288 985 63.6782 1033.73 506.737
390 0 77.1184 12.5651 969 64.7245 1033.59 504.645
391 0 78.054 11.8892 928 66.2866 1034.24 502.892
392 0 83.1312 13.6291 1133 63.6831 1034.39 502.414
393 0 84.1039 12.7461 1072 64.9049 1033.83 501.603
394 1 44.0148 10.8145 476 64.3235 1033.89 522.666
395 0 47.0362 11.7994 555 63.5009 1033.69 521.369
396 0 46.0716 10.9178 503 65.5885 1034.09 519.241
397 0 50.0563 12.6458 633 63.169 1033.91 517.3
398 0 50.0584 11.2469 563 65.3144 1034.25 518.211
399 0 50.1207 12.3701 620 65.0113 1033.82 516.684
400 0 51.047 12.6746 647 64.1654 1034.06 517.244
401 0 55.0327 11.8112 650 64.0923 1033.91 517.72
402 0 54.0341 12.4551 673 64.5721 1033.37 515.875
403 0 56.0643 11.9327 669 64.4768 1034.17 515.804
404 0 56.0175 10.943 613 66.4959 1034.39 515.33
