time division length width area intensity CMx CMy
0 0 90.1596 12.9881 1171 53.1682 1328.79 478.885
1 1 49.1663 10.6374 523 52.2562 1328.54 499.252
2 0 51.0896 9.98247 510 52.6608 1327.87 498.878
3 0 51.0685 8.73337 446 52.9955 1327.93 500.843
4 0 52.0834 10.0608 524 53.9885 1327.67 496.303
5 0 56.1654 10.4513 587 53.6627 1326.72 494.244
6 0 55.1832 9.51377 525 54.579 1326.79 495.032
7 0 58.1927 9.17641 534 54.6873 1327.1 495.83
8 0 62.1913 12.7188 791 51.713 1326.84 495.397
9 0 63.1574 13.1259 829 51.8444 1327.09 491.981
10 0 65.1682 12.5061 815 52.6086 1326.61 487.987
11 0 65.3202 9.78258 639 55.0047 1326.84 490.944
12 0 68.2163 11.3463 774 53.6357 1327.47 489.623
13 0 70.1566 11.4031 800 53.755 1327.29 486.525
14 0 73.3175 10.7751 790 54.3633 1326.33 487.814
15 0 76.1959 12.796 975 52.7436 1326.2 483.738
16 0 76.0643 11.8847 904 53.3263 1326.45 481.869
17 0 77.2333 10.5266 813 54.9902 1326.17 480.272
18 0 81.2857 11.8102 960 53.6917 1326.41 480.72
19 0 82.082 11.2936 927 54.4563 1325.74 478.245
20 0 87.1535 11.8297 1031 53.9796 1325.35 477.313
21 0 90.2452 12.6766 1144 53.1897 1325.49 477.25
22 0 95.1518 13.9566 1328 51.5723 1325.78 477.384
23 0 95.1833 10.9683 1044 54.6274 1325.78 472.755
24 0 96.3036 9.79195 943 55.9311 1325.58 472.899
25 0 103.093 12.6003 1299 53.1655 1325.32 476.259
26 0 102.285 11.9568 1223 54.8144 1324.52 469.087
27 0 104.433 12.0844 1262 55.0507 1324.67 468.625
28 1 59.1174 10.1831 602 55.1595 1325.11 492.885
29 0 59.0872 9.18981 543 56.6114 1325.29 491.98
30 0 62.1729 12.6904 789 53.3371 1325.34 492.939
31 0 63.1712 10.432 659 55.3763 1324.7 494.088
32 0 65.2065 11.7166 764 54.5798 1325.41 492.368
33 0 67.2874 13.2566 892 53.4126 1325.28 491.559
34 0 68.2997 10.615 725 55.931 1325.26 490.423
35 0 74.1474 12.9067 957 53.2926 1324.63 491.429
36 0 72.1058 10.9977 793 56.2673 1324.32 487.145
37 0 76.1128 12.7705 972 54.2428 1324.24 486.138
38 0 77.1581 11.6773 901 55.4473 1324.99 488.375
39 0 79.1614 10.7628 852 56.939 1324.43 485.045
40 0 83.1637 12.9143 1074 54.7449 1324.93 481.287
41 0 85.2443 12.7281 1085 54.6433 1324.37 484.762
42 0 86.1729 11.9643 1031 56.4694 1324.15 477.87
43 0 94.2952 13.7441 1296 54.1937 1323.97 481.052
44 0 95.2509 13.8476 1319 54.7255 1324.2 478.045
45 0 95.0984 12.976 1234 56.2861 1323.66 474.022
46 0 97.0785 12.6186 1225 56.7559 1324.55 475.05
47 0 100.19 12.7259 1275 57.0188 1324.83 470.353
48 0 105.191 14.1648 1490 55.3174 1324.56 473.762
49 0 106.221 12.9447 1375 56.9775 1324.85 471.501
50 0 111.293 14.9516 1664 55.5084 1324.56 469.502
51 1 55.1117 8.09265 446 60.4664 1324.75 491.74
52 0 61.2204 9.4903 581 59.7676 1323.7 489.716
53 0 64.068 11.0195 706 57.8159 1323.41 493.096
54 0 65.1752 13.2566 864 56.375 1323.42 489.942
55 0 65.1364 11.545 752 58.1476 1323.59 491.391
56 0 70.2842 14.3418 1008 54.7292 1324.9 488.373
57 0 69.1572 11.5679 800 58.1438 1324.71 487.461
58 0 74.3057 13.7809 1024 55.4072 1324.21 487.925
59 0 76.1055 12.141 924 56.9026 1324.26 487.387
60 0 78.1833 12.6114 986 56.8377 1324.76 484.524
61 0 80.2273 11.4923 922 57.7126 1324.97 485.837
62 0 81.0438 13.3631 1083 56.4949 1325.39 480.644
63 0 85.1308 13.5321 1152 56.2622 1324.84 483.632
64 0 90.1224 11.906 1073 58.1174 1323.97 479.571
65 0 91.218 11.7521 1072 58.7211 1323.59 477.75
66 0 93.1999 12.0816 1126 58.5924 1324.35 474.006
67 0 93.1447 9.96299 928 61.6476 1323.88 471.051
68 0 99.2133 13.0628 1296 57.6597 1324 477.347
69 0 101.096 13.3042 1345 58.1019 1323.59 474.584
70 0 105.129 13.0887 1376 58.5567 1323.62 473.554
71 1 59.1148 9.08402 537 58.9106 1324.58 494.836
72 0 60.2294 9.8457 593 58.4958 1324.89 494.624
73 0 58.1387 10.7674 626 58.6134 1324.5 494.332
74 0 61.1976 10.8828 666 58.7883 1324.86 492.548
75 0 65.1617 11.1722 728 58.2363 1324.72 493.865
76 0 64.1753 11.0323 708 59.596 1323.73 492.196
77 0 67.2098 11.4864 772 58.4896 1323.82 492.171
78 0 69.1302 10.5164 727 59.9477 1324.06 491.563
79 0 70.2191 11.222 788 59.5406 1323.07 491.652
80 0 73.1831 11.1911 819 59.2088 1323.52 490.621
81 0 76.1471 11.7142 892 58.3957 1324.36 491.283
82 0 76.3563 11.4332 873 59.488 1324.72 489.157
83 0 83.1007 14.8856 1237 55.076 1325.04 488.504
84 0 81.1247 12.0802 980 59.5837 1324.38 484.992
85 0 87.0813 15.2961 1332 55.5398 1325.02 484.785
86 0 88.3705 12.1421 1073 59.7418 1324.33 482.242
87 0 89.2147 12.5988 1124 59.556 1324.88 482.931
88 0 93.2201 12.4973 1165 59.7725 1324.77 479.621
89 1 50.1194 8.59947 431 59.5824 1324.58 500.014
90 0 53.1588 10.3464 550 59.1055 1323.97 497.764
91 0 55.1309 10.0488 554 58.722 1324.22 498.872
92 0 57.1228 10.8888 622 57.4839 1324.68 498.678
93 0 54.0965 11.9416 646 58.4381 1324.25 493.324
94 0 59.1275 11.2131 663 58.5822 1324.16 495.045
95 0 60.1373 11.4405 688 58.0102 1324.01 494.321
96 0 61.2032 11.7151 717 58.3026 1324.23 491.439
97 0 63.1141 10.6315 671 59.462 1324.57 490.246
98 0 64.0475 10.5859 678 59.385 1324.72 488.959
99 0 68.1522 11.9879 817 57.7222 1323.96 486.509
100 0 69.0904 11.7817 814 57.9509 1323.92 488.001
101 0 71.1089 12.966 922 56.8753 1324.15 487.956
102 0 70.18 10.6583 748 59.9398 1324.73 484.408
103 0 72.1146 9.34623 674 61.5831 1324.82 482.085
104 0 78.1359 12.4015 969 57.5996 1324.57 484.37
105 0 79.1134 10.6935 846 59.4456 1323.96 483.67
106 0 81.0994 12.1209 983 58.6968 1324.29 479.29
107 0 85.1159 9.83365 837 61.1219 1324.43 476.885
108 0 89.0797 11.9444 1064 58.6457 1324.53 479.023
109 0 90.1812 11.8761 1071 59.2596 1323.91 477.198
110 0 93.1716 12.7614 1189 58.6056 1324.04 471.679
111 0 99.0719 14.656 1452 55.9938 1324.15 475.245
112 0 100.172 11.58 1160 59.9043 1324.11 472.586
113 0 103.127 13.5076 1393 57.8571 1324.23 472.996
114 0 107.109 13.2201 1416 58.3192 1324.61 470.758
115 1 60.0392 10.2766 617 57.8185 1324.57 494.883
116 0 60.0971 12.7793 768 55.4349 1325.06 493.444
117 0 61.2313 10.8441 664 58.1822 1324.95 491.572
118 0 63.2369 11.2592 712 57.5997 1324.21 492.334
119 0 64.1826 9.97154 640 59.0734 1324.72 489.18
120 0 67.1212 11.1589 749 57.9626 1323.95 490.041
121 0 70.1254 12.2923 862 56.8016 1324.08 488.411
122 0 70.0628 9.89113 693 59.5945 1323.91 488.144
123 0 70.0652 9.4198 660 60.4848 1323.93 485.785
124 0 73.0384 10.159 742 59.845 1323.96 484.701
125 0 78.0736 12.0015 937 57.3533 1323.82 485.503
126 0 78.0736 12.0143 938 136.402 1323.82 485.525
127 0 81.1462 10.2901 835 59.4934 1324.58 483.428
128 0 83.2302 10.537 877 59.2281 1324.71 482.023
129 0 87.1567 11.5998 1011 58.4985 1325.56 477.106
130 0 90.1097 11.941 1076 57.6924 1325.66 480.256
131 0 93.1861 13.3711 1246 56.7319 1325.09 477
132 0 95.1475 12.4228 1182 57.8325 1325.42 476.634
133 0 97.3743 14.0181 1365 56.6205 1324.78 474.604
134 0 98.0878 10.2357 1004 61.7191 1324.37 467.548
135 0 103.109 11.4636 1182 59.9103 1325.12 468.098
136 1 58.2052 7.26739 423 60.9173 1325.27 490.473
137 0 60.1411 9.01215 542 59.2288 1325.17 490.902
138 0 62.1912 9.82454 611 57.9394 1324.87 492.349
139 0 64.272 12.556 807 55.6853 1324.66 488.425
140 0 64.0787 9.36348 600 59.81 1324.42 486.928
141 0 68.1072 11.012 750 57.4933 1324.74 488.016
142 0 65.0522 9.73064 633 59.1706 1325.35 482.731
143 0 71.1157 11.3477 807 56.8042 1325.11 486.576
144 0 72.0802 10.3218 744 58.1277 1325.3 485.862
145 0 74.2804 9.30259 691 58.6353 1325.16 485.2
146 0 78.1587 12.948 1012 54.8765 1324.77 484.862
147 0 78.0586 11.3761 888 56.6182 1324.3 485.227
148 0 80.0799 10.3147 826 58.1683 1324.67 481.16
149 0 83.1248 10.1654 845 58.503 1325.05 480.202
150 0 87.0853 11.2074 976 56.7193 1325.05 481.675
151 0 89.2593 13.2647 1184 55.875 1323.95 472.928
152 0 90.0655 9.8817 890 59.827 1324.04 470.625
153 0 95.1463 11.929 1135 57.2731 1325.07 473.848
154 0 99.1339 13.7188 1360 55.4051 1325.44 473.464
155 0 100.125 10.6167 1063 58.8288 1325.4 472.049
156 0 104.15 11.6755 1216 57.5378 1325.41 470.243
157 0 110.35 14.1006 1556 54.6999 1324.92 471.008
158 0 105.151 10.8701 1143 59.5066 1324.93 462.193
159 0 114.144 13.0099 1485 56.7333 1324.62 466.5
160 0 117.089 13.1865 1544 56.6308 1324.92 461.101
161 0 120.171 13.4725 1619 55.9512 1325.7 464.505
162 0 122.229 12.4766 1525 57.2649 1325.84 463.33
163 0 125.194 12.285 1538 57.9506 1325.86 455.949
164 0 131.129 14.459 1896 55.1524 1325.51 461.306
165 0 132.148 14.0221 1853 56.048 1325.65 455.081
166 0 137.117 12.8139 1757 57.0233 1325.6 454.842
167 0 142.396 12.1633 1732 57.2512 1325.75 457.522
168 0 143.229 11.7365 1681 58.6788 1325.42 446.381
169 0 147.338 12.5426 1848 58.1088 1324.91 447.203
170 0 153.262 12.7037 1947 57.5213 1324.41 449.678
171 0 158.368 13.4497 2130 56.5746 1325.05 448.247
172 1 94.2082 12.5148 1179 54.7837 1324.95 476.886
173 0 93.0666 10.7772 1003 57.1785 1324.95 473.879
174 0 96.2443 11.2111 1079 57.1585 1324.69 472.026
175 0 99.1729 13.5017 1339 55.5437 1325.21 470.718
176 0 102.233 11.0825 1133 57.5243 1325.36 473.086
177 0 102.197 10.5971 1083 59.0591 1325.6 467.9
178 0 109.243 12.6598 1383 56.1381 1325.35 473.004
179 0 113.31 12.3466 1399 56.7806 1325.2 470.429
180 0 114.128 13.1519 1501 56.8261 1325.39 463.755
181 0 116.355 10.8032 1257 59.4948 1325.34 464.035
182 0 117.298 11.4836 1347 58.9963 1325.5 461.249
183 0 122.313 12.0674 1476 58.1328 1325.14 465.192
184 0 128.142 13.7582 1763 56.8123 1324.89 460.816
185 0 130.502 13.7623 1796 56.9003 1325.48 456.481
186 0 135.235 13.0588 1766 57.3998 1325.62 456.202
187 0 137.435 12.7333 1750 57.8617 1325.88 454.541
188 0 141.32 11.3359 1602 59.8833 1325.13 451.633
189 0 145.218 12.3676 1796 58.8107 1324.38 453.92
190 0 150.309 15.0157 2257 56.6256 1324.58 447.039
191 0 152.348 12.4977 1904 59.7815 1324.36 446.647
192 0 158.327 12.4805 1976 59.5425 1325.03 446.9
193 1 89.267 10.2389 914 60.6849 1325.41 471.461
194 0 94.273 13.0578 1231 57.4249 1325.57 473.147
195 0 95.2453 9.2288 879 61.6303 1324.69 475.645
196 0 101.22 13.0606 1322 58.0681 1324.54 475.964
197 0 102.148 11.8358 1209 59.8859 1324.4 472.785
198 0 101.204 10.1775 1030 62.5233 1324.72 469.039
199 0 106.253 12.7149 1351 59.832 1325.46 468.028
200 0 110.261 11.8537 1307 61.1301 1324.84 467.271
201 0 113.169 12.2825 1390 60.8403 1324.9 465.326
202 0 115.494 11.4378 1321 62.7911 1325.09 461.903
203 0 117.14 11.0723 1297 63.2012 1325.3 461.106
204 0 124.499 12.9479 1612 60.9845 1324.94 460.489
205 0 126.288 12.8041 1617 61.5714 1324.71 461.784
206 0 127.302 11.2488 1432 64.1278 1324.83 458.47
207 0 135.358 12.2046 1652 61.299 1323.78 459.051
208 0 135.197 12.9811 1755 61.3721 1323.81 453.693
209 0 141.22 12.4345 1756 61.377 1324.49 456.177
210 0 144.369 13.6594 1972 60.3453 1324.87 447.417
211 0 149.328 14.0764 2102 59.8149 1324.77 451.5
212 0 151.253 12.8394 1942 61.9011 1324.66 445.603
213 0 154.311 12.3322 1903 62.7178 1324.15 446.237
214 0 159.265 12.4133 1977 63.0147 1324.33 442.894
215 0 165.69 12.2397 2028 63.0907 1324.13 439.898
216 0 170.303 14.6914 2502 60.0272 1324.86 443.389
217 0 172.287 13.9825 2409 61.1166 1325.36 439.685
218 0 181.377 13.6897 2483 61.6597 1325 435.251
219 1 100.329 11.572 1161 61.3859 1325.18 471.377
220 0 104.329 11.3103 1180 61.411 1325.04 471.579
221 0 104.259 12.3347 1286 61.2115 1324.93 468.792
222 0 111.237 14.6803 1633 58.0888 1324.41 469.115
223 0 112.342 13.806 1551 59.5261 1324.67 467.699
224 0 115.231 13.4946 1555 59.9775 1324.31 467.784
225 0 117.157 12.7692 1496 61.0989 1324.62 463.691
226 0 117.314 12.3856 1453 61.9346 1324.79 462.017
227 0 123.201 13.0113 1603 60.4392 1324.86 465.614
228 0 126.194 13.2495 1672 61.1268 1324.82 459.795
229 0 125.121 10.9414 1369 64.4638 1324.7 462.382
230 0 128.235 13.717 1759 61.7652 1325.03 459.541
231 0 131.18 13.3557 1752 62.9075 1324.08 457.789
232 0 132.345 13.3514 1767 63.4375 1323.92 456.13
233 0 137.212 13.388 1837 63.4692 1323.57 457.394
234 0 138.204 12.7493 1762 65.0289 1323.94 453.654
235 0 136.218 13.8895 1892 58.4773 1324.46 452.983
236 0 133.118 11.2231 1494 62.3079 1324.53 452.95
237 0 132.149 12.5162 1654 61.1282 1324.91 452.825
238 0 136.234 12.229 1666 61.2713 1324.75 454.741
239 0 134.144 13.083 1755 61.1048 1325.2 450.978
240 0 138.315 14.3802 1989 59.5732 1325.27 454.369
241 0 132.128 12.4122 1640 62.425 1325.32 451.804
242 0 136.121 14.0169 1908 61.1289 1324.73 449.254
243 0 132.15 12.5993 1665 63.2865 1324.12 449.011
244 0 137.211 11.588 1590 62.7264 1324.64 455.984
245 0 135.328 12.3626 1673 64.1769 1324.26 448.868
246 0 130.2 12.2735 1598 63.8242 1324.34 447.28
247 0 134.125 12.9282 1734 62.4666 1324.22 451.973
248 0 129.085 10.4427 1348 65.9214 1324.35 446.958
249 0 131.178 12.4106 1628 63.2924 1324.31 450.159
250 0 133.214 14.1877 1890 61.5148 1324.57 450.565
251 0 133.168 14.0424 1870 61.5861 1324.44 452.466
252 0 134.157 12.1425 1629 62.6366 1324.57 451.802
