time division length width area intensity CMx CMy
0 0 40.0182 13.5438 542 59.238 507.247 225.334
1 0 41.0119 15.4345 633 57.2006 506.697 224.812
2 0 41.0348 14.5242 596 59.1594 507.757 225.455
3 0 41.0685 14.074 578 60.128 506.692 225.09
4 0 42.0668 14.5483 612 59.5458 506.907 226.185
5 0 47.0314 15.5215 730 56.9534 506.123 224.622
6 0 46.0499 14.3323 660 59.903 506.271 225.379
7 0 47.0264 14.0772 662 60.2659 506.542 227.313
8 0 50.138 18.0901 907 54.6692 506.092 224.741
9 0 49.0258 14.8493 728 59.5288 505.698 226.122
10 0 50.0881 17.589 881 56.9807 506.712 226.191
11 0 53.1191 15.5123 824 58.7937 505.994 224.749
12 0 53.0206 14.5038 769 60.7542 506.276 225.948
13 0 56.063 17.5339 983 56.6897 506.298 222.55
14 0 57.0307 17.0785 974 57.4076 506.812 224.576
15 0 58.0999 15.5422 903 60.0676 506.712 223.36
16 0 57.1679 15.3233 876 61.54 506.817 222.654
17 0 63.0588 20.6157 1300 54.1485 506.582 222.765
18 0 64.025 18.977 1215 56.6461 506.472 220.838
19 0 66.1067 16.2011 1071 59.9486 506.177 220.36
20 0 68.1598 17.0628 1163 59.6122 506.983 222.427
21 0 69.0777 15.6346 1080 62.8324 506.514 217.508
22 0 72.0872 15.9529 1150 62.113 506.622 217.403
23 0 75.029 19.4458 1459 58.1014 506.002 219.399
24 0 76.0885 15.6003 1187 64.31 506.073 216.319
25 0 79.1038 16.1813 1280 63.7961 505.259 214.913
26 0 79.0998 16.7763 1327 64.3331 506.277 214.711
27 0 84.0699 16.5696 1393 64.9548 505.886 213.225
28 0 85.1337 15.2936 1302 67.8049 505.861 212.187
29 1 45.0379 12.1453 547 71.6947 505.633 231.711
30 0 48.0308 12.7002 610 71.141 506.123 231.723
31 0 50.0337 13.2511 663 70.73 505.784 231.962
32 0 52.101 12.9748 676 70.1731 505.151 231.908
33 0 53.1073 13.6893 727 69.4663 506.305 231.602
34 0 55.0446 11.5906 638 72.6787 506.276 230.472
35 0 55.078 11.8014 650 73.5292 506.275 228.678
36 0 58.0328 13.1994 766 70.329 507.634 229.204
37 0 62.1062 13.4769 837 69.9283 506.664 226.783
38 0 62.1331 13.4872 838 70.3532 506.952 226.475
39 0 66.0228 12.9046 852 70.8016 507.376 225.724
40 0 70.0566 17.7713 1245 61.3301 507.125 221.341
41 0 70.0293 16.9786 1189 63.7519 506.669 219.566
42 0 73.0945 16.7181 1222 64.3036 507.423 217.23
43 0 76.1048 15.9648 1215 64.8996 507.73 217.727
44 0 78.0569 16.3214 1274 64.0785 507.366 218.326
45 0 79.0867 15.0215 1188 66.5084 507 215.458
46 1 42.077 12.6197 531 67.4652 507.46 235.313
47 0 43.021 11.7617 506 68.7372 507.642 234.729
48 0 44.0144 13.6546 601 66.6572 507.354 234.26
49 0 47.0489 12.7102 598 67.2625 507.132 233.543
50 0 47.0526 12.4329 585 66.947 507.405 233.484
51 0 50.0142 13.2962 665 65.6662 507.558 232.689
52 0 52.1154 13.4509 701 65.6391 507.434 230.776
53 0 55.0739 13.1641 725 64.8055 507.03 230.552
54 0 55.0343 12.4104 683 66.2269 506.833 228.764
55 0 59.0732 14.5413 859 62.4342 506.152 229.575
56 0 60.1076 13.5257 813 63.8745 507.07 227.284
57 0 62.1195 13.9731 868 63.0818 506.965 225.536
58 0 65.0879 18.0525 1175 56.7234 507.204 222.074
59 0 66.0774 17.192 1136 58.6259 507.058 222.542
60 0 68.1005 18.0322 1228 57.5912 506.891 221.629
61 0 72.1698 20.8259 1503 54.2269 506.893 219.071
62 0 74.0992 16.5184 1224 58.8047 506.647 218.534
63 0 77.1146 16.7802 1294 58.8107 507.539 216.923
64 0 80.1057 18.1385 1453 57.1652 506.866 218.052
65 0 81.0501 15.8914 1288 60.7446 507.262 214.919
66 1 42.144 11.0336 465 62.8559 507.101 236.847
67 0 43.0415 11.5702 498 63.9618 507.102 235.661
68 0 45.1271 11.3236 511 63.6497 506.642 235.397
69 0 45.0228 11.261 507 65.9093 506.558 233.746
70 0 48.0556 11.5283 554 64.8917 506.838 233.702
71 0 51.0545 13.1037 669 63.0792 506.72 231.221
72 0 50.044 12.1493 608 65.5181 506.676 228.401
73 0 52.1162 11.1674 582 66.0172 507.113 227.945
74 0 55.0342 13.0101 716 63.5531 507.229 226.951
75 0 56.0306 12.9215 724 64.0166 508.322 225.776
76 0 59.0329 12.5184 739 63.7578 507.813 226.395
77 0 60.0803 14.8302 891 61.2469 507.174 224.639
78 0 62.0498 14.4239 895 59.8358 507.18 222.076
79 0 66.1401 17.6746 1169 55.574 507.763 222.379
80 0 67.0478 17.4204 1168 56.6404 507.895 220.544
81 0 69.1385 17.0527 1179 57.1052 508.079 220.358
82 0 71.1104 15.1736 1079 59.8702 507.525 219.083
83 0 74.0529 19.2835 1428 55.3242 507.681 220.054
84 0 77.1194 18.789 1449 56.0248 507.938 218.401
85 0 77.1291 13.0949 1010 63.7653 507.75 214.082
86 0 84.0955 20.0486 1686 54.901 508.061 212.887
87 0 85.1679 16.262 1385 60.0578 508.63 211.809
88 0 85.1139 14.9917 1276 62.2641 508.96 212.437
89 0 89.0865 16.4222 1463 60.5817 507.789 209.774
90 0 93.086 16.1571 1504 61.381 508.479 208.729
91 1 50.3548 12.1736 613 64.4878 508.555 231.529
92 0 49.0206 11.4646 562 67.2224 508.18 230.208
93 0 49.099 10.7131 526 69.0856 507.836 229.144
94 0 53.0604 12.7779 678 65.764 508.087 227.732
95 0 55.069 12.675 698 65.3481 507.681 226.801
96 0 56.108 12.3868 695 66.7122 507.488 225.889
97 0 58.1014 13.0289 757 65.5707 507.787 226.009
98 0 62.0841 13.7555 854 64.4977 507.818 223.875
99 0 64.0803 13.249 849 62.9906 507.333 223.011
100 0 67.0333 15.4102 1033 60.3737 508.097 220.79
101 0 68.1031 16.6806 1136 58.7183 507.042 218.17
102 0 71.0871 17.8373 1268 57.1412 507.649 218.269
103 0 72.136 14.9301 1077 61.4633 507.401 214.78
104 0 73.1638 15.8958 1163 60.847 507.851 216.701
105 0 79.0725 18.2111 1440 57.2674 507.953 213.985
106 0 79.0555 16.0773 1271 60.6758 507.232 212.693
107 0 86.0995 20.4647 1762 54.7582 507.897 211.11
108 0 82.0476 14.1138 1158 64.0216 508.45 209.016
109 0 88.0753 14.5103 1278 62.7316 508.287 209.152
110 0 93.0751 15.2458 1419 61.1966 507.884 206.197
111 1 44.0272 11.9926 528 63.7386 507.741 229.953
112 0 47.0901 12.4018 584 62.1404 508.56 228.209
113 0 49.0212 11.5256 565 63.3805 508.632 228.756
114 0 48.0728 11.7738 566 63.6272 508.23 228.198
115 0 50.0419 11.5503 578 64.3183 508.438 227.907
116 0 51.0932 11.7041 598 64.2324 508.547 227.164
117 0 53.0426 12.8387 681 62.8781 508.658 223.009
118 0 55.0707 15.5073 854 57.315 508.299 222.022
119 0 60.0949 18.5873 1117 52.2543 508.688 224.838
120 0 57.152 13.9103 795 59.4377 508.098 220.057
121 0 63.2313 15.9889 1011 55.0475 507.634 221.43
122 0 64.0439 15.3801 985 56.535 507.615 219.935
123 0 65.2629 14.3573 937 57.0811 508.284 218.418
124 0 67.1721 16.6736 1120 54.2125 508.196 218.597
125 0 70.1159 14.4332 1012 56.9229 507.157 216.936
126 0 72.0357 16.7139 1204 54.4618 507.041 218.905
127 0 74.1022 17.3139 1283 54.4427 507.724 214.85
128 0 74.0747 14.5394 1077 58.2071 508.745 214.011
129 0 81.1509 16.685 1354 53.9335 508.555 213.846
130 0 82.0713 16.7659 1376 54.9157 507.514 211.577
131 0 83.3118 16.5883 1382 55.3111 507.881 213.297
132 1 41.1931 10.293 424 61.1132 508.634 232.292
133 0 44.0906 13.7217 605 56.1339 508.696 234.453
134 0 46.1578 12.2406 565 57.9575 508.062 232.625
135 0 44.0382 10.6498 469 62.1343 508.275 229.122
136 0 48.1086 11.765 566 59.9576 508.468 229.364
137 0 51.1407 14.2352 728 56.7349 508.376 228.451
138 0 49.061 12.0259 590 60.722 508.568 227.725
139 0 52.0452 11.3555 591 61 508.073 227.831
140 0 55.1216 12.4452 686 60.1239 508.707 224.777
141 0 56.0689 14.0541 788 57.5774 508.105 224.486
142 0 57.012 14.0847 803 56.8643 508.314 223.047
143 0 59.074 12.3235 728 59.6868 507.062 223.21
144 0 59.2086 12.0422 713 61.0252 508.526 218.28
145 0 63.071 12.3512 779 59.8845 508.284 221.517
146 0 66.1427 16.6307 1100 53.1336 508.291 218.661
147 0 66.0506 16.124 1065 54.4103 508.561 216.603
148 0 68.2569 15.9105 1086 54.4936 508.618 219.171
149 0 71.0885 16.6272 1182 53.8993 508.374 214.81
150 0 73.1206 14.8385 1085 56.2949 508.254 215.065
151 0 74.1238 16.0137 1187 54.5712 508.672 214.184
152 0 79.0873 15.211 1203 55.1313 508.85 209.223
153 0 79.1254 14.2306 1126 57.103 508.98 205.885
154 0 82.1982 20.1707 1658 50.5887 508.432 206.647
155 0 83.0667 13.7841 1145 57.8751 508.8 202.662
156 1 47.039 10.1193 476 60.1198 509.059 223.62
157 0 47.1742 10.7686 508 60.2106 508.64 226.85
158 0 47.0295 11.1845 526 60.4068 508.555 227.945
159 0 51.1057 11.349 580 59.4207 507.96 226.774
160 0 52.1324 11.5859 604 61.005 507.326 224.093
161 0 54.0896 11.4809 621 60.3881 507.628 223.981
162 0 54.0982 10.98 594 61.0219 507.737 224.152
163 0 56.0761 14.1058 791 57.7472 507.621 221.915
164 0 59.0333 12.1626 718 59.8942 507.508 222.823
165 0 61.0497 16.1999 989 54.7179 508.166 222.96
166 0 63.0488 14.3857 907 56.9228 508.538 220.643
167 0 65.0993 14.931 972 55.1132 508.109 219.881
168 0 66.0729 17.7228 1171 51.854 508.237 219.649
169 0 70.1359 15.2561 1070 54.4477 508.493 215.453
170 0 70.0904 14.467 1014 55.8343 508.322 213.497
171 0 72.1509 17.6852 1276 52.1309 508.126 215.755
172 0 74.1314 14.3799 1066 55.9081 508.347 215.193
173 0 77.1348 15.5701 1201 54.9342 508.477 210.824
174 0 80.1186 16.3757 1312 53.9466 508.692 210.026
175 0 83.1569 15.1761 1262 55.5444 507.891 208.612
176 0 87.1206 18.8933 1646 51.048 507.964 209.365
177 0 87.1718 15.739 1372 55.0933 507.468 203.334
178 0 92.1038 16.362 1507 54.1022 507.573 202.65
179 0 91.2404 14.3358 1308 56.9748 508.72 201.135
180 1 49.0895 12.2226 600 57.8783 508.153 226.478
181 0 49.0353 12.3788 607 57.5255 508.035 226.896
182 0 55.1617 13.3063 734 55.2793 506.658 223.634
183 0 56.0204 16.1905 907 53.0099 506.667 219.865
184 0 55.0721 12.5109 689 57.6996 506.075 222.964
185 0 58.0242 12.6844 736 57.2011 506.488 224.289
186 0 61.0763 20.2042 1234 48.3566 506.354 221.196
187 0 61.091 14.6339 894 54.5772 505.976 219.21
188 0 63.0856 15.3125 966 53.9379 505.899 220.14
189 0 64.087 15.0264 963 54.9979 506.115 216.776
190 0 68.0139 14.4529 983 55.2431 506.342 218.091
191 0 71.0646 18.2088 1294 51.3416 505.179 215.923
192 0 71.1551 15.2624 1086 54.884 505.262 216.659
193 0 74.0855 14.9152 1105 55.3774 505.673 215.241
194 0 78.1566 17.273 1350 52.1622 505.075 217.247
195 0 78.2154 14.2683 1116 55.9355 504.135 214.306
196 0 83.0945 15.7893 1312 53.5511 505.498 213.934
197 0 82.0908 18.1628 1491 52.1154 505.526 214.268
198 0 86.1289 15.7206 1354 54.7437 505.305 210.808
199 0 90.0933 15.2398 1373 54.8369 504.831 208.141
200 1 49.0363 13.3167 653 55.9954 504.72 232.723
201 0 50.0829 10.5226 527 58.5825 504.194 232.702
202 0 54.0513 12.3216 666 56.6742 503.553 231.863
203 0 54.1216 15.2065 823 53.2382 503.584 233.877
204 0 56.096 13.6373 765 55.6196 503.608 230.252
205 0 58.0691 12.244 711 57.3769 503.446 228.963
206 0 56.0423 12.098 678 58.8717 503.982 227.091
207 0 59.0665 13.6118 804 56.8893 504.274 225.998
208 0 64.1178 17.2183 1104 50.9728 503.908 225.764
209 0 66.1524 15.6306 1034 52.619 503.321 226.276
210 0 64.039 16.0527 1028 53.0885 502.589 223.982
211 0 67.1826 20.7643 1395 48.7663 503.351 226.283
212 0 70.1207 16.4003 1150 52.4861 503.082 221.637
213 0 73.0641 15.8765 1160 53.4138 502.37 221.232
214 0 74.0743 15.2144 1127 55.0204 502.005 221.907
215 0 76.1104 13.8877 1057 57.3264 502.557 218.812
216 0 82.1098 18.9259 1554 51.5708 502.954 217.485
217 0 84.1145 14.8845 1252 56.2628 501.683 215.796
218 0 85.1199 16.1067 1371 55.1663 502.318 214.623
219 1 46.0098 9.88919 455 60.2506 502.435 236.49
220 0 49.0326 13.5216 663 57.5747 501.694 233.115
221 0 48.0568 12.0899 581 59.8451 501.448 234.064
222 0 49.1612 11.0453 543 61.7514 502.26 233.569
223 0 49.0728 10.515 516 63.6957 502.13 231.141
224 0 54.061 13.2813 718 59.7813 502.141 229.421
225 0 59.131 15.9307 942 55.8938 501.768 226.295
226 0 56.091 15.0113 842 57.7803 502.01 226.101
227 0 59.0303 18.7023 1104 53.9737 502.178 224.886
228 0 61.1253 14.8057 905 58.432 502.428 223.792
229 0 65.1183 18.0748 1177 54.3849 502.662 224.749
230 0 64.0608 16.6404 1066 56.7026 502.377 221.525
231 0 67.108 16.0488 1077 57.376 502.871 219.89
232 0 70.0618 16.0144 1122 57.5134 503.242 218.939
233 0 73.0441 17.3867 1270 56.0323 502.684 217.557
234 0 75.0511 17.6946 1328 56.0181 501.896 216.493
235 0 76.1968 17.3367 1321 57.0121 503.056 213.048
236 0 80.0791 17.0456 1365 57.0535 503.289 213.869
237 0 80.0618 16.9619 1358 57.5987 502.744 213.129
238 0 84.08 15.628 1314 58.9878 502.327 212.424
239 0 86.046 16.0379 1380 59.2203 503.25 209.087
240 0 87.0858 14.5833 1270 61.6465 502.843 209.325
241 1 45.0228 13.1933 594 61.3502 502.49 230.973
242 0 47.2147 11.543 545 64.2367 503.139 229.477
243 0 48.0298 13.908 668 61.1272 502.74 229.488
244 0 50.0344 14.8098 741 60.4494 502.25 227.422
245 0 53.1193 12.6319 671 63.4307 503.511 226.161
246 0 53.0625 11.6843 620 64.7081 503.876 226.611
247 0 57.0388 13.9554 796 61.8254 503.554 225.315
248 0 62.0647 15.8705 985 58.2345 504.562 221.722
249 0 61.1599 18.3127 1120 55.7723 503.927 225.103
250 0 62.221 16.2968 1014 58.1381 503.46 222.074
251 0 65.0637 18.551 1207 55.2262 503.998 224.793
252 0 66.056 16.2892 1076 58.5548 503.527 220.692
253 0 70.1233 18.3106 1284 55.6083 503.352 223.521
254 0 71.141 16.0807 1144 58.7264 503.765 220.081
255 0 74.0774 19.8306 1469 55.2314 504.148 221.862
256 0 77.1378 20.055 1547 55.0006 503.563 217.899
257 0 80.1831 19.4305 1558 55.1553 504.017 215.25
258 0 81.0671 18.9226 1534 55.7849 503.792 218.14
259 0 83.1022 14.5965 1213 61.2646 503.073 214.913
260 0 85.0811 15.6792 1334 60.2069 503.795 212.715
261 0 91.1165 18.7452 1708 56.4233 503.428 212.804
262 0 95.1445 15.776 1501 59.7342 503.096 211.652
263 1 49.1037 11.0175 541 64.6211 502.952 233.418
264 0 50.042 11.89 595 65.1126 502.95 231.099
265 0 56.035 14.3839 806 60.8883 502.295 231.048
266 0 56.0677 13.5372 759 62.2516 501.751 229.642
267 0 57.0219 14.6961 838 61.5298 502.062 227.121
268 0 62.1712 15.7147 977 57.7216 502.716 228.677
269 0 63.0665 18.2347 1150 55.4496 502.335 226.06
270 0 67.0453 17.8536 1197 55.1061 502.356 223.031
271 0 66.0834 14.7995 978 58.8947 503.027 223.437
272 0 69.0868 16.7471 1157 56.6914 502.686 224.587
273 0 72.0708 17.3857 1253 55.7526 501.545 221.471
274 0 76.1582 15.4153 1174 57.2666 501.222 219.474
275 0 77.0788 18.1243 1397 54.932 501.582 219.986
276 0 80.0936 16.231 1300 56.2669 501.548 218.244
277 0 85.1039 18.6243 1585 53.6385 501.924 215.973
278 0 87.1351 20.9674 1827 51.6957 501.88 217.996
279 0 92.0661 17.7698 1636 54.805 502.158 212.709
280 0 96.1455 18.1288 1743 54.2042 502.168 210.639
281 0 98.2043 19.6122 1926 52.5026 501.535 209.333
282 1 50.0168 9.85669 493 60.9493 501.432 235.846
283 0 54.1743 12.2383 663 58.5083 501.386 233.799
284 0 57.0539 12.7248 726 57.9587 501.048 231.893
285 0 56.0751 12.5011 701 59.729 501.24 230.872
286 0 60.248 15.071 908 55.9802 501.357 229.354
287 0 63.1667 17.2243 1088 52.6278 501.368 227.317
288 0 62.1019 14.283 887 56.8906 500.782 224.977
289 0 67.1055 23.0383 1546 47.8105 501.4 226.109
290 0 65.1554 15.5935 1016 55.7096 501.036 223.324
291 0 69.0768 16.1125 1113 54.7502 501.19 223.342
292 0 72.0496 16.1694 1165 54.5888 501.319 221.597
293 0 74.0499 16.1783 1198 55.0242 501.638 219.852
294 0 75.2254 19.0893 1436 52.4255 501.844 220.451
295 0 81.0423 17.3983 1410 53.6681 501.346 217.213
296 0 83.2141 17.8215 1483 53.8672 501.297 217.703
297 0 85.1085 19.7983 1685 52.2688 500.782 214.061
298 0 88.1198 16.7499 1476 55.9018 500.35 213.325
299 0 94.2389 18.4107 1735 53.9977 501.257 211.133
300 0 93.2161 18.1836 1695 55.3876 500.811 207.973
301 0 97.1471 16.511 1604 56.73 500.12 210.166
302 1 55.0285 12.5026 688 59.8648 500.403 229.467
303 0 57.0468 13.1997 753 60.2324 500.045 227.513
304 0 57.0917 11.4903 656 62.8704 499.66 226.974
305 0 61.0445 17.905 1093 53.8618 500.016 224.589
306 0 63.0547 18.0954 1141 53.305 499.32 222.741
307 0 67.0871 17.9915 1207 52.8202 499.987 222.867
308 0 69.0602 16.2467 1122 55.2255 500.412 222.02
309 0 70.0975 16.8194 1179 55.3172 499.425 220.683
310 0 75.093 20.3081 1525 51.4354 499.793 220.717
311 0 75.2927 18.0496 1359 54.3061 499.892 217.297
312 0 78.0592 16.9102 1320 55.8379 499.786 216.064
313 0 79.086 16.3619 1294 56.8478 499.256 214.546
314 0 82.1871 18.5552 1525 54.1482 500.089 214.799
315 0 83.0954 15.3318 1274 58.3634 499.917 213.513
316 0 85.1064 14.805 1260 59.0698 500.336 214.06
317 0 89.0449 16.6096 1479 57.3786 500.642 210.854
318 0 91.2813 15.7973 1442 58.4868 499.906 209.406
319 0 97.192 15.6906 1525 58.0138 500.647 206.463
320 0 101.084 17.995 1819 55.4777 500.699 205.961
321 1 48.072 12.5645 604 60.5513 500.786 232.873
322 0 48.019 10.829 520 62.1327 500.602 233.127
323 0 52.0624 12.1009 630 60.3286 500.746 232.052
324 0 51.1097 12.0329 615 61.8488 500.868 231.267
325 0 54.0622 12.2082 660 62.1091 500.753 226.397
326 0 56.0556 13.3261 747 61.3748 501.183 225.946
327 0 56.0649 12.4855 700 62.85 501.439 226.413
328 0 60.1024 12.5952 757 62.1149 501.168 225.81
329 0 60.0352 12.8924 774 62.2972 500.935 225.881
330 0 64.0377 17.193 1101 55.6158 500.985 222.05
331 0 66.0678 15.1965 1004 57.1952 500.745 220.227
332 0 67.102 16.8698 1132 55.1184 501.451 221.562
333 0 72.0446 15.5737 1122 56.1916 501.502 217.194
334 0 75.1259 16.3725 1230 55.4098 501.302 215.483
335 0 78.0627 19.0744 1489 51.8925 500.996 216.332
336 0 80.227 14.7332 1182 56.2081 501.171 211.964
337 0 84.1188 17.6655 1486 52.9704 501.006 212.437
338 0 87.0901 20.3008 1768 50.5945 501.145 211.045
339 0 90.1313 16.7755 1512 53.869 500.758 211.776
340 0 91.1624 16.3445 1490 54.0181 501.011 211.638
341 0 94.1948 18.1963 1714 52.465 500.778 209.732
342 0 99.1675 18.0099 1786 52.5605 500.938 204.036
343 0 103.21 18.6804 1928 51.7604 501.399 204.496
344 0 103.126 17.7453 1830 53.4672 501.206 200.065
345 1 65.0394 12.8845 838 58.222 501.541 223.498
346 0 63.1958 13.2445 837 59.3978 500.746 220.596
347 0 67.0823 12.8648 863 59.5504 501.409 219.546
348 0 68.0668 12.2967 837 60.3692 500.448 218.657
349 0 73.09 13.9417 1019 56.9401 500.05 215.958
350 0 74.1953 17.4944 1298 53.5216 500.992 220.039
351 0 78.0565 16.36 1277 54.4448 501.272 214.767
352 0 84.0964 17.4086 1464 52.3402 500.653 209.861
353 0 84.1878 18.6488 1570 52.3299 500.576 214.946
354 0 87.0872 17.8327 1553 53.0786 501.362 211.187
355 0 90.1948 17.3181 1562 53.8732 501.198 211.265
356 0 94.0684 17.5298 1649 54.3323 501.598 208.836
357 0 96.0599 18.0616 1735 54.5055 501.44 208.531
358 0 98.0774 16.7011 1638 56.4194 501.449 204.425
359 0 104.092 17.7919 1852 54.8008 501.252 208.343
360 0 106.113 17.0856 1813 56.4457 501.126 201.557
361 0 109.117 17.1101 1867 56.1826 500.928 199.008
362 0 115.139 17.4137 2005 55.8105 501.134 200.832
363 0 117.324 16.3053 1913 57.9686 501.129 195.305
364 0 120.16 18.1342 2179 56.4066 501.754 190.751
365 0 126.191 20.0015 2524 54.4315 501.48 187.124
366 0 128.096 18.5174 2372 56.9216 501.666 189.078
367 0 133.256 16.7197 2228 58.3254 501.307 186.011
368 1 73.1094 12.2556 896 62.5703 500.814 221.406
369 0 77.2124 12.6923 980 62.5194 500.871 218.708
370 0 79.183 13.5509 1073 62.1687 501.73 216.22
371 0 81.0794 14.7756 1198 59.4992 501.382 211.979
372 0 86.2069 19.4532 1677 54.2349 501.634 210.958
373 0 88.1009 17.0032 1498 57.2063 501.36 214.625
374 0 90.1356 17.1852 1549 56.765 501.452 209.978
375 0 95.1083 19.115 1818 54.4142 501.832 212.944
376 0 96.1342 16.4978 1586 57.877 501.601 207.805
377 0 101.14 17.0754 1727 57.5808 501.289 205.199
378 0 105.186 17.8256 1875 56.8779 500.757 204.374
379 0 109.056 20.0814 2190 54.7338 500.889 201.304
380 0 112.198 17.8523 2003 57.1388 500.444 200.866
381 0 116.15 17.2191 2000 57.8605 500.836 202.452
382 0 121.157 16.5323 2003 58.8937 500.53 194.482
383 0 124.161 20.3768 2530 54.5012 501.751 194.247
384 0 130.408 16.2414 2118 59.0548 501.852 191.966
385 1 60.079 12.0175 722 63.3061 501.229 227.125
386 0 63.05 12.9738 818 62.1724 500.159 226.042
387 0 64.0933 12.1541 779 62.9204 500.297 226.723
388 0 67.0336 13.6648 916 61.8253 500.774 223.072
389 0 72.1471 18.0187 1300 54.4908 500.463 223.106
390 0 72.0597 14.5019 1045 59.3034 501.385 220.076
391 0 75.0676 16.9447 1272 56.3082 501.53 220.927
392 0 75.1078 14.1264 1061 60.8982 501.154 216.466
393 0 79.1481 16.1722 1280 57.75 501.194 214.786
394 0 82.0509 15.3807 1262 58.7171 500.825 213.498
395 0 86.1036 14.0412 1209 59.2953 500.299 211.202
396 0 87.0289 17.4884 1522 55.707 500.643 211.869
397 0 90.1458 14.532 1310 59.7145 500.76 211.739
398 0 95.1308 17.4602 1661 55.7098 501.226 208.614
399 0 99.1403 17.8232 1767 55.7306 501.277 205.913
400 0 100.159 17.7019 1773 56.2707 501.494 206.176
