time division length width area intensity CMx CMy
0 0 60.0762 10.3868 624 60.1474 658.018 520.423
1 0 61.0966 9.93509 607 61.4399 657.672 517.374
2 0 65.0786 12.5233 815 56.7215 658.604 520.045
3 0 65.0497 10.0692 655 60.1832 657.386 518.966
4 1 34.0553 10.3361 352 57.267 657.548 534.267
5 0 34.0666 9.45208 322 58.3416 656.863 534.106
6 0 35.0465 11.1566 391 56.6803 657.102 533.801
7 0 37.0851 11.1905 415 54.7783 657.614 535.759
8 0 35.025 10.7923 378 57.119 657.087 533.704
9 0 37.0708 11.2487 417 56.1463 656.839 534.604
10 0 36.0219 10.7157 386 57.6969 657.777 533.736
11 0 37.0287 9.88423 366 58.888 657.284 534.76
12 0 39.0124 12.15 474 56.7046 657.703 532.418
13 0 39.0147 10.8677 424 58.9693 657.771 531.771
14 0 41.0606 12.1284 498 57.4538 657.982 532.347
15 0 40.0901 12.422 498 57.3233 658.052 534.299
16 0 41.0513 12.2773 504 58.7659 658.103 532.204
17 0 42.0519 12.1041 509 58.2495 657.676 534.967
18 0 44.0632 11.5062 507 60.4773 657.742 532.458
19 0 44.0578 11.326 499 61.8838 657.729 531.629
20 0 42.05 10.44 439 63.7403 658.301 531.802
21 0 45.1183 12.2123 551 61.3303 657.946 529.838
22 0 46.0896 11.8465 546 62.8755 657.991 527.896
23 0 47.0794 11.0239 519 63.3044 657.272 531.659
24 1 102.207 12.4257 1270 64.2598 657.279 506.484
25 0 104.166 12.0769 1258 64.725 656.535 506.08
26 0 105.221 12.1554 1279 66.4871 657.372 501.995
27 0 109.169 11.4501 1250 66.9896 657.052 503.93
28 0 113.298 13.0717 1481 65.9608 657.067 500.369
29 0 115.205 12.2998 1417 67.0438 656.881 499.451
30 0 118.162 12.5083 1478 67.7733 657.25 496.239
31 0 120.213 12.5278 1506 67.6873 657.118 496.258
32 0 122.283 12.0459 1473 68.7217 656.54 493.79
33 0 125.291 10.1125 1267 70.2305 657.543 498.293
34 0 129.268 12.9266 1671 68.2992 657.509 493.221
35 0 131.432 12.8659 1691 68.825 657.484 493.724
36 0 137.423 11.5483 1587 70.2602 658.805 492.163
37 0 139.322 10.6013 1477 72.3995 657.854 488.848
38 1 213.323 14.4382 3080 71.6321 658.216 450.401
39 0 216.349 11.939 2583 73.9826 658.451 460.615
40 0 223.345 13.8799 3100 72.751 658.188 453.935
41 0 226.418 12.7817 2894 75.7899 657.848 448.701
42 0 233.613 13.1671 3076 76.0507 658.574 444.916
43 0 242.462 13.3134 3228 76.2667 658.816 440.588
44 0 245.345 12.8921 3163 77.025 658.365 441.374
45 1 206.583 11.9129 2461 77.4624 658.169 457.649
46 0 214.374 11.8205 2534 78.0663 658.678 454.53
47 0 223.435 13.0194 2909 76.1066 658.723 452.374
48 0 228.297 14.2665 3257 75.5327 658.579 446.692
49 0 233.389 13.4754 3145 76.5081 658.257 448.19
50 0 239.363 12.7881 3061 78.6847 658.677 438.334
51 1 148.407 13.5304 2008 74.0035 658.714 483.625
52 0 150.251 11.4475 1720 76.225 658.529 487.398
53 0 157.488 13.7153 2160 73.5037 658.288 481.629
54 0 163.358 12.6776 2071 75.3819 658.07 476.014
55 0 169.201 13.3747 2263 74.3495 657.384 475.054
56 0 174.306 12.2944 2143 76.5147 658.32 470.007
57 0 180.253 12.7876 2305 76.1787 658.187 464.394
58 0 187.496 13.5043 2532 74.9996 658.447 464.981
59 0 193.22 13.6269 2633 75.7353 658.256 461.409
60 0 200.612 12.9404 2596 76.7311 657.977 458.968
61 1 66.0456 13.627 900 71.4822 658.171 523.542
62 0 68.1045 13.5821 925 72.2022 657.979 521.511
63 0 71.064 12.144 863 74.2607 658.817 519.815
64 0 72.0593 12.4065 894 75.2081 658.21 518.182
65 1 38.0301 10.9124 415 73.7904 658.586 534.757
66 0 37.0257 9.69597 359 75.9359 658.546 535.407
67 0 41.0432 12.0117 493 73.073 658.475 533.976
68 0 43.0519 11.4977 495 73.1758 657.828 532.719
69 0 41.0166 11.4344 469 74.4755 657.991 532.335
70 0 45.0656 11.8272 533 72.5741 658.041 532.021
71 0 46.0374 12.1206 558 72.5466 657.912 530.127
72 0 47.0667 11.6643 549 73.3315 657.889 527.674
73 0 50.0167 11.996 600 72.5033 658.182 526.413
74 0 51.0278 11.9543 610 72.3803 658.377 527.198
75 0 54.0246 10.958 592 72.3345 659.397 526.6
76 0 54.1183 11.8999 644 72.1382 658.924 523.941
77 0 57.0635 11.9516 682 71.5616 658.1 524.308
78 0 58.1102 10.6005 616 73.099 658.237 522.878
79 0 60.068 11.8865 714 71.0042 658.818 522.664
80 0 61.0286 10.9621 669 73.0732 658.913 519.854
81 0 64.1112 12.5095 802 70.3541 659.007 520.424
82 0 68.0862 13.4095 913 68.3801 658.544 518.796
83 0 68.0841 10.8395 738 73.1802 658.683 514.869
84 0 72.0874 12.1797 878 71.1856 659.138 515.296
85 0 75.0673 12.5487 942 69.8609 658.714 515.122
86 0 77.1294 11.2538 868 71.4055 659.401 514.077
87 1 39.0238 9.14826 357 72.4454 659.261 531.81
88 0 43.0408 11.4542 493 68.572 659.677 530.917
89 0 44.0269 11.7428 517 67.8956 658.397 531.607
90 0 44.0782 11.956 527 68.2486 659.211 529.778
91 0 46.1293 11.6412 537 68.4264 659.352 529.298
92 0 47.0359 11.2042 527 69.3359 658.892 527.146
93 0 50.0751 11.1632 559 68.0966 658.698 527.211
94 0 50.1012 11.5366 578 68.0467 658.735 525.711
95 0 53.0531 12.4781 662 66.0695 658.246 524.381
96 0 54.1179 12.8238 694 65.9424 658.156 522.661
97 0 56.1208 11.9029 668 66.3219 658.469 522.491
98 0 56.1069 11.7811 661 67.4448 658.445 520.831
99 0 60.0639 11.5044 691 66.4616 657.941 519.931
100 0 62.2489 11.197 697 66.6327 658.743 520.842
101 0 65.118 12.3468 804 64.6294 657.735 518.643
102 0 66.1544 12.4104 821 64.7966 658.252 514.895
103 0 69.17 12.6934 878 64.426 658.255 513.207
104 0 70.1176 11.1384 781 66.5378 658.462 514.146
105 0 72.1437 12.2395 883 65.1076 658.617 512.993
106 0 77.1364 13.2363 1021 62.7326 657.998 511.649
107 0 79.1417 12.1807 964 64.3828 658.741 511.169
108 0 80.2755 12.7062 1020 64.3255 659.29 506.282
109 0 84.2259 12.2171 1029 64.4781 659.224 506.97
110 0 85.4313 12.3374 1054 64.9355 658.661 504.989
111 0 90.0968 12.8972 1162 64.247 658.349 501.924
112 0 92.142 11.7753 1085 66.0498 659.299 503.517
113 1 46.0752 10.2658 473 65.2622 659.167 526.167
114 0 47.079 10.9391 515 64.7301 658.674 525.144
115 0 47.043 11.2238 528 65.642 659.078 524.852
116 0 49.0688 12.2889 603 63.5025 659.221 525.657
117 0 51.2072 11.2484 576 65.4844 659.337 522.288
118 0 52.0573 10.5653 550 66.6491 658.775 522.744
119 0 55.0934 12.4697 687 64.2373 659.166 521.964
120 0 55.0806 10.8931 600 66.4933 658.77 520.338
121 0 56.1933 11.4249 642 66.0467 658.223 520.508
122 0 59.0264 11.6558 688 66.2224 658.076 517.844
123 0 63.1044 12.8517 811 62.9038 658.761 518.387
124 0 62.1269 12.4745 775 64.2955 658.406 517.911
125 0 64.1392 12.8315 823 64.3499 657.7 514.256
126 0 66.2657 13.2799 880 63.2955 657.34 515.725
127 0 66.0927 11.9227 788 66.3452 658.192 512.17
128 0 70.0761 12.5863 882 64.4864 659.373 513.438
129 0 73.07 11.5779 846 65.5993 659.117 514.093
130 0 72.0939 12.2063 880 65.6875 658.198 511.494
131 0 77.0996 12.5163 965 64.8539 658.827 509.65
132 0 78.0747 11.5402 901 66.5605 659.502 510.892
133 0 80.0693 13.2385 1060 64.9566 659.655 507.53
134 0 83.1066 12.3937 1030 66.0864 658.986 506.956
135 0 85.0973 12.0568 1026 66.5945 659.4 507.935
136 0 89.1057 13.0295 1161 66.0896 659.548 503.911
137 0 91.0876 11.5932 1056 67.9384 659.473 504.732
138 0 92.0649 13.0777 1204 67.0449 659.547 502.169
139 1 47.0622 11.2617 530 65.9208 658.962 524.202
140 0 49.0069 10.8352 531 66.6573 659.676 524.614
141 0 51.038 11.1877 571 65.4396 659.151 524.932
142 0 52.012 10.7667 560 65.9857 659.532 524.121
143 0 52.1409 10.5292 549 67.9672 658.248 522.259
144 0 52.0391 10.4537 544 68.4062 659.607 522.61
145 0 55.0827 10.6749 588 67.5136 659.384 522.167
146 0 56.1594 11.592 651 67.1874 659.401 517.988
147 0 58.0844 10.9668 637 67.529 659.54 519.625
148 0 57.0304 11.3098 645 67.5814 659.557 519.078
149 0 61.0603 12.7415 778 65.338 659.32 518.071
150 0 64.1787 12.2782 788 65.7703 659.287 517.212
151 0 65.1864 12.1651 793 66.6961 659.641 515.528
152 0 65.0812 12.4306 809 67.0494 659.975 515.267
153 0 67.0586 11.3036 758 68.8747 660.207 514.542
154 0 68.1937 11.8339 807 68.1859 659.606 513.273
155 0 71.142 11.9901 853 67.9777 659.865 513.046
156 0 73.0951 11.8476 866 68.4815 660.106 510.766
157 0 77.1492 11.3157 873 68.7068 659.569 510.928
158 0 77.1074 12.0611 930 68.2452 659.562 510.083
159 0 82.0554 12.9059 1059 67.1464 659.265 506.907
160 1 44.0188 11.2225 494 68.1943 658.696 525.745
161 0 45.0209 11.5502 520 66.2962 658.783 527.69
162 0 46.064 11.4189 526 67.538 658.84 525.337
163 0 46.0767 12.0451 555 67.0829 658.679 525.023
164 0 48.0566 11.9234 573 67.651 658.389 523.892
165 0 49.0416 11.0315 541 68.7246 659.061 525.379
166 0 50.0227 12.0745 604 68.0877 659.396 522.065
167 0 54.0254 11.9573 646 67.3406 659.065 523.676
168 0 53.0193 11.8636 629 68.6598 658.946 520.453
169 0 56.0546 11.2034 628 68.0382 659.401 522.83
170 0 56.0359 12.6526 709 67.5134 659.401 519.831
171 0 58.0249 10.3749 602 69.8272 658.997 521.379
172 0 59.0687 11.4443 676 69.1849 659.464 519.536
173 0 61.1577 11.6257 711 69.519 659.484 517.145
174 0 65.0349 11.8859 773 68.5679 659.705 516.334
175 0 65.1615 11.9856 781 68.9437 658.985 516.633
176 0 68.0911 12.6301 860 68.1419 658.994 515.391
177 0 69.0683 12.5673 868 68.7373 658.733 514.69
178 0 69.0567 10.5421 728 71.7266 658.65 516.087
179 0 72.0883 11.8605 855 70.6246 659.965 512.606
180 0 77.0876 12.5961 971 69.035 659.465 513.004
181 0 77.1207 11.5922 894 70.84 659.317 513.51
182 0 80.0787 10.8893 872 72.4587 658.234 509.68
183 0 81.1547 13.7146 1113 69.3486 658.111 506.567
184 0 85.1069 11.9614 1018 71.278 657.643 508.628
185 0 85.1732 14.0067 1193 68.9522 657.79 506.208
186 0 88.1901 13.3121 1174 70.1371 657.717 502.433
187 0 91.1338 11.4008 1039 72.7921 657.34 504.055
188 1 48.0297 9.86889 474 71.4135 656.987 526.525
189 0 47.0456 11.7971 555 69.3117 657.299 527.575
190 0 49.0444 11.1735 548 71.3558 657.515 524.602
191 0 50.0212 10.8754 544 71.7463 656.278 524.912
192 0 52.0656 11.3319 590 70.2729 656.356 525.292
193 0 55.0584 13.0407 718 67.1086 656.717 525.401
194 0 55.1164 10.9586 604 70.5447 655.962 524.429
195 0 56.0579 11.9519 670 69.5821 655.219 522.703
196 0 59.1079 12.1473 718 68.5014 656.575 520.585
197 0 60.0233 12.1619 730 68.3644 656.636 522.24
198 0 61.0287 12.1582 742 67.9596 656.365 523.604
199 0 65.0383 11.9622 778 67.7481 655.874 521.701
200 0 66.067 11.1856 739 68.4601 655.559 521.457
201 0 71.0829 12.3799 880 66.4977 655.026 519.74
202 0 73.1002 11.6142 849 66.9682 654.594 520.088
203 0 74.0422 11.8716 879 67.4414 654.739 517.733
204 0 78.0402 12.0835 943 66.7869 654.585 516.312
205 0 79.1729 11.8349 937 68.0224 654.494 514.614
206 0 81.099 11.4551 929 67.9074 655.059 515.921
207 1 39.0798 10.0819 394 64.2893 655.302 536.48
208 0 40.0131 10.4966 420 63.7762 654.91 536.902
209 0 43.0525 11.7066 504 62.129 654.308 535.19
210 0 44.0293 10.493 462 62.8745 653.539 535.29
211 0 45.0213 10.906 491 62.5071 654.077 535.562
212 0 45.0419 9.8797 445 63.4921 654.07 536.537
213 0 47.0441 10.3945 489 63.9202 653.405 532.585
214 0 49.0445 11.9891 588 62.3061 653.247 531.949
215 0 50.0337 11.2724 564 62.75 653.654 530.743
216 0 50.1444 10.4498 524 63.6756 653.878 529.515
217 0 53.046 10.0479 533 64.0488 652.88 529.962
218 0 55.0487 12.2074 672 61.5759 653.329 527.124
219 0 55.0909 11.7987 650 62.2954 653.425 525.808
220 0 58.0223 10.6683 619 63.378 652.796 527.126
221 0 59.0559 10.9557 647 63.6924 652.352 524.595
222 0 62.0669 11.0687 687 63.1994 653.141 525.821
223 0 63.0179 10.6478 671 63.8569 653.04 524.578
224 0 63.0643 9.92638 626 64.7476 653.058 523.7
225 0 66.1 11.1952 740 63.8932 652.682 519.847
226 0 72.0633 11.0875 799 63.1064 653.103 520.423
227 0 70.0552 11.3339 794 64.0302 653.215 515.073
228 0 75.0952 10.9328 821 63.6139 653.408 517.449
229 1 37.0176 9.86017 365 61.1425 653.638 534.915
230 0 37.0299 8.39861 311 62.1543 653.148 534.611
231 0 38.036 8.9389 340 62.6647 653.729 532.294
232 0 39.0648 9.42025 368 61.0924 654.12 533.454
233 0 42.0686 9.9837 420 60.8357 653.614 531.295
234 0 42.0615 11.3168 476 59.1744 652.729 531.733
235 0 44.0764 10.1868 449 60.4254 654.029 528.784
236 0 43.152 9.43178 407 61.7985 654.197 527.504
237 0 44.0563 9.96452 439 61.631 653.711 527.073
238 0 46.0924 9.15553 422 62.109 653.583 527.938
239 0 48.1047 10.789 519 60.0231 654.408 525.476
240 0 50.1236 10.9928 551 59.9564 654.138 523.808
241 0 52.041 10.4725 545 59.8532 653.684 524.051
242 0 52.0804 10.023 522 60.5115 654.437 523.31
243 0 52.1041 9.78809 510 60.8843 653.941 521.22
244 0 54.0535 9.50909 514 60.9864 653.578 520.757
245 0 57.0768 11.4582 654 58.4098 654.722 522.358
246 0 59.0461 10.1615 600 60.0983 654.907 518.54
247 0 60.0834 11.0513 664 59.2259 654.735 517.319
248 0 64.0532 9.55456 612 60.7026 655.642 518.832
249 0 65.1756 12.2899 801 57.2235 654.744 520.357
250 0 68.1344 10.2885 701 59.6776 654.484 516.397
251 0 71.1719 10.9032 776 58.7784 655.063 514.616
252 0 71.0928 9.64936 686 60.8294 654.752 514.316
253 0 74.112 10.0119 742 60.6402 654.253 513.147
254 0 76.0546 10.9527 833 59.1705 654.862 515.992
255 1 38.0327 8.8345 336 60.2857 655.158 533.774
256 0 40.0514 8.76374 351 59.4786 654.513 535.556
257 0 42.0307 9.70719 408 59.0662 655.238 532.816
258 0 45.0331 10.4146 469 58.5309 655.006 531.486
259 0 44.0416 7.51563 331 61.8882 654.193 532.417
260 0 45.0405 11.7228 528 58.0587 654.826 529.867
261 0 49.1265 10.646 523 58.0841 654.337 531.05
262 0 50.0586 11.6264 582 59.4931 654.577 530.314
263 0 51.029 10.3667 529 61.0227 654.48 528.55
264 0 52.0437 10.9139 568 61.118 654.699 528.604
265 0 52.1359 10.7987 563 61.3393 653.67 529.034
266 0 53.068 9.93065 527 62.1917 653.131 527.127
267 0 55.1409 11.0082 607 61.3114 653.114 526.17
268 0 57.0413 10.6239 606 60.8729 653.635 528.612
269 0 57.0668 10.0058 571 61.5201 653.217 526.503
270 0 60.1444 10.242 616 60.5357 653.43 524.765
271 0 64.0811 11.8288 758 58.6319 654.129 523.328
272 0 64.1268 11.1342 714 59.5966 653.821 518.922
273 0 67.1228 11.9036 799 58.3204 652.523 520.458
274 0 68.099 9.0016 613 60.8303 652.078 522.848
275 0 70.0726 9.73277 682 59.7683 652.783 518.972
276 0 75.1541 11.6694 877 57.6773 652.946 518.666
277 0 76.2392 11.0048 839 58.1347 653.123 514.559
278 0 76.0948 8.90994 678 61.0428 653.379 515.553
279 0 80.1784 9.81562 787 60.2719 653.268 516.258
280 1 44.0834 9.3913 414 57.4082 653.126 535.855
281 0 43.0084 9.57953 412 57.9369 652.677 534.813
282 0 47.0376 12.862 605 55.4066 652.755 532.531
283 0 47.0158 9.80521 461 59.4078 652.766 531.21
284 0 50.068 11.9637 599 55.9065 652.422 530.985
285 0 50.1253 10.8129 542 58.5221 652.613 530.052
286 0 53.0432 9.89759 525 58.9219 652.421 530.621
287 0 52.0466 9.99104 520 60.0192 652.335 528.552
288 0 55.0583 11.6422 641 57.4446 651.808 527.808
289 0 56.0335 11.154 625 58.6992 652.214 528.688
290 0 59.022 10.1488 599 60.0501 651.885 524.518
291 0 61.0935 11.0486 675 59.5644 651.916 525.353
292 0 60.0523 10.7573 646 59.8947 651.986 524.848
293 0 65.1159 11.6254 757 58.3487 652.287 523.493
294 0 66.1861 10.4856 694 59.5144 652.246 523.425
295 0 69.1326 11.2248 776 58.3634 651.812 519.856
296 0 67.0909 10.1653 682 60.151 651.748 518.616
297 0 71.1202 11.7688 837 57.8578 651.068 518.676
298 0 75.0408 11.6603 875 58.0857 650.998 517.519
299 0 76.2119 11.8879 906 58.4128 652 515.837
300 0 80.0516 11.2303 899 58.8454 651.478 513.725
301 0 80.2807 10.4633 840 60.2631 651.137 513.554
302 0 83.23 11.8827 989 58.6845 651.563 510.872
303 0 86.1887 10.6162 915 59.9366 651.158 510.474
304 0 91.3241 11.8151 1079 58.1677 650.576 511.413
305 1 45.0872 10.1581 458 56.5633 650.587 533.902
306 0 45.0239 10.7943 486 57.1193 650.154 531.175
307 0 47.0286 10.4404 491 57.7413 650.644 530.442
308 0 48.0254 10.9109 524 57.3092 651.107 529.645
309 0 50.1186 11.1336 558 56.9498 650.151 528.778
310 0 49.0867 9.63601 473 58.0994 650.455 527.56
311 0 52.0903 9.86747 514 58.607 650.77 527.195
312 0 53.0469 11.0845 588 57.4558 650.568 526.014
313 0 53.1642 10.0067 532 58.1579 650.113 526.491
314 0 57.1361 9.95868 569 58.2865 651.116 524.884
315 0 55.0546 9.8266 541 58.8336 650.874 522.1
316 0 61.1563 11.397 697 56.1478 651.534 524.014
317 0 61.1435 13.1821 806 53.9119 651.655 522.819
318 0 62.0846 11.1461 692 56.1084 650.997 522.075
319 0 63.0513 10.88 686 56.2988 651.618 519.015
320 0 65.0607 9.52956 620 57.329 651.485 521.002
321 0 70.1358 11.6773 819 54.9121 651.696 518.432
322 0 68.0863 9.78171 666 57.5511 651.61 515.057
323 0 71.0701 10.1449 721 57.0721 651.95 514.089
324 0 77.1682 9.88749 763 56.1953 652.028 516.511
325 0 77.0573 10.1223 780 56.7308 651.664 511.291
326 0 81.1008 9.22309 748 57.4184 652.051 512.198
327 1 42.0421 9.15749 385 55.5299 652.506 529.042
328 0 44.0174 7.61062 335 56.597 652.185 531.439
329 0 44.0495 9.85256 434 54.1889 651.915 533.486
330 0 46.0382 10.7302 494 53.9312 651.607 529.443
331 0 47.0493 10.7759 507 54.359 651.588 529.765
332 0 49.1159 11.2387 552 54.0761 652.237 526.688
333 0 49.054 9.43858 463 56.0886 652.38 525.05
334 0 49.0541 9.37741 460 56.8 652.035 524.789
335 0 51.0424 9.59986 490 56.5429 651.486 524.355
336 0 53.0535 9.38675 498 56.5884 651.777 523.038
337 0 54.0748 10.0786 545 55.9376 651.765 524.123
338 0 55.1532 10.1535 560 56.6036 651.93 522.107
339 0 57.0976 12.032 687 55.3246 651.763 521.613
340 0 63.2011 12.8637 813 53.3272 652.092 522.932
341 0 61.1734 10.1515 621 56.5604 651.525 520.849
342 0 64.1174 13.4909 865 53.2855 651.871 517.918
343 0 66.0477 10.0836 666 56.0976 652.354 519.964
344 0 67.0733 11.4352 767 54.9961 652.284 517.889
345 0 67.0517 9.87298 662 57.6526 652.776 514.429
346 0 72.1025 12.6903 915 55.035 652.017 514.417
347 0 75.0423 10.8206 812 56.4889 652.6 515.809
348 0 79.0903 10.8231 856 56.8621 651.713 513.942
349 0 80.199 11.9453 958 56.1775 651.317 513.087
350 0 82.151 11.5762 951 57.1777 652.368 507.249
351 0 85.1599 11.6134 989 56.6785 652.493 508.627
352 0 87.1549 11.8639 1034 56.9594 652.081 508.169
353 1 49.1249 9.68959 476 57.4958 651.842 527.363
354 0 48.0884 9.00426 433 58.5497 652.561 527.275
355 0 51.0575 10.3021 526 57.597 652.228 527.606
356 0 52.035 10.9734 571 57.9895 652.723 524.405
357 0 54.1397 12.0983 655 57.1053 652.461 526.081
358 0 57.059 12.2505 699 57.2189 652.388 523.27
359 0 57.0668 11.1273 635 58.7197 652.276 525.531
360 0 60.0313 11.7272 704 58.2869 652.044 522.452
361 0 59.0577 10.1426 599 60.9132 651.875 522.942
362 0 63.0538 14.0198 884 57.0769 652.007 520.017
363 0 66.0991 12.0577 797 59.2798 652.162 520.183
364 0 67.1544 12.9552 870 58.9299 652.907 517.603
365 0 68.065 11.8857 809 60.6218 652.638 516.824
366 0 71.1961 13.203 940 59.2766 652.541 515.256
367 0 73.1258 12.6494 925 60.2054 652.203 515.648
368 0 73.0661 11.5375 843 62.3215 652.221 514.791
369 0 77.043 12.4736 961 61.154 652.297 513.357
370 0 82.0623 13.3435 1095 59.9105 652.927 513.816
371 0 83.1379 13.7964 1147 59.7158 652.718 511.752
372 0 84.1719 11.8686 999 62.3704 652.539 512.508
373 0 86.0806 10.1417 873 64.1753 652.288 514.273
374 0 89.1121 14.0497 1252 60.4137 652.327 507.694
375 0 92.1142 11.8331 1090 63.2532 652.634 507.617
376 0 95.1163 12.3007 1170 62.8991 652.531 504.591
377 0 100.096 12.5679 1258 62.6733 652.328 502.907
378 0 100.074 11.2117 1122 65.0232 651.618 499.39
379 1 52.0875 10.2712 535 62.7121 651.619 528.034
380 0 52.0137 10.1896 530 63.6547 651.338 524.945
381 0 56.031 12.2254 685 61.7927 651.874 523.809
382 0 56.0709 10.8969 611 62.7234 651.408 526.365
383 0 60.1591 11.6026 698 61.9513 651.881 523.354
384 0 59.1439 11.9877 709 61.6784 651.969 524.886
385 0 62.0355 11.9125 739 61.8714 652.36 522.135
386 0 65.0808 11.8161 769 60.827 651.166 523.326
387 0 66.093 11.9982 793 61.1211 651.204 519.84
388 0 69.1956 12.3129 852 60.9871 651.698 518.331
389 0 67.2093 11.9775 805 61.759 651.363 519.282
390 0 72.1411 11.8102 852 61.1232 652.455 518.06
391 0 73.1199 13.3479 976 60.1209 652.609 515.763
392 0 73.0816 11.754 859 62.7451 652.459 516.075
393 0 76.1099 11.5754 881 62.2872 652.375 515.166
394 0 79.137 12.6616 1002 61.6058 651.895 512.72
395 0 81.0793 11.8033 957 61.5141 651.518 516.513
396 0 84.0769 10.9543 921 62.8263 651.83 515.309
397 0 86.0377 11.8204 1017 63.1583 651.807 511.413
398 0 88.2984 13.2052 1166 61.295 652.166 514.129
399 0 89.1218 10.7605 959 64.7247 652.151 512.297
400 1 48.0888 11.0421 531 62.6441 652.33 529.972
401 0 48.1518 11.4638 552 62.3659 652.547 530.418
402 0 50.0414 12.8294 642 60.5218 652.204 531.165
403 0 52.1535 10.9101 569 63.2759 653.004 529.728
