time division length width area intensity CMx CMy
0 0 80.2704 8.72052 700 59.3086 435.196 477.387
1 0 84.244 9.61493 810 58.0284 434.454 473.994
2 0 86.1272 10.2871 886 57.2111 433.642 471.537
3 0 88.2407 9.89339 873 57.6529 433.687 468.883
4 0 92.0998 11.5636 1065 55.8845 433.423 470.319
5 0 92.2235 9.17337 846 58.1596 433.356 469.649
6 0 97.2332 10.2434 996 57.5331 433.122 464.426
7 0 99.1102 10.2714 1018 57.3802 432.957 469.191
8 0 102.212 9.94992 1017 57.8397 432.773 467.239
9 0 107.448 11.1962 1203 56.0191 432.773 468.012
10 0 108.057 9.11554 985 58.3563 432.835 466.755
11 0 111.351 8.36995 932 59.2833 433.05 461.37
12 1 61.1608 10.9547 670 54.2104 433.312 489.069
13 0 62.2318 11.2001 697 54.4964 433.162 487.38
14 0 62.0685 9.1834 570 56.6667 432.279 482.46
15 0 66.0945 13.0268 861 52.1487 432.127 488.413
16 0 64.0551 8.80492 564 57.0319 431.576 481.785
17 0 68.2284 10.0251 684 55.6023 431.791 485.817
18 0 68.1385 8.5561 583 57.4185 431.177 481.796
19 0 70.1416 8.88204 623 57.3066 431.445 481.868
20 0 72.0684 9.51874 686 56.7886 431.776 481.838
21 0 76.165 10.6742 813 55.3506 431.287 479.633
22 0 77.208 12.4339 960 53.8833 431.315 477.912
23 0 79.0804 10.7612 851 55.7074 431.754 475.569
24 0 78.1725 9.73488 761 57.4087 432.181 474.263
25 0 83.1236 11.513 957 55.4274 431.681 473.041
26 0 86.2155 13.7098 1182 52.8206 431.813 475.219
27 0 87.1111 12.1798 1061 54.7531 431.518 472.634
28 0 90.1606 10.8029 974 56.1828 431.649 472.219
29 0 92.324 12.402 1145 54.5458 431.762 474.169
30 0 92.1329 9.05214 834 58.4976 431.993 470.478
31 1 54.1456 8.07083 437 58.8558 432.286 490.281
32 0 58.1797 10.6223 618 56.3139 432.304 490.28
33 0 59.0736 9.20885 544 58.2151 432.221 486.699
34 0 60.1161 10.7625 647 56.6723 432.301 492.213
35 0 61.0656 11.2174 685 56.6204 431.254 490.434
36 0 64.2144 11.3526 729 56.4225 431.359 486.745
37 0 66.1765 10.8649 719 57.3296 430.522 487.943
38 0 68.4028 12.2217 836 55.6699 430.758 487.074
39 0 71.171 13.3481 950 53.8516 431.113 488.914
40 0 70.1694 12.2276 858 55.9697 431.017 485.54
41 0 71.0975 10.6755 759 58.0698 431.266 486.837
42 0 76.0766 11.3964 867 56.8858 429.953 481.367
43 0 74.1266 9.92896 736 59.2065 430.716 478.39
44 0 79.0636 12.6607 1001 56.1269 431.516 483.521
45 0 79.178 11.9604 947 57.3432 432.271 482.943
46 0 83.0547 12.8831 1070 56.8878 431.274 480.062
47 0 83.189 11.4318 951 58.4648 431.615 478.828
48 0 87.1361 13.8519 1207 56.2063 431.263 476.412
49 0 87.0818 11.7246 1021 59.0607 431.765 476.876
50 1 50.0477 10.7897 540 57.113 431.613 499.954
51 0 48.0371 8.45181 406 61.2808 431.685 496.475
52 0 51.0984 12.2509 626 57.8514 430.756 493.679
53 0 51.0841 10.8253 553 59.8843 430.116 491.911
54 0 51.0569 10.1847 520 60.9019 430.369 492.015
55 0 57.1042 14.5348 830 55.2807 430.665 493.594
56 0 56.0299 11.6902 655 59.4641 430.834 491.702
57 0 59.271 10.6123 629 59.9714 431.075 492.723
58 0 59.0538 13.1236 775 58.0452 430.867 492.212
59 0 61.1086 12.6005 770 58.8753 431.157 491.9
60 0 62.1237 10.9781 682 61.4003 430.735 491.418
61 0 63.1548 13.4748 851 58.5159 431.06 491.04
62 0 62.0406 12.3145 764 60.661 431.102 490.431
63 0 67.0985 13.3833 898 58.8486 431.324 490.759
64 0 66.0712 10.3071 681 62.9985 431.357 488.753
65 0 69.046 11.4851 793 61.4527 430.87 489.137
66 0 71.0911 11.3516 807 61.4164 430.827 488.717
67 0 74.0602 13.0164 964 59.5747 431.084 487.627
68 0 75.0937 13.2901 998 60.2435 431.294 485.572
69 0 77.082 12.2856 947 60.8553 430.543 486.904
70 1 43.0705 8.24229 355 63.738 430.975 501.282
71 0 45.0455 11.1665 503 60.4533 431.298 501.274
72 0 48.1337 10.6786 514 60.5662 431.436 501.07
73 0 47.0588 11.5175 542 61.1033 431.203 496.913
74 0 50.0403 9.47237 474 62.4684 431.373 498.772
75 0 50.0146 10.4769 524 62.3072 431.271 498.59
76 0 53.0512 10.782 572 62.4248 430.731 496.774
77 0 54.0691 10.912 590 62.4458 430.973 496.5
78 0 54.0257 9.66207 522 64.9904 430.814 494.694
79 0 57.1386 11.9534 683 61.6062 430.944 495.634
80 0 57.0531 11.5331 658 63.0988 430.236 494.918
81 0 58.0572 11.4198 663 63.5189 429.427 494.875
82 0 59.0363 10.8239 639 65.421 431.607 491.189
83 0 61.0548 10.9574 669 64.3303 431.142 494.661
84 0 59.1512 10.4647 619 66.5606 430.835 491.504
85 0 65.0829 10.6019 690 65.7188 430.493 491.18
86 0 63.0854 10.6205 670 66.8896 429.913 488.715
87 0 65.0631 10.5282 685 66.9971 430.415 486.588
88 0 68.3598 10.8397 741 66.0972 430.552 489.009
89 0 72.1271 10.6201 766 66.7833 431.486 486.892
90 0 72.1587 11.6964 844 65.7453 431.018 484.814
91 0 74.0412 10.3726 768 67.4961 430.572 483.389
92 0 77.1146 12.2545 945 65.1683 430.725 481.207
93 0 77.1358 10.5269 812 67.0197 430.482 485.298
94 1 42.0518 8.48954 357 67.944 430.826 498.076
95 0 44.0602 9.87286 435 65.5609 430.032 500.138
96 0 46.05 10.7926 497 64.5131 430.25 498.61
97 0 46.0497 9.05544 417 67.8034 430.149 495.388
98 0 50.0735 11.2235 562 63.5107 430.797 496.918
99 0 48.0858 10.1485 488 65.8975 430.121 493.744
100 0 52.0904 10.9425 570 63.9316 430.5 496.754
101 0 53.0859 9.43753 501 67.3114 430.866 493.401
102 0 53.054 9.70709 515 67.165 431.332 494.017
103 0 56.0815 11.4476 642 64.6885 431.073 492.358
104 0 57.0668 12.4065 708 63.6003 430.686 492.15
105 0 59.0423 11.551 682 64.3152 431.255 493.503
106 0 59.1011 12.6224 746 64.0979 431.772 490.698
107 0 59.0294 10.012 591 68.0457 431.692 488.716
108 0 63.0907 12.1888 769 63.9519 431.519 490.951
109 0 64.0855 11.5627 741 64.6289 431.534 491.505
110 0 65.0601 12.1887 793 64.7364 431.393 488.42
111 0 67.11 12.3082 826 64.2191 430.993 487.472
112 0 68.1326 12.1087 825 64.6109 430.124 487.457
113 0 69.0392 10.8924 752 66.2354 431.251 485.156
114 0 72.0294 11.051 796 65.5176 431.771 485.796
115 0 72.0925 10.9443 789 65.9708 430.925 480.437
116 0 77.0448 13.2001 1017 62.4031 430.986 481.395
117 0 77.0482 10.4869 808 66.1869 430.699 480.25
118 0 79.2017 12.1083 959 64.317 430.866 477.737
119 1 40.0572 6.7154 269 69.881 431.398 494.974
120 0 40.0169 10.9204 437 64.3249 431.455 496.856
121 0 40.0964 10.8738 436 65.9633 431.544 493.47
122 0 45.0239 8.90638 401 67.4888 431.978 494.09
123 0 44.1204 9.56474 422 67.4076 431.931 492.543
124 0 45.0149 10.6854 481 66.8274 432.177 490.638
125 0 51.0092 10.0178 511 65.5695 432.38 491.004
126 0 48.0497 14.2353 684 61.383 431.988 489.396
127 0 49.0539 10.5394 517 66.3269 431.656 489.19
128 0 52.0669 8.58511 447 68.0917 431.698 487.982
129 0 51.0578 11.1638 570 65.3912 431.554 485.598
130 0 59.1224 10.8419 641 63.8284 431.373 489.989
131 0 58.0616 11.5911 673 63.7667 431.207 489.633
132 0 62.0402 10.461 649 64.604 430.566 488.732
133 0 64.0583 13.1911 845 60.9905 430.563 489.518
134 0 64.0524 9.88253 633 66.0916 430.507 485.483
135 0 68.0647 11.827 805 63.0609 431.415 484.063
136 0 68.0728 11.7668 801 63.2784 431.277 483.815
137 0 70.0663 11.9744 839 62.6305 431.78 486.005
138 0 72.0879 12.1241 874 62.4565 431.254 484.777
139 0 73.1106 11.5305 843 63.2171 431.387 485.994
140 0 75.0382 11.4075 856 63.7313 431.417 482.659
141 0 77.1474 12.5604 969 62.3633 430.376 480.828
142 0 79.0542 12.7128 1005 62.3363 431.166 481.347
143 0 81.0722 11.903 965 62.9036 430.859 483.472
144 0 83.0872 10.0015 831 66.0674 431.294 480.826
145 0 86.0771 10.8391 933 65.0375 431.322 479.436
146 0 89.1533 11.856 1057 63.4342 430.921 477.176
147 1 46.0466 8.55654 394 66.4645 431.571 498.429
148 0 51.0455 10.8335 553 63.0018 431.421 496.542
149 0 49.0713 8.41632 413 67.3874 431.719 494.881
150 0 53.0205 10.7694 571 63.732 431.722 495.377
151 0 49.0611 10.9455 537 65.4637 430.711 491.27
152 0 55.0608 11.0242 607 63.6277 430.315 492.98
153 0 56.0877 12.3556 693 62.2482 431.264 490.351
154 0 59.0522 10.55 623 64.4302 431.886 490.047
155 0 59.0932 11.2703 666 63.7447 432.383 489.515
156 0 62.0352 11.1711 693 63.974 431.595 490.333
157 0 62.1333 11.411 709 63.9944 432.166 488.632
158 0 64.0917 11.3431 727 63.8404 432.354 490.01
159 0 64.1003 12.9797 832 62.4171 432.385 487.02
160 0 69.0329 12.7041 877 62.041 432.133 486.304
161 0 67.1413 11.3343 761 64.1183 432.484 486.598
162 0 69.0908 10.9132 754 64.931 431.999 486.011
163 0 71.0469 11.3446 806 64.0583 431.728 484.841
164 0 71.1422 10.1627 723 65.9502 431.436 482.553
165 0 77.0556 12.8738 992 62.1895 431.597 481.204
166 0 80.0756 14.9484 1197 59.3601 431.688 483.124
167 0 78.1349 11.4162 892 64.417 431.954 480.858
168 0 81.1332 12.387 1005 62.8577 431.725 481.346
169 0 84.2439 9.66242 814 66.3133 430.811 477.958
170 1 45.1146 10.8612 490 63.9633 431.269 497.367
171 0 48.1602 10.382 500 64.444 431.322 496.998
172 0 47.0642 8.49904 400 68.14 432.142 495.372
173 0 46.057 11.1384 513 65.7758 432.136 493.179
174 0 52.0578 10.0273 522 66.2874 432.46 491.398
175 0 53.0357 10.9926 583 65.0412 431.22 491.051
176 0 48.0389 10.8662 522 66.6954 431.607 489.741
177 0 57.039 11.5886 661 63.7776 431.949 488.985
178 0 57.0279 9.74961 556 66.5216 432.13 489.851
179 0 53.0547 10.7625 571 66.9159 432.191 488.222
180 0 61.0873 12.5394 766 62.8342 432.24 489.937
181 0 58.0797 12.2418 711 64.8129 431.98 487.823
182 0 62.092 10.6455 661 66.1346 432.212 488.079
183 0 65.0746 12.5241 815 63.3546 432.222 489.222
184 0 64.0718 10.5819 678 66.8112 431.858 486.668
185 0 68.0649 10.7985 735 65.8258 431.239 486.23
186 0 68.049 12.682 863 63.6616 431.667 485.732
187 0 69.0784 11.1178 768 65.5703 432.006 484.895
188 0 75.0939 13.7961 1036 61.555 431.545 484.646
189 0 78.143 12.4387 972 63.1121 431.664 484.001
190 0 77.1209 11.1513 860 65.614 431.595 480.5
191 0 82.1163 12.2996 1010 63.5139 430.743 479.705
192 0 84.1782 12.6755 1067 63.5539 430.604 476.877
193 0 81.122 12.9065 1047 64.1175 430.883 479.832
194 1 48.032 9.32711 448 67.5089 431.408 495.996
195 0 50.0337 12.0918 605 64.5339 431.185 494.471
196 0 49.0544 10.6412 522 66.5345 431.95 494.09
197 0 50.1252 10.8927 546 66.8407 432.502 494.178
198 0 53.0858 10.2664 545 67.8055 431.798 494.314
199 0 55.0302 12.1206 667 64.9535 431.604 493.85
200 0 57.0822 12.701 725 64.4441 431.215 493.396
201 0 59.192 15.1203 895 61.5441 431.762 490.948
202 0 58.1041 11.7376 682 66.7713 431.792 493.12
203 0 61.0672 12.0687 737 66.118 431.966 492.863
204 0 64.2074 13.1761 846 64.4622 431.374 491.162
205 0 61.0608 12.5776 768 66.2786 431.639 492.69
206 0 62.1424 11.4093 709 68.6248 432.104 490.449
207 0 66.0447 12.9306 854 64.5047 431.735 489.672
208 0 66.0651 11.8974 786 66.7328 431.234 488.103
209 0 69.1451 13.5946 940 63.9181 431.348 489.037
210 0 72.0795 13.0689 942 63.7463 431.343 490.844
211 0 74.1369 13.6909 1015 63.4355 431.924 488.744
212 0 75.1155 12.2878 923 64.9838 431.315 486.839
213 0 78.1233 12.4291 971 64.9258 431.289 485.728
214 0 79.0588 12.029 951 65.8233 431.481 483.004
215 0 84.1361 13.4068 1128 63.0807 429.973 482.769
216 0 77.0664 13.1445 1013 65.69 429.797 478.805
217 0 78.101 11.1778 873 68.2543 429.982 475.597
218 0 79.1301 10.9314 865 69.1064 430.232 476.687
219 0 82.0987 12.3388 1013 67.9724 430.685 474.445
220 1 47.1332 10.5658 498 68.4779 430.825 495.705
221 0 49.0787 11.0231 541 67.9852 430.97 493.919
222 0 47.0757 10.5575 497 69.169 430.799 493.058
223 0 51.1182 11.0332 564 67.8032 431.535 493.229
224 0 53.079 11.4923 610 67.4869 430.785 491.093
225 0 54.0708 11.374 615 68.2032 430.769 489.423
226 0 58.3068 10.6334 620 67.7323 431.348 492.56
227 0 54.1598 10.3582 561 69.7665 431.337 489.911
228 0 59.1041 10.913 645 68.5566 431.642 488.459
229 0 62.1101 10.6746 663 68.4947 431.051 486.43
230 0 62.189 11.6098 722 67.8006 431.533 488.752
231 0 66.1849 10.9088 722 68.5125 431.096 484.796
232 0 67.191 11.0729 744 68.1008 431.765 487.716
233 0 73.1941 11.7769 862 66.7773 431.386 486.234
234 0 74.246 11.9333 886 66.8205 431.454 484.693
235 0 72.0914 12.3732 892 67.3644 431.303 483.029
236 0 76.0959 11.7483 894 67.5749 430.694 483.237
237 0 81.1421 10.7219 870 68.8701 430.634 478.547
238 0 84.1219 11.7449 988 67.2601 431.39 482.825
239 1 43.1715 10.8173 467 68.9144 431.527 497.173
240 0 49.161 11.1267 547 67.7642 431.517 496.912
241 0 46.037 11.86 546 68.3223 431.502 496.277
242 0 47.0919 13.463 634 66.7618 431.254 494.033
243 0 53.0489 12.8749 683 66.9312 431.048 495.019
244 0 55.0354 11.8833 654 68.2706 431.199 495.622
245 0 56.1134 12.849 721 67.5589 430.922 493.534
246 0 57.0552 11.6729 666 69.53 430.916 493.506
247 0 58.0675 11.5555 671 70.0894 430.562 494.241
248 0 60.103 12.5784 756 68.8333 430.626 492.075
249 0 58.1694 10.2459 596 73.4883 430.233 490.997
250 0 63.1198 12.3416 779 69.6881 430.751 489.784
251 0 64.2059 13.0985 841 69.132 430.686 488.906
252 0 66.1705 11.4401 757 71.4729 431.214 489.227
253 0 67.2058 11.6805 785 71.6446 430.35 488.141
254 0 71.2143 11.4724 817 71.1297 430.679 488.371
255 0 72.1318 11.0076 794 72.3464 430.863 486.3
256 0 73.1463 11.1557 816 72.7647 431.263 486.737
257 0 78.041 13.557 1058 69.1597 431.843 485.134
258 0 80.1093 11.9212 955 71.0838 431.232 484.158
259 0 80.1389 11.3179 907 72.3914 431.064 482.671
260 1 41.0375 10.5026 431 72.5777 430.84 501.473
261 0 46.0542 12.1813 561 69.5526 430.982 498.8
262 0 45.1418 9.94644 449 73.0735 431.091 499.408
263 0 47.0895 11.6586 549 71.4845 431.494 498.078
264 0 49.1645 11.7768 579 70.9171 430.877 497.715
265 0 48.1413 11.9025 573 71.4799 430.798 497.782
266 0 53.1168 12.1431 645 69.955 431.019 498.181
267 0 53.1399 11.4415 608 71.852 430.977 494.653
268 0 55.128 12.1898 672 70.5 430.805 496.594
269 0 58.0913 12.6525 735 69.268 431.098 495.848
270 0 57.0641 11.7061 668 71.6228 430.84 494.03
271 0 60.1028 12.2457 736 70.0367 430.254 492.717
272 0 61.3033 13.1967 809 68.6675 430.815 492.598
273 0 61.1296 11.9255 729 71.3621 430.944 491.901
274 0 64.0591 11.3177 725 71.7228 430.862 491.167
275 0 65.0266 12.7486 829 69.4789 430.648 490.308
276 0 69.0754 12.6528 874 68.8913 430.762 490.058
277 0 67.1674 11.3895 765 71.3556 430.995 490.142
278 0 70.1334 11.307 793 70.5851 430.511 489.528
279 0 74.1855 14.0189 1040 66.5519 430.342 488.162
280 0 77.0974 13.3338 1028 67.1012 429.997 486.014
281 0 77.1769 13.5792 1048 67.499 430.071 484.043
282 0 80.2063 12.418 996 68.257 430.037 484.893
283 1 44.1795 10.1857 450 70.2644 430.331 502.238
284 0 45.0712 11.4485 516 69.8062 430.51 498.907
285 0 47.1873 12.1007 571 69.1629 430.825 497.755
286 0 48.1202 11.5544 556 68.9496 429.638 499.232
287 0 50.1051 12.2941 616 68.414 429.856 499.67
288 0 51.1045 11.8776 607 69.682 430.241 496.707
289 0 53.1248 12.8753 684 68.3538 430.374 495.806
290 0 55.0796 11.9827 660 69.8015 429.724 495.421
291 0 56.0607 11.8621 665 69.7398 430.232 496.346
292 0 57.1563 13.1219 750 68.8387 429.509 494.745
293 0 59.0606 12.8851 761 68.9382 429.87 494.041
294 0 59.0934 12.9118 763 70.0459 430.066 491.67
295 0 62.1149 12.9277 803 69.4259 430.213 491.352
296 0 61.1953 12.2722 751 70.7257 429.744 491.754
297 0 64.174 13.0427 837 69.8901 430.591 490.637
298 0 67.1245 11.9479 802 71.0923 430.697 490.148
299 0 68.1079 14.0219 955 68.1843 429.954 490.201
300 0 72.2047 13.2955 960 69.2479 429.652 487.657
301 0 72.0859 12.8735 928 70.917 429.651 485.194
302 0 72.2232 11.7275 847 73.1204 429.495 484.904
303 0 78.1261 13.363 1044 70.1073 429.9 484.716
304 0 80.1603 12.5 1002 71.8812 430.007 482.1
305 0 83.2018 12.5478 1044 71.6954 430.471 482.945
306 1 41.0577 11.0333 453 73.9073 430.389 500.525
307 0 42.1694 10.4104 439 75.1002 430.633 498.986
308 0 45.1616 11.2928 510 72.4961 430.147 500.855
309 0 44.0375 11.0133 485 74.8887 430.907 498.229
310 0 45.085 12.4875 563 72.4103 430.812 496.544
311 0 49.0581 9.72316 477 75.4633 430.176 498.438
312 0 49.0855 10.6752 524 74.5534 430.055 497.844
313 0 50.0623 11.1062 556 74.1457 429.689 497.692
314 0 55.1193 12.8267 707 70.3395 430.648 497.166
315 0 56.0767 14.1057 791 69.1214 430.992 496.695
316 0 55.0807 12.3637 681 72.9956 431.173 495.432
317 0 58.1717 11.6723 679 73.2018 430.738 494.907
318 0 58.1297 12.5753 731 72.3557 430.539 492.804
319 0 60.1352 12.1227 729 73.0892 430.155 495.266
320 0 61.1316 12.2195 747 73.1968 429.265 492.523
321 0 62.2593 12.8013 797 73.0577 429.473 489.403
322 0 64.0528 13.1454 842 72.3183 429.757 489.901
323 0 66.1004 12.5869 832 73.7163 429.905 488.852
324 0 66.0827 12.3633 817 74.0636 430.024 489.263
325 0 68.0846 12.2348 833 74.3205 429.771 486.706
326 0 71.0761 12.1419 863 73.5736 429.224 487.652
327 0 76.2872 13.2263 1009 71.1457 429.966 486.926
328 0 75.213 11.2879 849 75.7491 430.173 483.927
329 0 80.0586 12.8281 1027 72.8919 429.456 482.547
330 0 83.0732 14.6858 1220 69.2574 429.153 481.216
331 1 46.0346 12.0127 553 73.7722 429.801 496.808
332 0 45.1242 11.967 540 75.1944 430.393 495.898
333 0 48.1986 11.9713 577 73.1022 430.768 498.695
334 0 49.0326 12.5019 613 72.5808 431.31 499.54
335 0 51.1894 12.6198 646 73.113 430.972 497.077
336 0 51.0846 11.7648 601 74.782 431.2 496.978
337 0 54.1067 13.0483 706 72.7918 430.746 495.096
338 0 55.1497 13.418 740 71.5905 430.364 496.035
339 0 56.1027 12.7801 717 73.1925 430.485 494.275
340 0 59.1564 13.8446 819 70.9792 430.442 492.69
341 0 58.0956 11.3262 658 75.8632 430.211 492.154
342 0 60.0904 13.4963 811 72.6104 429.9 490.678
343 0 65.1066 13.0862 852 71.9601 429.998 490.087
344 0 66.1681 12.4985 827 73.0375 429.408 490.653
345 0 69.2335 15.2238 1054 67.5712 430.243 492.429
346 0 70.1659 13.1973 926 71.9892 430.202 487.857
347 0 71.1795 12.5598 894 73.0839 429.814 487.23
348 0 73.1107 12.9666 948 72.7606 429.786 485.417
349 0 73.0957 12.2579 896 74.0112 429.817 485.089
350 0 76.0678 12.1865 927 74.0658 429.915 484.468
351 0 79.0796 11.9879 948 74.2025 429.667 481.468
352 1 41.054 11.5214 473 75.0951 429.793 498.025
353 0 45.1368 11.9858 541 73.5471 429.292 496.874
354 0 47.0849 12.5943 593 72.2631 429.58 497.88
355 0 48.069 12.2532 589 72.416 428.898 497.922
356 0 47.137 11.2226 529 75.1796 429.707 493.836
357 0 50.0908 12.7169 637 72.4631 429.386 493.435
358 0 53.1838 11.4132 607 73.547 430.035 495.908
359 0 55.1764 12.0522 665 72.3293 430.075 494.245
360 0 55.1766 12.4872 689 71.5181 429.897 494.987
361 0 55.1112 11.1774 616 74.5211 429.922 492.448
362 0 59.074 12.916 763 70.6527 430.064 493.282
363 0 60.1344 12.9211 777 70.1763 430.116 494.118
364 0 60.1349 13.0041 782 71.3593 430.481 491.134
365 0 63.2063 12.6253 798 71.4737 430.823 490.825
366 0 66.114 13.2952 879 70.0034 430.355 490.112
367 0 67.0483 12.8713 863 70.3893 430.235 486.496
368 0 69.0974 12.4896 863 70.5411 430.431 487.209
369 0 73.1191 12.7874 935 69.1989 430.106 486.565
370 0 74.1171 11.5223 854 71.1112 429.876 485.248
371 0 77.081 12.7139 980 69.2194 429.872 483.898
372 0 78.1002 12.8425 1003 69.1097 430.038 484.793
373 1 44.1243 11.2636 497 72 430.276 498.95
374 0 47.0599 11.1985 527 70.4877 429.987 499.951
375 0 48.1453 13.6877 659 67.3915 430.44 498.674
376 0 51.1756 12.1738 623 68.6645 430.637 498.507
377 0 50.1022 11.7759 590 70.4458 430.215 494.88
378 0 55.261 12.5043 691 67.4891 430.213 498.049
379 0 55.1484 12.7474 703 68.623 430.698 494.592
380 0 58.1188 13.937 810 65.8988 431.248 493.249
381 0 57.1593 11.3892 651 70.2227 431.091 492.066
382 0 58.1621 12.5511 730 69.1918 430.299 489.837
383 0 59.1347 12.2094 722 69.1953 430.344 489.636
384 0 64.1454 13.0797 839 66.2884 430.088 490.163
385 0 65.1996 12.8682 839 66.8069 429.751 487.619
386 0 66.1392 12.4132 821 67.6114 430.061 486.046
387 0 68.2546 13.2592 905 66.5768 429.756 485.72
388 0 72.1999 14.5014 1047 63.6246 429.83 487.648
389 0 71.1252 11.8945 846 67.7364 430.441 486.417
390 0 76.065 14.0143 1066 64.9212 429.935 484.121
391 0 79.0563 12.7883 1011 66.3224 430.397 482.451
392 1 40.0788 11.178 448 68.0692 431.348 501.449
393 0 42.2692 10.1729 430 69.6907 430.981 499.581
394 0 46.0701 12.5461 578 65.6574 429.926 498.891
395 0 45.0869 12.2874 554 66.9585 430.2 496.5
396 0 46.1221 11.9682 552 67.7373 430.283 495.134
397 0 48.2117 11.1799 539 68.6698 429.857 495.421
398 0 48.0369 11.4495 550 68.3055 430.52 496.069
399 0 53.3061 12.9629 691 65.33 430.535 495.777
400 0 53.047 11.9328 633 67.3175 430.082 495.392
401 0 58.1615 13.4453 782 63.9437 430.185 496.688
402 0 61.2473 13.0618 800 64.3738 430.166 494.796
403 0 59.1534 13.0677 773 66.0815 430.215 492.643
