time division length width area intensity CMx CMy
0 0 66.5452 4.95903 330 30.7939 964.361 416.37
1 0 72.8274 12.4541 907 50.4388 963.865 350.294
2 0 76.2933 17.5245 1337 44.8422 963.489 354.544
3 0 80.7688 10.2886 831 54.0951 963.159 344.415
4 0 76.2712 13.7142 1046 51.3834 962.649 343.413
5 1 83.9928 16.4895 1385 44.9819 962.253 355.099
6 0 85.063 13.0256 1108 49.6516 962.48 348.001
7 0 93.3849 13.8031 1289 47.1924 961.512 352.535
8 0 94.1269 15.4897 1458 45.4355 961.418 354.099
9 0 92.1228 11.0071 1014 53.7604 961.953 340.688
10 0 89.3488 14.5497 1300 48.9377 962.14 345.489
11 1 167.797 16.0372 2691 48.3597 961.626 331.887
12 1 148.456 10.6496 1581 58.2347 962.266 313.925
13 0 146.976 11.1174 1634 49.6701 962.037 340.025
14 1 167.194 10.443 1746 54.5178 960.96 323.563
15 0 168.096 19.5424 3285 48.5963 960.998 315.264
16 0 170.899 16.536 2826 51.0382 960.352 312.959
17 1 180.683 11.1134 2008 56.7052 960.586 306.257
18 0 182.57 21.5533 3935 47.4727 959.461 308.477
19 1 73.1341 7.75289 567 65.7743 959.402 244.94
20 1 123.529 16.3524 2020 46.9663 960.241 340.979
21 1 72.7075 16.4632 1197 44.4327 960.645 356.34
22 0 70.5153 13.1603 928 50.139 960.864 350.328
23 0 74.3749 13.5395 1007 49.7656 960.963 349.031
24 0 79.0995 13.0342 1031 49.7527 961.316 349.844
25 0 84.4414 9.67534 817 54.8507 960.736 342.996
26 1 77.4681 15.0772 1168 49.6344 961.467 345.515
27 0 81.3366 12.7618 1038 51.8574 960.529 344.213
28 0 82.8375 13.5567 1123 51.9501 960.626 341.372
29 0 83.8074 11.3952 955 54.0398 960.941 342.977
30 0 90.3122 15.6125 1410 48.7716 961.111 345.584
31 0 95.6759 12.3751 1184 50.7981 961.438 346.156
32 1 71.0726 12.4239 883 57.7248 960.93 335.934
33 0 73.0805 12.6846 927 58.2449 960.782 334.398
34 0 77.0313 13.9683 1076 56.7714 961.077 332.612
35 0 78.1215 15.6039 1219 55.1788 960.189 335.337
36 0 82.1021 13.2762 1090 56.9642 959.91 335.553
37 0 83.1364 14.5544 1210 57.0818 959.11 329.774
38 1 46.054 12.3116 567 57.2028 959.631 349.256
39 0 45.1217 12.7876 577 56.4142 959.804 350.698
40 0 46.1801 13.5556 626 56.8994 959.888 349.388
41 0 50.0538 14.3645 719 56.5035 960.223 347.942
42 0 47.1616 12.701 599 58.7446 959.077 348.033
43 0 49.0652 13.8591 680 57.9985 959.593 347.46
44 0 50.1129 13.0306 653 58.8775 960.507 348.172
45 0 52.1938 13.9863 730 58.6973 961.118 344.049
46 0 57.1022 13.6422 779 58.4775 960.258 345.561
47 1 77.3434 13.0069 1006 53.7624 960.573 350.471
48 1 156.316 8.86663 1386 63.2374 959.998 315.97
49 0 156.262 10.6232 1660 62.4849 960.476 312.443
50 0 156.343 9.52391 1489 65.086 960.162 305.518
51 1 176.485 15.5708 2748 50.8373 960.05 333.201
52 0 183.703 10.468 1923 60.155 959.357 314.926
53 0 176.478 11.6105 2049 54.7877 958.548 333.418
54 1 196.6 10.7833 2120 63.4585 958.625 296.142
55 0 194.527 10.3173 2007 64.9078 959.216 291.195
56 1 218.64 10.0073 2188 58.5937 959.464 317.072
57 0 219.392 14.0935 3092 54.6106 959.358 315.298
58 1 81.1612 12.4444 1010 60.9465 959.708 338.317
59 0 85.1252 12.0763 1028 61.4669 959.965 337.306
60 0 87.1875 14.291 1246 59.2913 959.536 335.821
61 0 91.1629 12.8451 1171 61.3553 959.861 331.999
62 1 54.2911 12.9671 704 58.9375 959.939 352.774
63 0 56.2328 13.6575 768 59.9844 960.169 349.602
64 0 57.3555 12.0477 691 61.8177 960.065 349.776
65 0 58.2397 11.6415 678 61.9602 959.745 347.718
66 0 61.0885 13.6196 832 59.607 959.631 347.2
67 0 63.1428 12.5272 791 60.507 960.028 347.09
68 0 68.0699 13.6624 930 58.7516 960.234 348.196
69 0 67.2631 12.3247 829 60.5778 959.483 346.735
70 0 66.0516 11.2791 745 62.6604 959.549 342.369
71 0 70.2239 15.2512 1071 57.9757 960.018 342.533
72 0 75.2819 14.0273 1056 58.4735 959.996 340.922
73 0 78.1542 13.371 1045 58.7301 959.737 341.579
74 0 78.0946 12.9843 1014 59.3728 959.821 340.22
75 0 81.098 12.5774 1020 60.0412 959.877 336.225
76 0 86.0698 11.6766 1005 60.3095 959.283 338.19
77 1 44.0951 11.9061 525 58.8838 959.87 355.16
78 0 45.1201 12.9211 583 58.0292 959.66 355.331
79 0 47.1704 13.2074 623 58.5441 959.933 352.515
80 0 47.0982 11.2956 532 60.4417 959.293 354.707
81 0 50.1778 12.8144 643 59.6439 958.306 351.543
82 0 50.1519 12.1232 608 60.3355 960.475 352.067
83 0 49.0862 12.5901 618 60.678 960.052 350.238
84 0 52.0693 10.9854 572 61.6608 959.603 349.904
85 0 54.4666 12.2277 666 60.3198 959.402 347.104
86 0 57.3535 13.2511 760 59.1237 958.778 348.472
87 0 61.4985 12.7808 786 59.1768 959.3 348.767
88 0 64.1904 11.6217 746 59.7708 959.693 349.468
89 0 67.4567 14.3203 966 56.5476 960.506 348.422
90 0 66.3246 13.5093 896 58.5391 959.917 346.331
91 0 69.2241 14.1569 980 57.8173 959.55 344.107
92 0 72.5445 12.8611 933 58.8714 959.688 343.076
93 0 74.5088 12.4146 925 59.4941 959.396 343.15
94 0 74.352 13.073 972 58.9928 959.433 342.926
95 0 77.1915 13.2398 1022 58.4843 958.73 342.315
96 0 82.2567 14.4061 1185 57.7468 959.013 337.633
97 0 83.2486 12.817 1067 59.6392 958.935 336.886
98 1 43.1752 11.3491 490 60.4204 959.788 354.906
99 0 47.3893 13.5052 640 57.5172 958.852 353.67
100 0 46.3125 11.4656 531 60.1563 959.469 353.46
101 0 49.1912 11.3435 558 59.7993 959.634 353.796
102 0 50.3239 12.6381 636 58.3145 960.299 352.808
103 0 50.35 11.857 597 59.8677 959.93 350.122
104 0 52.1085 14.1052 735 57.3769 959.592 349.705
105 0 56.2428 12.1438 683 58.5842 960.239 350.857
106 0 60.1295 12.7392 766 57.8225 960.834 349.42
107 0 60.1152 12.2931 739 58.5792 960.585 346.422
108 0 63.1709 14.2946 903 55.9513 960.526 349.77
109 0 64.4805 12.0346 776 58.7126 960.396 346.896
110 0 66.1784 14.4156 954 55.9392 960.298 347.692
111 0 69.2841 13.7983 956 56.796 959.903 344.43
112 0 69.3998 13.026 904 57.3783 959.139 342.89
113 0 72.2842 13.7374 993 56.7341 960.133 341.068
114 0 73.1212 13.0879 957 57.4117 960.595 342.542
115 0 75.1131 11.05 830 59.4301 959.784 339.434
116 0 77.2237 12.0429 930 58.6022 959.835 336.203
117 0 79.1747 11.5567 915 59.3519 959.507 332.393
118 0 81.2471 13.2682 1078 57.5649 959.736 333.591
119 0 87.1963 13.1772 1149 56.3986 960.301 336.764
120 0 88.2548 12.9965 1147 57.1997 960.086 333.027
121 0 91.0682 14.7582 1344 55.4546 960.444 332.6
122 1 46.0524 10.7269 494 58.6721 960.852 351.664
123 0 44.0666 9.41756 415 60.4313 960.706 349.863
124 0 51.1489 9.83403 503 59.5547 961.083 349.934
125 0 51.0985 13.1315 671 56.7273 961.349 350.025
126 0 55.07 11.7668 648 57.1914 960.818 349.556
127 0 57.1764 13.3097 761 56.0237 960.595 348.325
128 0 60.0954 12.7464 766 55.829 960.561 348.598
129 0 62.1729 12.2401 761 56.4244 960.505 345.859
130 0 63.1719 13.6453 862 55.3457 960.253 345.396
131 0 64.3068 13.4511 865 55.8266 959.931 342.351
132 0 66.1539 11.9721 792 56.774 959.438 344.934
133 0 68.168 14.2736 973 54.9723 959.641 342.959
134 0 70.1815 14.491 1017 54.7316 959.489 340.853
135 0 73.306 12.0863 886 56.447 960.345 341.319
136 0 75.1492 14.7706 1110 54.018 960.082 341.757
137 0 77.2493 11.7024 904 57.5343 960.674 335.737
138 0 79.1586 12.5318 992 56.7732 960.162 338.131
139 0 81.0956 12.997 1054 56.8226 960.175 333.104
140 0 85.2212 14.4565 1232 54.9383 960.288 333.896
141 1 47.054 10.4986 494 57.6457 959.346 351.051
142 0 46.144 12.0709 557 57.3501 960.269 351.817
143 0 49.1018 9.95891 489 59.0552 959.922 349.585
144 0 54.1974 12.6943 688 55.641 960.371 352.719
145 0 54.1338 14.4087 780 54.1372 960.333 349.996
146 0 58.1604 13.4112 780 54.8449 959.996 349.682
147 0 59.0738 12.8991 762 55.4619 960.325 348.961
148 0 62.2157 13.7747 857 54.2065 960.32 349.209
149 0 62.1857 14.7783 919 53.3765 960.505 350.075
150 0 66.2409 12.6206 836 55.4916 960.474 347.856
151 0 68.4181 13.2275 905 54.8155 959.524 347.509
152 0 70.1173 13.3063 933 54.8199 959.148 347.054
153 0 69.2069 13.7703 953 55.0745 960.152 345.808
154 0 71.2005 13.6094 969 56.1569 960.671 340.28
155 0 75.1204 15.2156 1143 54.4541 961.385 342.749
156 0 77.3566 13.6899 1059 56.1199 960.402 340.783
157 0 79.1036 13.4634 1065 56.4385 961.137 342.366
158 0 81.1651 13.146 1067 57.597 961.097 337.27
159 0 83.3795 12.9408 1079 57.8489 961.357 340.677
160 1 43.0258 13.0155 560 56.4964 961.409 357.179
161 0 45.3041 13.3763 606 56.4521 961.465 357.84
162 0 47.1887 14.1559 668 55.5988 961.18 358.365
163 0 49.1136 13.9065 683 56.8199 960.851 354.764
164 0 50.1855 13.6095 683 55.9605 960.654 358.334
165 0 48.0523 14.5674 700 57.3029 960.826 355.43
166 0 48.0875 11.791 567 60.9206 960.843 354.797
167 0 52.3068 13.0002 680 58.9853 961.154 354.968
168 0 52.1063 11.6301 606 60.7409 960.929 355.827
169 0 54.1078 14.1384 765 59.0784 959.841 351.471
170 0 56.021 13.1379 736 59.4973 960.086 353.822
171 0 58.2547 11.7415 684 61.674 960.203 349.769
172 0 60.1223 13.3561 803 60.3549 960.923 351.349
173 0 62.0665 13.6144 845 59.7929 961.011 349.131
174 0 64.1006 12.9484 830 60.6867 961.175 348.299
175 0 65.0868 12.5217 815 61.7669 960.064 344.477
176 0 67.1142 13.4696 904 60.7876 960.385 348.874
177 0 68.2529 11.8676 810 62.9111 960.938 346.896
178 0 71.0847 13.5472 963 60.9169 961.023 345.896
179 0 76.0623 14.1463 1076 59.9805 961.161 344.576
180 0 78.1235 15.0019 1172 59.5 961.144 345.503
181 0 81.0966 14.5136 1177 59.989 960.952 345.71
182 1 42.1396 13.1705 555 60.0577 961.337 362.492
183 0 44.2123 10.5174 465 63.1656 961.351 362.649
184 0 44.0727 12.6836 559 61.8658 960.708 359.12
185 0 46.0784 13.0864 603 61.0282 960.303 359.874
186 0 47.129 13.0068 613 61.4209 960.615 360.385
187 0 49.0602 11.9445 586 62.4915 960.997 357.611
188 0 51.2977 12.0668 619 61.706 960.695 359.292
189 0 50.056 14.0842 705 60.2255 960.759 355.919
190 0 53.2078 12.0283 640 62.2422 960.531 356.395
191 0 54.2177 12.3576 670 62.1075 959.931 353.287
192 0 55.1435 11.8781 655 62.2595 959.808 355.018
193 0 59.2638 12.3516 732 61.123 959.896 355.944
194 0 62.3308 12.3695 771 60.6161 960.508 352.956
195 0 64.1277 13.5355 868 59.6671 960.031 351.724
196 0 66.2978 13.198 875 59.7509 960.803 353.794
197 0 68.3954 13.6559 934 59.0343 961.354 353.925
198 0 70.1586 12.9849 911 60.0274 960.678 351.74
199 0 72.1939 11.4414 826 62.2482 960.435 351.234
200 0 77.2499 13.5146 1044 59.0747 960.172 352.512
201 0 78.1947 13.4024 1048 59.4618 960.585 354.344
202 1 40.1907 10.3507 416 61.0192 961.046 370.837
203 0 44.2948 10.7462 476 61.0777 960.958 369.811
204 0 47.3057 12.8314 607 58.1549 960.442 370.613
205 0 43.1426 9.8974 427 63.1241 960.656 370.431
206 0 47.1757 12.1885 575 59.7722 961.214 371.993
207 0 47.2359 13.2738 627 57.9809 960.681 370.877
208 0 53.2111 10.9 580 58.781 960.355 371.731
209 0 51.1011 12.8569 657 58.1446 960.35 372.339
210 0 54.2262 10.5484 572 59.6521 960.483 371.073
211 0 56.1625 11.7338 659 58.2534 960.967 374.452
212 0 58.2393 12.6032 734 57.7793 960.448 369.963
213 0 58.2176 12.5563 731 57.8988 960.304 370.339
214 0 64.1952 11.247 722 56.7576 960.64 377.729
215 0 64.2092 13.3158 855 56.469 959.192 372.339
216 0 66.148 11.308 748 58.4024 959.024 373.693
217 0 65.2312 11.5742 755 59.2503 958.983 371.764
218 0 70.1505 12.9436 908 57.0628 959.261 375.41
219 0 74.2069 11.5757 859 57.681 959.759 376.781
220 0 74.3511 12.4141 923 58.1148 959.453 373.036
221 1 38.2842 9.82129 376 58.508 959.981 392.912
222 0 41.1994 12.1118 499 56.3166 960.016 393.08
223 0 41.2102 9.85193 406 58.0714 960.53 393.234
224 0 46.362 11.6259 539 56.5733 959.909 390.299
225 0 44.1475 10.6914 472 58.3941 959.951 390.746
226 0 48.1693 10.5254 507 57.4675 960.314 394.598
227 0 47.2916 9.2194 436 59.7729 960.417 393.33
228 0 49.1842 11.9144 586 57.0273 960.601 392.824
229 0 51.4081 11.9242 613 56.969 960.235 392.874
230 0 54.2449 10.7291 582 58.3007 960.527 391.058
231 0 55.3543 12.9348 716 56.4092 960.304 392.391
232 0 58.2046 12.8684 749 55.773 960.781 393.108
233 0 59.2712 12.5525 744 56.2984 960.425 392.727
234 0 59.2381 10.5169 623 58.8218 960.61 389.713
235 0 64.2647 12.6664 814 56.0823 960.455 389.478
236 0 64.1779 12.2784 788 57.2348 959.703 388.396
237 0 67.4077 11.2302 757 57.5905 959.711 387.295
238 0 69.3322 13.6012 943 55.6532 960.461 387.68
239 0 71.2386 11.2158 799 57.9262 960.275 387.058
240 0 75.3165 14.5254 1094 54.3126 960.451 387.059
241 0 73.1728 13.0513 955 56.8733 960.255 384.58
242 1 40.3465 11.9713 483 56.4141 960.269 399.95
243 0 40.4605 12.0859 489 56.501 960.045 400.994
244 0 42.3018 12.7418 539 56.18 960.265 400.609
245 0 42.3704 10.7386 455 58.0044 960.123 400.492
246 0 41.1189 10.9439 450 58.5733 960.044 399.364
247 0 46.1037 11.344 523 58.1912 959.665 398.937
248 0 46.1695 14.0569 649 55.5562 959.653 396.761
249 0 49.378 12.941 639 56.3036 959.266 396.031
250 0 47.0558 9.79687 461 60.2213 959.74 395.746
251 0 48.1162 10.8072 520 58.9423 959.687 397.89
252 0 53.1244 13.0825 695 56.3755 960.304 393.963
253 0 53.3128 10.1664 542 59.5609 959.5 395.33
254 0 56.1873 10.287 578 59.4965 959.668 392.941
255 0 59.459 12.0924 719 56.9958 959.926 395.209
256 0 57.1287 13.1633 752 57.4176 960.237 390.239
257 0 63.2884 12.4825 790 57.3709 960.956 392.576
258 0 63.188 13.8318 874 56.2506 960.251 390.458
259 0 66.1719 12.2862 813 57.3198 960.096 389.988
260 0 70.0999 11.883 833 57.7923 959.681 388.618
261 1 39.1661 11.6427 456 56.3947 959.836 405.105
262 0 36.2143 8.83628 320 59.8531 960.144 405.472
263 0 39.2398 10.3212 405 58.8568 960.328 402.963
264 0 40.1299 11.0142 442 58.9955 959.837 402.33
265 0 42.1261 10.9671 462 58.7835 959.883 402.102
266 0 43.0696 11.5627 498 58.9518 959.731 399.823
267 0 47.2518 12.5498 593 56.4115 959.858 401.116
268 0 46.2146 12.1607 562 58.2758 959.617 398.171
269 0 46.0504 13.3767 616 57.4708 959.881 395.456
270 0 48.0585 12.3391 593 57.8954 959.651 398.364
271 0 51.2451 12.7232 652 57.2653 958.977 395.541
272 0 53.2403 11.2509 599 58.8297 959.648 392.427
273 0 54.1653 11.1141 602 58.2492 959.772 395.44
274 0 56.1491 14.4081 809 55.4784 959.714 391.878
275 0 58.1528 11.6074 675 58.2193 959.514 389.767
276 0 60.2018 13.3385 803 56.2341 959.772 388.268
277 0 60.07 12.2357 735 57.4286 959.893 386.849
278 0 62.2109 12.9077 803 56.5131 959.41 386.031
279 0 66.1508 13.0913 866 55.5335 959.23 387.379
280 0 67.1619 11.033 741 57.6775 958.968 383.015
281 0 69.0567 12.1494 839 56.2277 958.931 381.501
282 0 72.0568 12.2681 884 55.8179 959.014 383.826
283 0 74.2022 11.3608 843 56.4211 959.181 383.954
284 0 79.0965 12.2635 970 55.5845 959.247 381.186
285 1 38.0622 10.2727 391 56.6394 959.724 399.747
286 0 39.0744 9.26437 362 57.4365 958.666 396.497
287 0 41.0705 11.1029 456 55.6535 958.895 397.759
288 0 42.0942 12.472 525 54.701 959.244 396.64
289 0 42.0477 11.9864 504 55.3571 959.393 394.786
290 0 47.0835 11.7663 554 54.9224 958.653 395.836
291 0 46.0656 12.4171 572 55.4266 959.171 393.537
292 0 48.1546 13.0829 630 54.9127 958.652 393.77
293 0 49.1488 11.3736 559 56.9267 958.818 392.535
294 0 50.1024 10.7979 541 57.939 958.978 390.793
295 0 51.0947 9.64875 493 59.4645 959.231 390.01
296 0 55.1532 12.1299 669 56.4006 958.767 388.229
297 0 58.2648 12.3917 722 55.5776 959.488 391.177
298 0 56.1045 12.2806 689 56.7939 959.62 388.395
299 0 60.1614 10.7877 649 57.433 958.972 386.824
300 0 61.3111 13.3744 820 55.2183 958.606 389.309
301 0 65.0666 11.9262 776 56.2384 958.716 386.26
302 0 64.0299 11.2447 720 57.5319 958.453 383.593
303 0 71.1412 12.9039 918 54.8595 958.914 384.205
304 0 72.1267 13.504 974 54.7608 959.024 384.002
305 0 73.1165 12.4732 912 56.1689 959.397 381.104
306 0 75.2191 12.3639 930 56.2011 958.961 381.019
307 0 76.0901 11.4995 875 57.3817 959.2 378.338
308 0 81.2947 14.429 1173 54.0895 958.935 379.023
309 0 83.1138 12.7536 1060 55.9387 959.366 378.777
310 1 37.0373 8.85593 328 58.1402 959.36 398.265
311 0 39.0168 10.6108 414 56.5314 958.737 396.408
312 0 43.0375 12.8725 554 53.8014 958.552 396.496
313 0 46.1093 11.9282 550 54.4873 958.365 396.182
314 0 47.0832 11.0018 518 55.0097 959.39 397.531
315 0 48.0923 11.6443 560 54.6321 959.745 397.198
316 0 50.0628 11.5655 579 55.0104 959.924 395.054
317 0 50.0508 11.3085 566 55.5477 959.454 393.403
318 0 52.0782 12.6733 660 54.553 959.367 391.294
319 0 52.0139 11.4969 598 55.8344 958.881 391.93
320 0 59.0493 11.0924 655 54.9191 958.064 393.098
321 0 60.1973 12.675 763 53.7667 958.354 391.547
322 0 59.1705 11.6105 687 55.6943 958.732 387.646
323 0 65.196 10.9823 716 55.0307 958.761 392.318
324 0 69.0728 11.886 821 53.6346 958.817 391.515
325 0 69.0804 12.319 851 54.1739 958.61 389.555
326 0 70.0781 13.1568 922 53.7777 958.089 387.351
327 1 31.0139 8.77025 272 57.114 958.82 401.798
328 0 34.0974 11.5844 395 53.9266 959.058 405.461
329 0 40.0548 12.8075 513 51.6433 958.581 404.959
330 0 39.1604 12.3084 482 52.9938 957.946 403.083
331 0 39.0328 13.2709 518 53.0869 958.471 400.515
332 0 41.1954 10.2681 423 55.513 959.09 402.18
333 0 43.0479 11.8705 511 53.7476 959.554 402.364
334 0 44.089 10.7737 475 54.6084 960.084 402.672
335 0 43.0368 13.5466 583 53.1098 959.928 400.684
336 0 46.1108 11.082 511 54.7476 959.984 401.746
337 0 47.0925 13.2505 624 52.7179 959.337 400.784
338 0 48.1855 14.1121 680 52.2897 959.257 399.416
339 0 49.034 12.3792 607 53.9918 959.311 397.316
340 0 51.1169 11.0727 566 55.1095 959.261 396.712
341 0 51.0288 14.0313 716 52.4651 959.103 396.948
342 0 53.1128 11.8804 631 54.7448 958.691 395.824
343 0 57.1237 14.0922 805 51.9578 958.969 395.004
344 0 56.0912 13.585 762 52.4908 958.286 395.875
345 0 58.0711 12.3469 717 54.1688 958.718 395.192
346 0 59.0824 12.2202 722 54.0125 959.17 395.105
347 0 60.0735 10.9033 655 56.2519 958.705 388.71
348 0 63.1684 9.57757 605 56.6397 958.888 391.797
349 0 65.1059 12.5949 820 54.65 958.72 387.534
350 0 67.0787 12.3139 826 54.7058 958.898 389.304
351 0 69.1016 11.3456 784 55.2577 958.662 385.32
352 0 70.2784 11.1841 786 55.8219 958.503 385.144
353 0 73.1885 11.163 817 55.5165 958.133 384.198
354 0 75.1822 11.3458 853 55.5346 958.516 383.034
355 0 77.0409 12.3311 950 54.7789 957.816 380.274
356 1 42.0426 11.8213 497 52.9396 958.501 397.787
357 0 42.0542 11.6041 488 53.9918 958.131 396.984
358 0 44.0229 9.35876 412 55.7015 958.604 398.515
359 0 44.0842 9.82212 433 55.8822 958.88 394.462
360 0 46.0797 13.1728 607 52.5058 958.649 395.806
361 0 48.0333 11.9292 573 53.7033 958.792 394.178
362 0 49.1141 12.7458 626 53.1917 958.899 394.97
363 0 46.0302 10.6017 488 55.4713 959.053 390.393
364 0 50.032 10.0136 501 58.8363 959.044 340.425
365 0 53.0487 11.1218 590 57.9797 959.493 338.558
366 0 51.141 9.48359 485 59.7608 958.975 336.262
367 0 55.0724 12.184 671 57.6587 958.855 330.987
368 0 59.0514 11.3799 672 57.9911 958.982 329.068
369 0 58.0739 9.31571 541 60.6599 958.591 325.525
370 0 63.0657 11.8607 748 58.5267 958.471 321.269
371 0 64.0721 12.4391 797 58.4442 958.689 318.454
372 0 61.0564 8.53309 521 63.5125 958.664 316.345
373 1 101.167 7.6705 776 62.4729 958.661 336.369
374 0 109.061 8.28891 904 62.6018 958.451 325.785
375 0 110.161 10.4574 1152 60.0955 959.053 333.083
376 0 116.05 11.2021 1300 59.9477 959.139 326.725
377 0 107.09 2.87607 308 67.737 958.714 331.091
378 1 86.1372 10.5413 908 59.8612 958.891 337.564
379 0 88.0429 10.6539 938 60.0032 959.543 335.837
380 0 86.0373 9.87943 850 57.8388 959.935 363.259
381 0 77.0312 9.68438 746 58.4075 959.65 356.44
382 1 91.1209 10.722 977 61.4084 958.996 326.493
383 1 58.0538 8.47489 492 60.3293 959.049 339.728
384 0 57.0351 10.4497 596 58.0721 958.822 340.289
385 0 57.0905 9.51121 543 59.5414 958.168 332.632
386 0 57.0708 14.3155 817 55.3843 958.745 332.521
387 0 59.0801 13.5071 798 56.208 958.434 332.583
388 0 59.0915 11.626 687 58.3755 958.483 330.247
389 0 63.0331 12.8028 807 57.1276 959.016 326.496
390 0 64.1084 12.4321 797 57.9787 958.595 323.782
391 0 66.0528 12.7322 841 58.0083 959.121 320.868
392 0 72.0704 14.4858 1044 53.7404 959.904 387.809
393 0 75.1132 13.5129 1015 55.0404 959.724 385.632
394 1 37.0234 10.2638 380 56.3237 958.676 404.874
395 0 40.1445 12.3803 497 54.7565 958.843 403.254
396 0 43.0767 14.9269 643 51.7667 959.092 403.462
397 0 43.1219 11.9893 517 55.6441 958.586 402.228
398 0 44.0331 13.0584 575 54.7635 959.216 402.325
399 0 43.1374 8.66996 374 59.2139 959.39 402.85
400 0 48.0788 11.7723 566 55.3922 959.072 404.06
401 0 48.0458 13.0084 625 54.8592 959.162 403.654
402 0 51.171 11.3736 582 56.3969 958.979 402.589
