index division length width area intensity CMx CMy
0 0 56.1166 16.1093 904 146.955 1037.11 268.742
1 0 57.0819 16.0822 918 152.476 1039.24 267.831
2 0 60.057 16.1513 970 147.395 1040.77 268.931
3 0 68.0677 20.1417 1371 119.689 1040.64 265.128
4 0 69.1381 18.5426 1282 128.111 1043.3 266.402
5 0 71.11 18.8862 1343 128.583 1040.91 267.198
6 0 71.0314 17.3585 1233 141.766 1039.84 269.584
7 0 73.085 17.6917 1293 146.896 1040.81 270.525
8 0 71.0655 17.5331 1246 144.714 1040.21 272.238
9 0 75.0979 17.6969 1329 144.73 1039.58 272.55
10 0 76.139 17.074 1300 154.783 1037.92 273.102
11 0 78.0613 17.0763 1333 151.701 1037.57 273.237
12 0 80.2216 16.8907 1355 150.782 1036.74 273.313
13 0 84.1953 16.8893 1422 151.617 1036.89 273.283
14 0 87.1701 16.898 1473 147.616 1036.87 273.45
15 1 46.0891 14.5804 672 162.655 1034.84 294.89
16 0 50.0779 14.3177 717 157.169 1033.97 295.349
17 0 49.0453 15.3328 752 159.525 1035.1 295.456
18 0 52.1417 15.0359 784 167.816 1035.13 295.769
19 0 53.0224 14.9936 795 164.282 1032.8 295.819
20 0 55.2029 14.8905 822 162.988 1033.69 296.672
21 0 57.1136 15.3028 874 160.907 1032.16 296.586
22 0 59.1242 15.3068 905 163.482 1031.1 296.101
23 0 62.1328 15.1289 940 153.14 1029.9 295.724
24 0 64.0682 15.1869 973 156.079 1029.84 295.124
25 0 66.1675 15.4154 1020 160.919 1028.28 295.159
26 0 67.1701 15.8404 1064 156.803 1029.91 295.2
27 0 72.0852 15.5649 1122 157.704 1030.3 294.553
28 0 73.129 15.2744 1117 160.033 1031.02 293.901
29 0 76.2426 15.6736 1195 160.348 1031.25 292.52
30 0 79.186 15.7351 1246 158.971 1030.37 290.371
31 0 82.1585 15.6648 1287 160.256 1030.43 289.542
32 0 84.3598 16.0266 1352 154.476 1030.79 288.382
33 0 88.17 15.7083 1385 159.692 1031.44 287.611
34 0 92.1696 15.5691 1435 160.987 1033.75 287.622
35 0 96.2512 15.8232 1523 155.045 1034.23 286.794
36 0 98.1356 15.9779 1568 158.775 1034.58 285.973
37 0 103.134 15.6883 1618 152.87 1037.49 285.85
38 0 105.203 15.5794 1639 152.091 1036.28 286.21
39 0 108.203 16.1086 1743 147.612 1038.18 285.768
40 1 55.084 14.8682 819 149.385 1037.06 311.557
41 0 58.0884 14.8567 863 151.048 1036.63 311.802
42 0 61.1811 14.6287 895 144.942 1036.52 312.059
43 0 64.0876 15.0419 964 143.444 1037.79 312.448
44 0 66.098 14.887 984 145.353 1038.43 313.44
45 0 68.1109 14.9462 1018 139.787 1039.86 313.804
46 0 71.2237 15.0933 1075 138.626 1039.65 314.014
47 0 73.1391 15.327 1121 133.357 1039.34 315.219
48 0 75.2293 15.1537 1140 140.363 1037.01 316.026
49 0 79.1829 14.8896 1179 138.794 1037.27 317.729
50 0 80.2348 15.2428 1223 132.099 1037.22 319.41
51 0 84.2412 15.2657 1286 135.843 1037.89 319.971
52 0 86.2028 15.3707 1325 138.306 1038.52 321.517
53 0 90.264 15.3217 1383 136.616 1036.99 322.964
54 0 92.1866 15.5554 1434 136.999 1037.15 324.306
55 0 98.2225 15.2816 1501 134.862 1034.99 325.536
56 0 100.16 15.3255 1535 131.253 1035.19 327.287
57 0 105.279 14.9983 1579 139.776 1035.33 328.452
58 0 107.21 15.1572 1625 137.064 1035.52 329.199
59 0 112.416 15.5049 1743 135.008 1036.94 329.702
60 0 115.166 15.9683 1839 132.127 1035.95 330.826
61 1 62.1528 14.3356 891 136.021 1034.91 359.649
62 0 65.1839 14.2366 928 137.075 1035.11 361.606
63 0 67.1212 14.1833 952 132.737 1035.91 363.035
64 0 68.1009 14.038 956 141.271 1036.29 364.545
65 0 70.0953 14.6087 1024 140.922 1034.78 366.808
66 0 73.1635 14.2421 1042 132.131 1035.62 368.204
67 0 75.0502 14.2705 1071 142.663 1033.97 369.762
68 0 80.0746 14.3116 1146 137.779 1035.48 371.318
69 0 80.1444 14.5737 1168 140.642 1034.61 372.765
70 0 85.1221 14.0504 1196 138.283 1034.16 374.063
71 0 87.0647 14.1849 1235 143.848 1035.53 374.829
72 1 46.0746 12.7185 586 142.333 1035.24 398.551
73 0 48.0388 13.3642 642 132.475 1035.75 400.534
74 0 48.0547 13.6303 655 132.394 1036.4 403.34
75 0 49.1189 13.7829 677 129.979 1036.56 405.92
76 0 52.0577 13.4466 700 127.933 1036.57 407.959
77 0 53.1347 13.6257 724 126.269 1037.55 409.913
78 0 53.0619 13.6821 726 122.521 1038.17 411.938
79 0 56.0705 13.8576 777 119.521 1037.95 414.444
80 0 60.0853 13.7471 826 122.384 1037.5 416.321
81 0 62.015 13.5451 840 119.965 1037.52 419.742
82 0 63.0612 14.2401 898 117.85 1037.48 422.267
83 0 66.0636 14.2287 940 112.54 1036.59 424.766
84 0 67.2421 14.1727 953 111.396 1036.94 428.359
85 0 70.1199 13.8049 968 110.052 1036.98 431.152
86 0 72.0483 13.7963 994 114.213 1037.95 435.115
87 0 76.1136 14.163 1078 110.979 1039.71 437.911
88 0 78.1088 13.7757 1076 105.23 1038.49 442.121
89 0 81.1529 13.9983 1136 102.051 1038.81 445.639
90 0 84.0982 14.3047 1203 102.61 1037.68 449.597
91 0 87.0896 13.6756 1191 105.937 1038.93 453.933
92 1 45.0939 11.1323 502 111.076 1039.17 480.442
93 0 48.026 10.9108 524 106.616 1039.45 485.097
94 0 50.0786 11.6816 585 105.029 1040.56 489.441
95 0 52.1147 12.4533 649 102.236 1039.1 494.39
96 0 53.1091 12.2578 651 101.851 1038.25 496.86
97 0 53.1399 11.9496 635 105.587 1036.06 496.424
98 0 55.1193 11.8289 652 99.9525 1038.53 496.345
99 0 59.1657 11.8143 699 99.166 1038.33 493.97
100 0 61.1821 11.997 734 98.4482 1036.41 492.926
101 0 62.1492 11.9229 741 96.5654 1037.82 492.699
102 0 65.1693 11.9535 779 101.13 1037.84 491.067
103 0 68.1119 12.1418 827 101.063 1040.05 489.446
104 0 71.2297 11.8771 846 99.0863 1039.23 487.805
105 0 74.1334 12.7743 947 99.3791 1038.37 486.642
106 0 76.2016 12.585 959 104.498 1035.22 485.882
107 0 80.2234 12.2782 985 106.968 1036.09 484.149
108 0 83.1669 13.034 1084 105.15 1036.84 482.042
109 1 42.0876 11.0959 467 101.696 1035.9 501.874
110 0 42.0452 11.8682 499 105.553 1038.02 501.046
111 0 43.0224 12.2494 527 106.66 1038.63 500.051
112 0 46.0122 11.9968 552 112.236 1039.89 498.679
113 0 47.1198 12.2666 578 110.273 1039.12 497.836
114 0 47.0592 12.7712 601 115.165 1037.53 496.96
115 0 50.1206 12.4101 622 111.682 1040.56 496.672
116 0 53.1128 12.577 668 109.639 1039.97 494.781
117 0 53.0625 12.7208 675 114.879 1039.86 494.274
118 0 54.192 12.917 700 112.547 1037.16 493.419
119 0 57.131 12.6901 725 110.724 1037.85 492.124
120 0 58.1027 12.9598 753 110.007 1036.94 491.126
121 0 60.1202 13.5894 817 113.627 1037.85 490.131
122 0 62.0585 12.9555 804 111.582 1038.41 489.175
123 0 66.0691 12.8502 849 113.491 1036.97 487.895
124 0 66.0954 12.9207 854 113.286 1036.93 487.17
125 0 70.0968 12.8394 900 116.333 1036.68 485.487
126 0 72.0535 13.6149 981 112.529 1038.97 484.207
127 0 75.1071 12.7551 958 113.791 1038.57 483.353
128 0 77.1286 12.9913 1002 112.67 1038.51 482.005
129 0 82.1146 12.2755 1008 109.351 1039.75 481.234
130 1 41.1242 11.3315 466 115.23 1039.01 499.296
131 0 41.0721 11.8328 486 111.603 1039.27 498.516
132 0 43.0249 12.3417 531 110.49 1040.61 497.443
133 0 44.0676 12.7985 564 111.544 1037.27 497.156
134 0 47.0928 12.1887 574 115.873 1036.63 495.592
135 0 47.1227 12.5842 593 116.084 1036.74 495.3
136 0 47.0884 13.0181 613 111.755 1035.77 494.747
137 0 49.1448 13.0228 640 113.706 1036.82 494.577
138 0 52.1041 12.8973 672 110.463 1037.76 493.537
139 0 51.1976 13.4186 687 113.202 1038.8 492.802
140 0 54.1716 12.8111 694 117.611 1038.1 492.903
141 0 56.0177 13.1209 735 118.162 1035.98 491.193
142 0 57.1063 13.9914 799 112.035 1036.9 489.951
143 0 59.0503 13.3615 789 117.833 1036.34 490.218
144 0 62.02 13.6569 847 117.656 1034.86 488.991
145 1 75.1331 13.8687 1042 118.556 1038.12 480.23
146 0 77.1528 13.713 1058 126.356 1037.05 479.92
147 0 81.1217 13.942 1131 126.294 1036.72 479.021
148 0 83.2787 13.9171 1159 126.292 1036.57 477.651
149 0 85.1701 13.9251 1186 129.518 1035.02 476.946
150 0 87.1882 14.1992 1238 134.863 1034.82 475.559
151 0 91.2421 14.204 1296 134.948 1036.07 474.246
152 0 94.3372 14.2998 1349 135.491 1037.27 473.534
153 1 50.1627 12.7186 638 23.0392 1036.38 494.749
154 0 49.298 13.8748 684 141.205 1037.92 493.399
155 0 51.2778 14.0021 718 135.737 1036.17 493.153
156 0 53.239 14.0311 747 139.339 1034.5 491.987
157 0 55.3018 14.1948 785 137.987 1035.64 492.073
158 0 57.1629 14.1176 807 139.031 1034.84 490.487
159 0 59.2504 13.8564 821 136.932 1034.48 489.236
160 0 61.237 14.6317 896 138.676 1035.88 488.837
161 0 63.3213 14.3554 909 139.259 1035.79 488.119
162 0 65.3576 14.0611 919 142.684 1036.01 487.338
163 0 65.2635 14.3878 939 141.342 1037.32 486.873
164 0 69.1679 13.9516 965 135.368 1036.56 486.339
165 0 71.2134 14.1406 1007 131.153 1034.62 484.852
166 0 74.2596 14.1127 1048 144.668 1035.39 484.132
167 0 77.2041 14.2739 1102 148.103 1034.12 482.932
168 0 79.3204 13.9056 1103 149.686 1034.48 482.248
169 0 81.3386 14.3966 1171 149.337 1035.01 480.528
170 0 84.2545 14.3138 1206 144.182 1034.08 479.635
171 0 87.3216 14.2233 1242 147.758 1036.82 477.413
172 0 89.2106 14.079 1256 154.927 1037.31 476.897
173 0 94.3766 14.0925 1330 143.882 1034.27 474.829
174 0 97.2476 14.3654 1397 145.009 1034.66 472.874
175 0 100.486 14.2309 1430 149.184 1035.31 471.502
176 1 54.1703 12.9407 701 156.783 1036.84 493.385
177 0 55.0957 13.7034 755 149.678 1034.48 492.893
178 0 59.0408 13.55 800 149.34 1034.09 491.706
179 0 62.302 13.2419 825 152.165 1035.09 489.993
180 0 64.1869 13.2114 848 150.639 1034.73 488.863
181 0 67.0868 13.1322 881 145.549 1034.35 487.61
182 0 69.1563 13.1875 912 148.264 1036.47 486.5
183 0 71.2314 13.3509 951 143.097 1035.46 484.807
184 0 72.2641 13.7828 996 148.917 1036.35 483.47
185 0 75.4369 13.6008 1026 151.498 1035.38 482.314
186 0 79.3284 13.4882 1070 147.066 1036.13 480.528
187 0 83.3997 13.6931 1142 145.222 1035.53 479.709
188 0 85.2374 13.6912 1167 146.23 1036.92 477.665
189 0 87.2781 13.6117 1188 145.598 1037.06 476.748
190 0 91.3451 13.6844 1250 152.248 1037.69 474.866
191 0 93.1579 14.1588 1319 149.837 1036.09 472.579
192 0 98.2623 13.7998 1356 148.554 1036.49 471.501
193 0 101.364 14.2161 1441 149.632 1035.99 469.539
194 0 104.212 14.1442 1474 151.179 1036.81 468.421
195 0 108.259 14.2806 1546 148.734 1037.17 465.445
196 0 112.368 14.3547 1613 142.649 1036.73 463.89
197 0 115.491 14.512 1676 154.095 1036.75 461.33
198 0 119.408 14.4295 1723 152.384 1035.04 459.262
199 0 124.201 14.5973 1813 152.742 1035.2 457.194
200 0 128.426 14.4753 1859 152.019 1036.75 455.216
201 1 66.3338 12.9195 857 150.399 1037.01 484.821
202 0 70.4422 13.0746 921 146.635 1036.71 484.076
203 0 72.2125 13.211 954 151.243 1036.91 483.103
204 0 73.2897 13.6036 997 150.775 1037.91 481.311
205 0 75.3447 13.5909 1024 145.467 1038.91 480.567
206 0 80.4528 13.2624 1067 149.598 1037.38 478.599
207 0 83.3984 13.1777 1099 153.126 1037.65 477.991
208 0 84.4396 13.5481 1144 152.816 1037.12 475.875
209 0 89.5621 13.298 1191 145.427 1037.22 475.205
210 0 92.3876 13.465 1244 153.483 1037.98 473.534
211 0 96.3226 13.4859 1299 148.115 1036.58 470.698
212 0 100.248 13.5564 1359 153.897 1036.55 468.356
213 0 100.266 13.6138 1365 150.623 1037.78 466.848
214 0 107.246 13.5483 1453 148.222 1038.02 464.103
215 1 57.0511 11.4108 651 146.736 1038.14 490.614
216 0 57.1311 11.7799 673 146.223 1037.29 489.814
217 0 59.1281 12.0586 713 140.665 1037.46 487.965
218 0 60.0887 12.4982 751 141.776 1035.95 487.35
219 0 63.0904 12.2047 770 144.942 1036.9 486.462
220 0 66.0524 12.3538 816 143.525 1037.27 484.798
221 0 67.115 12.4264 834 142.601 1037.83 483.801
222 0 67.0714 12.9862 871 140.82 1038.65 482.076
223 0 71.0519 12.6809 901 140.046 1035.44 480.688
224 0 74.1628 12.486 926 134.414 1035.9 479.837
225 0 75.1699 12.7977 962 137.234 1035.25 478.396
226 0 78.0682 12.5659 981 134.536 1037.15 477.067
227 0 81.1683 12.5911 1022 131.12 1038.61 475.551
228 0 84.1222 12.9217 1087 131.572 1038.63 475.041
229 0 86.3763 12.8739 1112 134.772 1038.91 473.118
230 0 90.3055 12.7567 1152 135.46 1038.04 471.885
231 0 92.2413 12.7925 1180 135.234 1035.23 469.732
232 0 95.3008 12.98 1237 125.196 1035.68 467.897
233 1 49.1011 10.7737 529 123.616 1035.03 491.783
234 0 50.2052 11.0148 553 126.602 1037.85 491.257
235 0 53.1184 11.4085 606 117.525 1037.51 489.521
236 0 54.1082 11.6249 629 121.879 1037.49 488.938
237 0 56.122 11.8135 663 124.756 1035.1 488.57
238 0 57.1517 11.7757 673 120.976 1039.06 487.926
239 0 59.1051 11.9956 709 117.123 1035.18 486.66
240 0 60.0994 12.0634 725 127.469 1037.53 486.132
241 0 60.0994 12.0634 725 152.829 1040.53 486.132
242 0 65.1197 11.763 766 127.166 1039.02 483.728
243 0 66.0521 12.0057 793 126.13 1037.26 482.607
244 0 70.1404 11.8334 830 123.271 1036.79 480.774
245 0 72.2381 12.3065 889 125.915 1035.76 479.765
246 0 74.1103 11.9551 886 125.017 1037.56 478.534
247 0 77.2319 12.2877 949 122.715 1037.87 477.632
248 0 79.2923 12.435 986 129.689 1036.75 475.53
249 0 82.276 12.3001 1012 138.825 1037.5 475.027
250 0 85.3106 12.39 1057 134.816 1035.87 473.76
251 0 88.372 12.4813 1103 139.684 1036.43 472.493
252 1 48.0369 10.9916 528 144.759 1037.56 492.256
253 0 51.0972 10.8225 553 145.081 1038.26 490.929
254 0 51.0905 11.5286 589 145.976 1038.25 490.667
255 0 52.0797 11.6552 607 140.507 1037.84 489.675
256 0 53.074 12.1529 645 143.316 1037.39 488.788
257 0 56.102 11.7999 662 141.754 1035.09 488.092
258 0 56.1775 12.4249 698 137.155 1034.44 487.595
259 0 59.1096 12.0285 711 143.845 1034.15 487.015
260 0 61.1656 12.0983 740 141.514 1037.18 485.711
261 0 62.1434 12.5999 783 140.525 1036.98 484.921
262 0 64.1008 12.4335 797 142.609 1035.68 483.991
263 0 66.1329 12.1876 806 148.583 1035.11 483.431
264 0 68.0863 12.6457 861 137.675 1035.81 481.97
265 0 70.1426 12.4888 876 142.205 1038.73 481.289
266 0 72.1022 12.4823 900 143.198 1037.2 479.978
267 0 74.1145 13.1418 974 139.197 1036.99 477.415
268 0 75.0833 13.0388 979 144.114 1036.9 477.494
269 0 79.0677 13.0015 1028 142.922 1036.97 476.218
270 0 81.15 12.9636 1052 142.474 1036.81 474.311
271 1 41.0414 11.4275 469 134.243 1036.72 493.35
272 0 45.0307 11.0813 499 134.585 1036.93 491.301
273 0 45.0886 11.8433 534 127.034 1038.9 490.766
274 0 47.1148 11.525 543 131.816 1036.51 490.414
275 0 48.0787 11.502 553 133.105 1037.24 489.492
276 0 50.1631 11.642 584 133.271 1039.04 487.587
277 0 51.0965 12.0752 617 130.175 1038.4 487.496
278 0 52.0877 12.1718 634 133.115 1038.79 487.144
279 0 55.1214 11.8466 653 128.87 1038.45 487.193
280 0 54.107 12.7895 692 134.811 1038.27 488.026
281 0 57.0781 12.8771 735 138.423 1036.79 487.857
282 0 58.0397 12.8188 744 135.219 1036.25 487.331
283 0 60.0901 12.7142 764 136.353 1037.4 486.817
284 0 61.047 12.8262 783 142.134 1037.69 485.955
285 0 63.1024 13.3751 844 139.949 1037.54 485.064
286 0 65.2158 13.279 866 132.606 1037.6 484.798
287 0 67.0622 13.4651 903 138.987 1036.69 483.046
288 0 70.063 13.2309 927 141.598 1036.13 482.481
289 0 71.0319 13.3039 945 134.541 1038.32 482.007
290 0 74.0476 13.3968 992 140.996 1038.52 480.019
291 0 76.1424 13.501 1028 134.834 1036.42 478.075
292 0 79.11 13.5634 1073 135.972 1036.32 477.163
293 0 81.1336 13.4716 1093 140.608 1037.52 475.948
294 0 85.1159 13.4052 1141 137.098 1038.43 474.381
295 0 87.1592 13.2287 1153 138.652 1037.05 472.887
296 1 45.0595 11.962 539 145.254 1039.5 493.577
297 0 48.172 12.4969 602 141.304 1037.4 492.204
298 0 49.1044 12.5243 615 142.467 1036.03 491.782
299 0 49.1062 12.809 629 142.763 1037.42 491.421
300 0 52.1242 12.8347 669 140.079 1037.75 490.339
301 0 53.1222 13.1207 697 142.466 1037.89 490.129
302 0 52.078 13.4414 700 135.797 1037.98 489.924
303 0 56.1043 12.958 727 143.182 1039.18 489.348
304 0 56.0999 13.5294 759 144.752 1039.2 488.275
305 0 59.1231 13.1421 777 145.371 1037.01 487.539
306 0 59.0795 13.338 788 141.327 1037.57 487.353
307 0 62.2123 13.0682 813 145.528 1037.92 486.223
308 0 62.1512 13.1454 817 144.288 1037.89 485.766
309 0 65.1043 13.3939 872 149.346 1037.31 485.026
310 0 67.1216 13.4234 901 152.366 1035.76 483.797
311 0 71.1155 13.6257 969 148.231 1037.18 481.888
312 0 73.1669 13.6537 999 149.431 1038.33 481.422
313 0 76.0853 13.5506 1031 150.277 1037.82 479.847
314 0 78.1055 13.9811 1092 152.387 1038.13 477.823
315 0 79.0938 14.1351 1118 149.7 1038.93 477.178
316 0 83.1079 14.0179 1165 151.496 1036.81 475.753
317 0 87.099 13.8693 1208 156.132 1038.64 474.439
318 0 89.1058 14.0956 1256 154.198 1038.48 472.631
319 1 44.1229 13.1451 580 150.338 1038.73 493.774
320 0 47.175 12.8246 605 151.074 1037.42 493.398
321 0 49.1932 12.6847 624 157.402 1037.49 492.08
322 0 51.0662 12.7286 650 151.515 1037.11 491.652
323 0 53.0471 13.0639 693 152.215 1036.73 490.733
324 0 55.0773 13.0544 719 149.018 1036.81 489.588
325 0 56.1164 12.9196 725 151.393 1036.13 488.188
326 0 55.0464 13.2979 732 154.878 1035.26 488.038
327 0 58.0724 13.3282 774 146.08 1035.06 486.404
328 0 62.0796 13.1766 818 150.831 1035.35 485.016
329 0 64.0931 13.2932 852 147.061 1038.14 483.978
330 0 65.0168 13.5196 879 147.623 1037.06 483.284
331 0 69.0921 13.4603 930 146.24 1036.34 481.774
332 0 70.1264 13.5327 949 149.694 1039.07 480.701
333 0 74.1395 13.4341 996 147.058 1037.84 478.769
334 0 76.0462 13.4129 1020 148.793 1038.28 477.241
335 0 77.1628 13.789 1064 151.939 1035.79 476.313
336 0 81.1729 13.502 1096 149.408 1037.56 474.433
337 0 83.1649 13.7197 1141 155.662 1038.16 472.868
338 0 89.1129 13.8476 1234 157.867 1036.29 470.35
339 0 92.1732 13.5397 1248 156.49 1036.94 469.507
340 1 48.0583 11.9646 575 160.53 1037.76 490.447
341 0 49.0812 13.2841 652 159.483 1037.48 489.236
342 0 50.1755 13.2136 663 152.116 1037.36 488.617
343 0 51.1243 13.7117 701 154.877 1038.34 487.812
344 0 55.0756 13.1819 726 157.105 1037.02 486.368
345 0 57.0808 13.3145 760 153.7 1037.74 485.816
346 0 57.0808 13.3145 760 172.928 1038.74 485.816
347 0 59.0737 13.9656 825 145.302 1038.57 484.444
348 0 62.0812 13.2407 822 156.481 1038.17 483.335
349 0 63.1084 14.1503 893 155.62 1036.85 482.157
350 0 63.344 14.2397 902 158.15 1038.18 481.731
351 0 68.1572 13.953 951 157.65 1037.88 480.147
352 0 69.1529 13.8534 958 154.298 1038.29 479.314
353 0 73.1354 13.6733 1000 153.549 1037.67 477.724
354 0 75.0589 13.949 1047 153.92 1038.71 476.877
355 0 75.0589 13.949 1047 179.535 1039.71 476.877
356 0 80.1618 13.9593 1119 149.564 1038.69 473.525
357 0 81.1565 14.3303 1163 152.023 1039.86 471.855
358 0 85.206 13.8136 1177 148.195 1040.13 471.001
359 0 89.3288 13.9821 1249 152.753 1039.79 468.736
360 0 93.2171 14.0425 1309 145.386 1037.79 466.483
361 0 96.2536 13.7138 1320 152.573 1039.36 465.008
362 0 97.2436 14.0883 1370 144.975 1037.11 463.526
363 0 102.34 13.6897 1401 155.391 1037.08 461.007
364 1 54.0304 11.475 620 152.195 1037.71 484.973
365 0 56.3636 12.7387 718 149.557 1035.11 484.184
366 0 56.1092 12.8856 723 151.151 1038.3 485.499
367 0 55.0366 13.5183 744 149.44 1037.85 484.836
368 0 58.2538 13.0979 763 151.016 1040.06 483.353
369 0 62.2114 12.6343 786 144.995 1039.46 482.485
370 0 66.1924 12.932 856 146.701 1039.63 481.286
371 0 66.2268 13.2726 879 149.484 1038 480.147
372 0 69.0893 13.1424 908 141.746 1039.36 479.183
373 0 70.2568 13.5503 952 142.459 1039.71 477.691
374 0 73.261 13.3086 975 139.33 1038.71 476.234
375 0 77.1397 12.9635 1000 143.819 1039.14 474.811
376 0 78.1316 12.9909 1015 139.173 1037.92 472.156
377 0 82.3355 12.5827 1036 141.399 1038.54 470.384
378 0 86.1295 12.5393 1080 139.119 1038.53 468.893
379 0 87.1978 12.5691 1096 132.525 1037.76 467.755
380 0 90.3185 13.0317 1177 135.13 1037.85 466.413
381 0 94.0683 12.7035 1195 139.191 1037.59 463.84
382 1 51.0414 11.5201 588 63.6973 1037.12 485.287
383 0 53.0488 12.1963 647 136.124 1037.41 484.096
384 0 53.147 12.5501 667 141.093 1039.16 483.664
385 0 57.1095 12.0821 690 134.546 1037.7 483.223
386 0 57.0913 12.191 696 135.131 1038.4 482.125
387 0 58.0266 12.8562 746 138.747 1035.7 481.338
388 0 61.0696 12.7396 778 140.636 1037.66 480.386
389 0 63.1425 12.8915 814 139.606 1035.91 479.111
390 0 65.0611 12.6496 823 144.571 1038.42 478.6
391 0 67.1049 13.0989 879 140.879 1038.64 477.732
392 0 69.1045 12.908 892 144.323 1038.96 476.543
393 0 72.168 12.9975 938 139.373 1037.51 475.441
394 0 73.0994 13.1739 963 145.347 1038.77 474.781
395 0 74.1344 13.6779 1014 143.813 1038.37 473.322
396 0 79.1071 13.4122 1061 127.993 1037.46 472.369
397 0 81.1393 13.2611 1076 143.526 1038.02 471.215
398 0 82.2988 13.4024 1103 139.087 1038.07 470.434
399 0 85.2503 13.736 1171 140.366 1038.54 468.14
400 0 89.2451 13.4573 1201 145.541 1038.57 466.865
401 0 91.3006 13.921 1271 141.034 1038.74 465.702
