index division length width area intensity CMx CMy
2526 0 75.2603 11.3871 857 109.805 1309.88 466.127
2527 0 78.1647 11.5141 900 104.541 1307.46 465.211
2528 0 80.2031 10.9472 878 109.141 1309.98 462.308
2529 1 40.01 9.54761 382 109.034 1309.24 483.851
2530 0 43.0671 10.1005 435 118.326 1308.92 482.846
2531 0 43.0624 10.8679 468 93.3846 1308.09 481.449
2532 0 44.0403 10.8537 478 105.481 1307.72 480.421
2533 0 45.1458 12.0055 542 106.45 1308.04 480.341
2534 0 47.1023 10.9336 515 43.6078 1306.5 479.287
2535 0 38.1325 7.42148 283 106.841 1309.12 482.696
2536 0 35.0326 5.90878 207 122.807 1308.89 485.425
2537 0 34.0149 6.49715 221 113.122 1306.87 485.036
2538 0 34.0479 6.75518 230 117.965 1306.77 484.243
2539 0 35.0833 6.61284 232 114.608 1306.34 484.72
2540 0 37.011 7.29513 270 111.289 1306.38 484.293
2541 0 36.0129 9.55214 344 114.198 1306.35 481.442
2542 0 36.0751 9.67427 349 111.831 1304.27 481.633
2543 1 124.486 13.8248 1721 110.101 1305.63 438.451
2544 1 141.401 11.0112 1557 113.197 1305.83 430.47
2545 0 140.563 11.4326 1607 110.437 1305.59 430.987
2546 0 139.65 11.5718 1616 108.406 1307.63 430.89
2547 0 138.519 12.9513 1794 113.075 1306.63 429.561
2548 0 138.507 11.2991 1565 116.987 1307.73 432.046
2549 0 148.5 14.8619 2207 95.536 1307.02 427.373
2550 0 154.614 14.7981 2288 93.8392 1308.82 422.966
2551 0 159.673 14.3856 2297 94.8476 1305.64 420.539
2552 0 159.458 12.8812 2054 98.3661 1306.38 424.603
2553 0 159.871 12.7603 2040 108.713 1307.32 421.697
2554 0 159.456 12.2228 1949 105.485 1307.14 421.735
2555 1 88.3186 13.4739 1190 107.955 1307.77 459.616
2556 0 89.2621 11.8303 1056 111.052 1309.07 457.292
2557 1 51.0879 12.5078 639 103.238 1308.47 478.078
2558 0 49.1277 13.5361 665 99.5353 1307.82 476.883
2559 0 52.0708 12.8287 668 117.111 1307.28 476.496
2560 0 54.1133 12.9358 700 99.8086 1307.93 475.637
2561 0 54.1083 13.4915 730 101.337 1306.66 474.856
2562 0 56.2271 13.4277 755 102.419 1306.86 473.87
2563 0 57.0897 13.7153 783 101.416 1306.09 473.943
2564 0 60.1662 13.6954 824 102.087 1305.72 471.945
2565 0 63.057 13.6543 861 101.574 1305.42 472.042
2566 0 63.1226 14.7808 933 93.3548 1304.74 470.596
2567 0 64.0851 14.6212 937 98.9968 1304.05 469.778
2568 0 68.0926 14.7299 1003 95.682 1304.66 468.247
2569 0 67.0804 15.1609 1017 102.481 1305.66 467.529
2570 0 70.2157 14.6976 1032 100.032 1305.63 466.674
2571 0 72.1158 15.0037 1082 93.9261 1302.58 465.683
2572 0 74.1859 14.3693 1066 98.409 1305 464.546
2573 0 75.1805 13.8467 1041 103.667 1305.51 462.729
2574 0 80.2087 14.6742 1177 100.099 1304.19 463.34
2575 0 83.1828 13.6446 1135 104.165 1306.12 461.061
2576 0 85.0515 13.968 1188 106.76 1306.16 459.726
2577 0 89.2146 13.9775 1247 106.703 1304.65 459.407
2578 1 46.0955 12.0402 555 117.993 1306.4 478.957
2579 0 49.0764 12.4704 612 128.732 1304.18 477.477
2580 0 50.1409 12.7042 637 126.699 1305.74 476.612
2581 0 51.0627 13.1603 672 121.399 1304.11 475.927
2582 0 54.0631 13.0958 708 125.966 1304.94 476.281
2583 0 56.0917 12.9966 729 121.32 1305.23 474.35
2584 0 55.1248 13.279 732 107.116 1305.49 472.473
2585 0 57.1003 13.7302 784 104.347 1304.31 471.092
2586 0 59.1009 13.6546 807 102.108 1305.38 470.803
2587 0 61.0684 14.6066 892 102.946 1306.5 469.626
2588 0 63.1019 13.7238 866 104.543 1308.08 468.249
2589 0 63.1019 13.7238 866 131.118 1310.08 468.249
2590 0 70.1525 14.1834 995 109.899 1306.27 465.832
2591 0 72.1814 14.0756 1016 108.85 1306.05 464.57
2592 0 77.2253 14.3865 1111 106.353 1306.17 463.898
2593 0 77.2264 14.71 1136 103.085 1306.84 462.587
2594 0 80.1776 14.9668 1200 97.3117 1307.22 461.114
2595 0 85.2953 15.6281 1333 92.7104 1305.95 459.058
2596 1 41.1855 13.16 542 89.0609 1303.63 479.834
2597 0 41.1855 13.16 542 153.779 1301.63 479.834
2598 0 45.1946 12.413 561 99.107 1306.21 479.118
2599 0 46.2277 12.7413 589 106.066 1306.35 478.2
2600 0 47.1378 13.4287 633 111.859 1305.38 477.52
2601 0 48.0971 12.849 618 116.367 1305.05 476.71
2602 0 49.126 13.2924 653 111.813 1307.06 476.139
2603 0 51.1221 13.2819 679 110.552 1306.16 475.462
2604 0 53.0925 13.9003 738 104.102 1307.65 473.82
2605 0 55.0915 14.3579 791 105.689 1305.47 473.686
2606 0 57.1061 13.7814 787 108.973 1307.15 472.752
2607 0 59.1168 13.3126 787 113.485 1306.98 472.358
2608 0 61.1279 13.5617 829 108.55 1307.93 469.832
2609 0 63.1006 14.2471 899 105.459 1306.42 470.211
2610 0 65.0672 14.754 960 100.819 1306.75 468.043
2611 0 68.1133 15.1659 1033 104.109 1308.77 468.086
2612 0 70.1738 14.2788 1002 104.228 1309.27 467.672
2613 0 73.0707 14.9855 1095 113.289 1306.34 466.246
2614 0 75.0586 14.935 1121 107.651 1305.33 463.946
2615 0 78.0938 14.5082 1133 110.572 1307.12 462.498
2616 0 81.1256 14.5084 1177 126.795 1304.03 460.975
2617 1 44.0174 12.4723 549 127.393 1305.94 479.395
2618 0 46.031 11.9919 552 117.453 1305.62 479.342
2619 0 47.0356 12.7563 600 121.26 1305.28 477.69
2620 0 48.0576 13.4006 644 115.04 1306.89 477.084
2621 0 49.1184 13.7016 673 118.597 1306.09 476.646
2622 0 50.0867 13.8759 695 122.055 1306.53 475.986
2623 0 52.0788 13.422 699 117.697 1304.85 475.053
2624 0 53.0876 13.4871 716 113.837 1303.73 474.158
2625 0 55.1014 13.5387 746 121.784 1302.19 472.843
2626 0 57.1292 13.4257 767 121.545 1302.95 471.359
2627 0 59.1117 12.8232 758 140.43 1301.5 471.169
2628 0 60.0921 13.4793 810 135.743 1302.27 469.849
2629 0 63.1707 13.5348 855 140.342 1302.44 468.669
2630 0 64.1767 13.3382 856 149.306 1303.64 468.105
2631 0 66.0585 13.7 905 138.771 1302.94 467.045
2632 0 70.1143 13.1072 919 149.33 1304.58 466.235
2633 0 72.122 13.3662 964 148.285 1303.59 464.657
2634 0 74.1386 13.785 1022 147.279 1306.45 463.044
2635 0 77.0392 13.4737 1038 149.18 1306.93 461.764
2636 1 42.1475 11.3886 480 146.877 1305.49 479.248
2637 0 43.0805 11.4901 495 146.745 1303.77 478.257
2638 0 44.0709 12.4572 549 139.812 1305.76 478.071
2639 0 43.0711 12.7696 550 143.236 1307.71 477.269
2640 0 46.0976 13.0159 600 138.508 1307.58 476.192
2641 0 48.1542 12.8753 620 141.082 1305.13 475.982
2642 0 49.1226 12.9472 636 141.989 1306.64 475.695
2643 0 51.1544 13.1171 671 142.41 1305.32 475.235
2644 0 53.1908 12.8218 682 137.818 1305.26 474.183
2645 0 54.2723 12.8427 697 137.485 1303.29 473.56
2646 0 54.2723 12.8427 697 155.607 1301.29 473.56
2647 0 59.0948 13.0976 774 144.068 1306.45 472.632
2648 0 59.0597 13.3255 787 131.897 1303.17 471.459
2649 0 61.131 13.2502 810 133.015 1304.68 470.378
2650 0 63.1272 13.4015 846 141.501 1300.44 468.953
2651 0 63.084 13.9972 883 150.448 1304.37 468.173
2652 0 67.1103 13.2468 889 147.585 1305.85 467.55
2653 0 70.1582 13.9114 976 143.677 1308.05 465.306
2654 0 72.1066 14.0625 1014 142.683 1309.48 463.965
2655 0 73.1229 13.8397 1012 144.018 1307.91 463.061
2656 0 77.2958 13.9464 1078 150.609 1309.58 461.713
2657 0 80.1856 14.0549 1127 148.245 1307.62 460.435
2658 0 84.1931 14.2411 1199 141.003 1307.46 458.056
2659 0 87.0861 14.1699 1234 140.829 1306.13 456.021
2660 1 45.108 11.5279 520 144.844 1305.46 477.588
2661 0 44.2157 13.0497 577 139.158 1307.16 477.023
2662 0 48.2943 12.7137 614 139.243 1304.26 476.173
2663 0 48.1588 13.3101 641 143.281 1306.2 475.861
2664 0 51.3146 12.7254 653 140.726 1306.37 474.597
2665 0 52.1967 13.1809 688 141.805 1304.89 473.842
2666 0 54.2427 13.6055 738 125.78 1307.8 473.243
2667 0 54.216 13.4462 729 136.738 1307.33 472.501
2668 0 56.0573 13.3078 746 140.567 1307.13 471.393
2669 0 59.0871 13.7086 810 138.841 1305.87 470.78
2670 0 59.0512 13.7 809 139.806 1307.89 469.528
2671 0 63.0351 13.9605 880 138.383 1306.18 468.53
2672 0 65.0806 14.0902 917 132.059 1307.33 467.206
2673 0 69.0663 14.4644 999 125.337 1306.64 465.893
2674 0 69.2685 14.1767 982 138.62 1305.05 464.939
2675 0 72.224 13.9289 1006 135.968 1303.75 463.115
2676 0 74.2068 14.1766 1052 139.061 1305.86 462.757
2677 0 75.3203 14.6441 1103 138.466 1304.19 461.558
2678 0 80.2527 14.1553 1136 134.509 1305.1 459.88
2679 0 83.2868 14.24 1186 137.622 1305.74 457.748
2680 0 87.275 13.7955 1204 138.437 1304.61 456.871
2681 0 87.2734 14.1968 1239 143.969 1305.32 455.216
2682 0 91.1921 14.7052 1341 131.145 1305.6 452.57
2683 0 95.3051 14.3644 1369 131.252 1306.3 451.657
2684 0 97.2985 14.3887 1400 138.5 1307.06 450.352
2685 1 52.0758 12.8274 668 140.907 1305.78 473.027
2686 0 51.0892 12.9773 663 136.3 1305.26 472.911
2687 0 54.0297 12.9373 699 136.742 1305.45 472.973
2688 0 55.0284 13.1205 722 141.434 1306.44 471.075
2689 0 59.0783 12.8812 761 138.003 1305.74 470.848
2690 0 60.0938 13.612 818 138.1 1305.55 468.68
2691 0 62.0351 13.3634 829 138.666 1304.72 467.943
2692 0 62.1092 13.6856 850 140.506 1306.36 467.736
2693 0 65.0552 13.7422 894 142.173 1305.21 466.353
2694 0 68.1164 13.6091 927 140.983 1307.54 465.124
2695 0 70.1048 14.0504 985 137.687 1305.93 464.087
2696 0 72.0568 13.8086 995 144.367 1307.34 462.915
2697 0 75.0929 13.8096 1037 139.781 1306.78 460.974
2698 0 76.1646 14.3242 1091 136.639 1305.64 460.23
2699 0 80.1553 13.9729 1120 143.458 1307.19 459.55
2700 0 81.0868 14.0343 1138 147.173 1308.93 457.924
2701 0 85.145 14.1876 1208 146.22 1310.11 456.845
2702 0 88.2614 14.3098 1263 146.551 1306.92 455.151
2703 0 89.2879 14.3468 1281 147.354 1307.41 454.358
2704 0 94.2613 14.1203 1331 146.856 1309.15 452.044
2705 0 97.1991 14.0845 1369 143.855 1307.34 450.614
2706 0 97.3419 14.3618 1398 142.404 1304.71 448.78
2707 0 103.469 14.1201 1461 143.311 1309.16 446.383
2708 0 107.451 14.2669 1533 138.588 1307.42 444.077
2709 1 59.0751 12.5772 743 143.275 1308.29 468.974
2710 0 61.0769 13.1801 805 141.385 1305.63 467.6
2711 0 62.2123 13.1325 817 135.7 1309.19 466.998
2712 0 66.285 12.9743 860 136.808 1307.56 465.662
2713 0 65.2349 13.5357 883 134.025 1308.46 464.281
2714 0 67.3232 13.3683 900 136.028 1307.9 462.938
2715 0 72.3981 13.4258 972 132.338 1307.18 461.241
2716 0 75.3058 13.4651 1014 137.546 1306.77 460.714
2717 0 77.2897 13.5464 1047 140.652 1306.3 458.936
2718 0 78.2755 13.478 1055 138.771 1305.79 458.337
2719 0 82.3642 13.501 1112 140.44 1307.92 457.12
2720 0 84.3687 13.4884 1138 133.171 1309.83 455.585
2721 0 88.4395 13.4895 1193 133.138 1308.58 453.017
2722 0 90.3325 13.0629 1180 140.645 1306.75 452.326
2723 0 94.3345 13.6641 1289 135.736 1305.31 450.196
2724 0 96.2963 13.8842 1337 134.897 1307.44 448.934
2725 0 102.254 13.7011 1401 134.201 1307.18 446.303
2726 1 55.0317 12.5746 692 131.853 1308.56 469.809
2727 0 57.0326 12.4841 712 134.823 1305.59 468.719
2728 0 58.0562 12.3156 715 140.523 1305.97 468.534
2729 0 61.0366 12.3533 754 140.027 1303.64 467.269
2730 0 62.1765 12.7701 794 139.577 1307.42 466.037
2731 0 64.0762 13.2499 849 133.324 1306.08 464.423
2732 0 67.0543 12.6912 851 138.469 1304.58 463.404
2733 0 69.0646 13.4946 932 138.704 1308.89 461.686
2734 1 48.0167 11.5585 555 145.814 1303.01 472.582
2735 0 49.0513 11.3147 555 147.234 1303.57 473.64
2736 0 50.124 11.2721 565 144.878 1302.45 474.103
2737 0 52.0786 11.3866 593 143.501 1308.44 473.172
2738 0 54.0806 11.9821 648 139.455 1306.65 472.696
2739 0 55.0533 12.2972 677 139.456 1306.86 472.29
2740 0 56.1049 12.744 715 139.808 1304.93 471.333
2741 0 59.2039 12.5836 745 136.338 1306.27 470.213
2742 0 61.2533 12.4728 764 138.47 1304.82 470.102
2743 0 63.1836 12.4874 789 142.714 1307.33 469.113
2744 0 65.1653 12.4913 814 145.91 1307.22 468.574
2745 0 66.16 12.9383 856 144.459 1306.01 468.007
2746 0 69.2099 12.9895 899 144.139 1308.67 466.498
2747 0 73.079 13.0817 956 141.395 1308.5 464.858
2748 0 74.1308 13.3818 992 145.489 1307.86 464.077
2749 0 76.1465 13.4346 1023 142.186 1308.51 462.7
2750 0 80.2517 13.2832 1066 157.834 1306.17 461.56
2751 0 84.2072 13.2649 1117 146.598 1307.27 459.969
2752 0 87.2117 13.129 1145 153.293 1306.08 459.401
2753 0 90.1129 13.5386 1220 148.36 1304.12 458.068
2754 0 94.1656 13.009 1225 149.677 1307.26 456.485
2755 1 50.1442 11.427 573 157.431 1306.38 479.686
2756 0 52.0541 12.3333 642 152.95 1307.33 478.012
2757 0 54.148 12.5951 682 146.853 1306.13 476.651
2758 0 56.1557 12.7503 716 152.786 1305.16 476.816
2759 0 57.1677 12.6995 726 145.165 1306.13 475.882
2760 0 60.1461 12.586 757 147.23 1304.45 475.54
2761 0 62.2224 12.5196 779 150.032 1303.91 476.089
2762 0 62.2263 13.1134 816 155.591 1302.71 475.114
2763 0 65.1411 13.11 854 150.801 1303.3 474.557
2764 0 67.1255 12.931 868 149.18 1302.88 473.736
2765 0 68.0805 13.8659 944 148.609 1304.99 472.754
2766 0 72.0918 13.5106 974 152.869 1303.51 471.033
2767 0 73.1314 13.3322 975 151.011 1305.61 470.896
2768 0 77.1274 13.6138 1050 146.211 1306.47 469.851
2769 0 80.1055 13.2575 1062 154.38 1304.97 468.527
2770 0 83.0662 13.423 1115 149.987 1306.33 467.171
2771 0 86.1725 13.531 1166 153.754 1305.38 466.158
2772 0 88.0646 13.7967 1215 151.459 1306.63 465.272
2773 0 91.2403 13.4261 1225 146.355 1308.32 463.618
2774 0 94.1478 13.3726 1259 151.732 1304.06 463.217
2775 1 48.0797 11.9801 576 152.656 1304.7 485.715
2776 0 50.0616 12.0052 601 153.647 1305.17 485.005
2777 0 52.0517 12.6797 660 150.245 1305.88 484.126
2778 0 54.1015 12.7908 692 149.815 1305.3 483.262
2779 0 56.0717 12.9834 728 143.885 1305.69 482.842
2780 0 57.1284 12.8658 735 150.848 1304.51 482.493
2781 0 58.1283 13.1089 762 151.499 1304.24 481.248
2782 0 60.0622 13.2529 796 151.053 1307.72 481.043
2783 0 62.1014 13.4941 838 153.055 1305.88 480.199
2784 0 63.1013 13.3753 844 153.489 1306.73 479.475
2785 0 65.1105 13.5001 879 150.381 1306.74 479.659
2786 0 66.1111 13.9008 919 145.196 1307.01 478.279
2787 0 70.1105 13.5358 949 157.354 1305.27 477.066
2788 0 72.1438 13.6394 984 157.639 1305.34 475.967
2789 0 74.1472 13.662 1013 157.24 1304.88 475.28
2790 0 76.1777 13.8098 1052 158.608 1304.1 474.075
2791 0 80.1713 13.309 1067 156.219 1303.86 472.721
2792 0 82.2216 13.1596 1082 157.205 1305 472.116
2793 0 83.1329 13.5807 1129 153.314 1304.26 469.895
2794 0 87.0972 13.6399 1188 155.676 1305.59 468.716
2795 0 90.1788 13.8392 1248 147.865 1304.43 467.521
2796 0 93.1361 13.593 1266 144.77 1305.79 466.495
2797 0 96.2047 13.4193 1291 153.474 1306.56 464.463
2798 0 99.1325 13.9409 1382 146.891 1306.4 461.501
2799 1 53.089 12.3189 654 154.104 1305.86 485.651
2800 0 56.0104 12.6048 706 152.53 1304.38 484.452
2801 0 58.2214 12.8475 748 149.305 1305.03 484.345
2802 0 60.2108 13.0874 788 142.317 1305.69 484.813
2803 0 63.1779 12.7735 807 151.214 1304.26 484.203
2804 0 63.2392 13.2671 839 150.623 1303.54 482.386
2805 0 66.3819 13.9195 924 147.532 1305.97 481.542
2806 0 70.1714 13.3388 936 151.123 1306.33 480.936
2807 0 72.3011 13.6098 984 154.795 1303.27 479.746
2808 0 73.2361 13.8456 1014 156.795 1302.36 479.679
2809 0 76.3231 13.718 1047 161.107 1302.75 478.562
2810 0 79.2113 13.7859 1092 154.536 1303.44 477.826
2811 0 81.1859 13.7216 1114 158.358 1303.52 476.096
2812 0 83.2045 14.3021 1190 159.821 1303.4 474.792
2813 0 87.1992 13.8189 1205 168.189 1303.66 473.982
2814 0 91.229 13.7675 1256 165.549 1303.98 471.983
2815 0 94.2379 13.6781 1289 167.534 1302.62 470.837
2816 0 98.2002 13.9205 1367 164.91 1303.32 470.2
2817 0 101.288 14.0688 1425 164.356 1303.56 469.115
2818 1 48.137 13.0253 627 156.624 1303.48 493.995
2819 0 50.2639 13.1108 659 161.417 1304.63 494.029
2820 0 52.0846 12.7677 665 159.499 1305.68 493.88
2821 0 53.1494 12.9823 690 163.212 1306.21 493.122
2822 0 54.1361 13.3368 722 155.051 1307.32 492.982
2823 0 57.1484 13.6487 780 156.787 1304.84 491.173
2824 0 59.1341 13.3426 789 165.156 1309.02 490.331
2825 0 60.152 13.6488 821 160.709 1308.05 490.585
2826 0 63.0904 13.5361 854 162.946 1306.06 489.632
2827 0 64.095 14.2289 912 157.758 1307.17 488.861
2828 0 66.1057 13.9171 920 156.757 1306.7 487.949
2829 0 67.1742 14.2019 954 160.948 1306.08 487.198
2830 0 70.0495 13.7617 964 159.728 1304.13 487.173
2831 0 73.0691 14.2194 1039 162.247 1305.9 485.815
2832 0 76.0438 13.9525 1061 155.901 1304.11 485.077
2833 0 77.3174 14.2529 1102 166.632 1305.1 484.182
2834 0 80.2233 14.3973 1155 163.633 1305.42 482.732
2835 0 84.0786 14.1891 1193 170.709 1305.12 482.435
2836 0 86.2196 14.9154 1286 167.874 1304.38 480.91
2837 0 90.1755 14.6825 1324 162.529 1303.82 479.334
2838 0 93.4642 14.23 1330 161.318 1303.48 478.201
2839 0 96.3871 14.67 1414 166.784 1304.13 476.588
2840 0 99.3199 14.2368 1414 166.749 1305.43 476.472
2841 1 50.2448 12.7973 643 165.827 1304.7 500.588
2842 0 52.2462 13.245 692 160.844 1305.67 499.549
2843 0 53.2864 13.2116 704 161.909 1305.26 499.159
2844 0 55.1912 13.0999 723 158.203 1305.44 499.17
2845 0 56.1593 13.6754 768 162.027 1305.97 498.473
2846 0 59.2275 13.4059 794 152.248 1302.47 497.505
2847 0 61.1918 13.3024 814 160.209 1303.41 496.586
2848 0 62.1678 13.6566 849 163.694 1305.21 495.726
2849 0 64.1365 13.6272 874 160.426 1305.31 494.847
2850 0 67.1534 13.7595 924 162.885 1305.51 494.511
2851 0 68.2107 14.1034 962 162.651 1305.17 493.969
2852 0 70.1183 14.1618 993 156.194 1304.97 492.579
2853 0 72.1207 13.9072 1003 164.547 1303.31 491.437
2854 0 76.125 13.6223 1037 162.686 1306.52 490.89
2855 0 79.1073 13.1593 1041 166.181 1305.18 490.624
2856 0 80.1239 13.6539 1094 154.654 1304.47 489.266
2857 0 84.0893 13.9851 1176 160.624 1306.85 487.303
2858 0 86.2482 14.1684 1222 166.935 1307.74 486.393
2859 0 89.0882 14.1433 1260 158.844 1307.42 485.457
2860 0 91.2737 14.1662 1293 158.467 1306.12 483.687
2861 0 95.188 14.2665 1358 158.839 1304.38 481.625
2862 0 96.0666 14.4067 1384 160.049 1304.75 481.813
2863 0 100.113 14.4237 1444 157.434 1304.75 480.316
2864 0 105.064 14.1628 1488 157.646 1305.18 477.911
2865 1 54.0395 12.5464 678 157.594 1303.81 503.991
2866 0 53.0737 13.3211 707 152.246 1304.88 503.564
2867 0 58.1096 13.268 771 152.342 1303.06 502.742
2868 0 59.032 13.0946 773 157.503 1300.94 502.589
2869 0 61.0945 13.651 834 156.314 1301.66 501.141
2870 0 63.1649 13.6152 860 157.424 1306.48 500.286
2871 0 64.1374 13.6738 877 150.808 1302.93 499.745
2872 0 65.1132 14.0371 914 166.176 1305.04 499.033
2873 0 68.0718 13.9412 949 157.672 1304.6 498.647
2874 0 71.1472 13.9429 992 165.465 1304.65 497.756
2875 0 72.0492 14.0876 1015 159.481 1303.19 496.382
2876 0 75.1069 14.0333 1054 166.74 1305.52 495.818
2877 0 77.093 14.2166 1096 165.63 1307.83 494.628
2878 0 78.2147 14.0766 1101 163.504 1306.68 493.749
2879 0 82.1626 14.2157 1168 166.223 1303.38 492.379
2880 0 85.2613 14.2386 1214 161.532 1303.48 491.565
2881 0 86.1216 14.8163 1276 155.861 1304.54 490.329
2882 1 50.1605 13.1777 661 167.531 1306.95 508.045
2883 0 53.0661 12.965 688 168.602 1305.13 508.042
2884 0 56.1219 13.0787 734 165.079 1304.67 507.153
2885 0 58.12 12.8871 749 163.374 1303.82 506.374
2886 0 62.2061 13.2945 827 164.337 1304.02 504.752
2887 0 63.0943 13.2976 839 166.784 1304.44 504.57
2888 0 63.1365 13.9222 879 158.588 1302.13 503.845
2889 0 67.1847 13.2024 887 165.4 1303.06 503.053
2890 0 69.1708 13.3727 925 165.402 1302.26 501.715
2891 0 70.1505 14.0555 986 164.866 1303.05 500.608
2892 0 74.2334 13.929 1034 164.054 1304.17 499.222
2893 0 74.2334 13.929 1034 176.544 1305.17 499.222
2894 0 80.3511 13.2792 1067 162.014 1305.49 495.934
2895 0 83.5186 13.7454 1148 154.405 1303.78 494.997
2896 0 85.2444 13.7604 1173 152.966 1302.28 493.561
2897 0 89.3519 13.4189 1199 158.911 1303.32 491.023
2898 0 91.2926 13.9551 1274 157.531 1301.97 489.758
2899 1 46.2375 11.787 545 148.813 1302.79 512.855
2900 0 47.2443 12.3825 585 142.781 1302.4 512.455
2901 0 49.3289 12.4673 615 154.215 1303.04 511.961
2902 0 51.2371 12.569 644 156.07 1301.26 511.562
2903 0 52.056 12.5442 653 162.152 1302 512.444
2904 0 53.0585 13.4003 711 165.329 1305.05 512.641
2905 0 55.0678 12.984 715 160.95 1304.47 511.705
2906 0 57.0594 13.3545 762 153.304 1305.25 510.472
2907 0 60.1338 13.1873 793 162.084 1303.26 510.24
2908 0 62.1335 13.0686 812 160.133 1304.93 509.543
2909 0 64.0624 13.2371 848 165.935 1302.32 508.192
2910 0 65.2705 13.4517 878 164.474 1302.79 507.416
2911 0 67.1795 13.5309 909 159.495 1304.61 506.609
2912 0 69.1553 13.3902 926 164.717 1304.49 505.283
2913 0 70.2167 14.0138 984 159.553 1303.7 504.317
2914 0 74.1649 13.47 999 158.507 1303.67 503.181
2915 0 76.3475 13.4778 1029 164.942 1305.89 502.142
2916 0 79.2282 13.4296 1064 162.046 1305.71 500.564
2917 0 80.2078 13.5149 1084 165.858 1303.45 499.797
