time division length width area intensity CMx CMy
0 0 75.0808 13.8118 1037 66.892 1326.41 476.25
1 0 75.1676 13.1706 990 68.4727 1325.76 473.493
2 1 39.0176 11.6101 453 66.298 1326.87 490.093
3 0 41.0872 12.583 517 68.588 1325.92 491.617
4 0 41.0274 12.382 508 71.5984 1326.58 490.618
5 0 44.0532 13.6653 602 73.1512 1326.29 490.958
6 0 44.0358 13.8978 612 74.1225 1326.85 490.879
7 0 47.0264 13.7582 647 72.5317 1326.92 492.141
8 0 47.0488 13.5179 636 74.5267 1326.83 492.19
9 0 49.0231 13.565 665 75.5759 1327.26 491.38
10 0 50.0413 14.4281 722 73.5859 1326.49 491.94
11 0 53.0404 13.8951 737 74.0366 1325.94 489.782
12 0 54.0247 14.5119 784 75.1798 1326.7 488.483
13 0 55.0582 14.0578 774 76.2054 1325.75 486.845
14 0 57.0391 13.8677 791 77.402 1325.55 486.678
15 0 59.0951 14.5528 860 77.5849 1325.6 487.644
16 0 62.0938 15.4766 961 75.8148 1326.26 486.014
17 0 64.0809 15.3088 981 76.7401 1325.41 485
18 0 65.141 15.3974 1003 77.7577 1325.5 485.023
19 0 68.0989 16.0355 1092 77.0943 1325.71 483.069
20 0 69.1634 15.3983 1065 78.723 1324.45 482.363
21 0 71.1064 15.7229 1118 79.1503 1324.64 481.074
22 0 73.2445 16.3016 1194 77.6365 1323.93 480.686
23 0 76.2463 16.1188 1229 77.2661 1324.88 479.111
24 0 77.1093 14.5378 1121 75.4844 1324.13 475.447
25 0 80.0574 14.9643 1198 74.9065 1324.16 475.318
26 0 82.2009 15.6933 1290 79.6357 1324.9 475.445
27 0 86.1201 15.9196 1371 78.6601 1324.76 472.36
28 0 90.1247 15.5451 1401 82.8473 1324.09 472.599
29 0 94.195 15.8395 1492 82.3076 1323.46 472.172
30 0 96.175 15.7005 1510 83.3497 1323.26 470.554
31 0 100.12 15.4714 1549 84.1859 1323.81 469.806
32 0 102.127 15.7059 1604 85.2787 1323.15 467.937
33 0 102.127 15.7059 1604 172.31 1322.14 468.005
34 0 109.111 15.9746 1743 84.4888 1322.98 464.684
35 0 113.204 16.2008 1834 83.7088 1323.64 464.354
36 0 116.169 16.1747 1879 84.4614 1324.1 461.548
37 0 120.189 15.8002 1899 85.4123 1323.37 459.872
38 0 123.172 15.6854 1932 88.1268 1323.44 457.795
39 0 128.172 16.1814 2074 86.704 1323.15 456.222
40 0 131.173 16.2 2125 89.2179 1323.39 453.233
41 0 136.379 16.1755 2206 90.6596 1323.22 451.45
42 0 139.17 16.2464 2261 91.3954 1323.28 449.409
43 0 145.428 16.6818 2426 91.211 1323.61 444.344
44 0 149.437 16.1473 2413 92.9312 1323.44 441.512
45 0 154.404 16.2561 2510 93.0191 1322.89 439.527
46 0 160.259 16.7229 2680 91.4295 1323.13 439.098
47 0 164.322 15.9382 2619 93.1539 1322.85 435.873
48 0 170.547 16.5057 2815 92.595 1323.41 429.882
49 1 88.3622 12.777 1129 93.752 1323.82 472.467
50 0 91.3301 12.4165 1134 93.2205 1323.44 470.275
51 0 95.2357 13.5243 1288 91.3067 1323.48 469.797
52 0 97.2119 13.5786 1320 91.4492 1324.15 467.517
53 0 101.225 14.2357 1441 90.6239 1323.17 466.723
54 0 106.28 14.1043 1499 91.9653 1323.85 464.654
55 0 111.314 15.2362 1696 88.375 1323.71 462.402
56 0 115.253 14.3597 1655 92.2181 1324.22 458.719
57 0 117.253 14.3707 1685 95.5846 1324.01 454.991
58 0 121.251 14.1607 1717 95.5486 1324.03 454.331
59 0 125.211 14.5354 1820 94.3753 1324.97 455.447
60 0 128.191 13.7685 1765 96.0793 1324.13 451.173
61 0 135.414 14.4446 1956 94.7418 1323.94 450.274
62 0 138.303 14.8659 2056 94.2276 1323.93 448.067
63 0 143.366 14.5153 2081 95.2311 1323.75 445.33
64 0 147.3 14.5078 2137 97.0636 1323.57 441.194
65 0 153.284 14.3655 2202 97.4891 1323.82 439.864
66 0 158.262 14.7161 2329 97.4723 1323.72 436.868
67 0 163.297 14.7461 2408 97.3297 1323.96 435.761
68 0 163.291 14.7528 2409 152.395 1323.95 435.658
69 1 174.519 14.4339 2519 96.5514 1324.07 429.351
70 0 180.377 14.0816 2540 97.2866 1324.07 426.719
71 0 184.273 14.2669 2629 96.7029 1324.13 424.653
72 0 190.359 14.8246 2822 95.7038 1324.09 418.997
73 0 195.271 13.7808 2691 98.2003 1324.15 418.625
74 0 200.325 13.6978 2744 98.7817 1323.33 413.004
75 0 208.395 13.6855 2852 98.7994 1323.39 410.984
76 0 215.401 13.8533 2984 97.7617 1323.21 406.89
77 0 223.329 15.3003 3417 94.0325 1323.02 399.807
78 0 230.221 14.1603 3260 96.1129 1322.78 396.565
79 0 235.359 13.6387 3210 97.7748 1323.37 395.189
82 1 197.377 12.58 2483 97.8739 1324.27 411.727
83 0 203.231 13.6101 2766 95.6392 1323.92 408.89
84 0 210.261 13.8257 2907 96.2043 1323.96 402.464
85 0 216.229 13.6892 2960 97.7476 1323.48 398.345
86 0 225.288 14.5503 3278 95.7471 1323.81 397.095
87 0 233.357 14.3943 3359 96.2664 1323.68 392.301
88 0 243.407 15.0078 3653 94.4596 1324.05 391.701
89 0 250.32 14.5853 3651 95.6842 1322.89 384.248
90 0 261.336 15.0534 3934 94.5363 1323.84 383.179
91 1 206.382 13.3538 2756 93.0276 1323.82 411.288
92 0 213.336 14.0998 3008 92.2929 1323.85 406.846
93 0 217.384 14.0305 3050 92.5348 1323.85 404.738
94 0 226.31 13.645 3088 93.4058 1323.63 401.291
95 0 233.406 14.0099 3270 93.6049 1323.89 393.997
96 0 240.274 13.7177 3296 95.5291 1323.52 389.117
97 0 249.364 13.9314 3474 93.0665 1323.14 387.453
98 0 260.335 14.6004 3801 91.1581 1322.2 382.243
99 0 268.402 14.5789 3913 90.5308 1323.04 378.823
100 0 276.377 14.1908 3922 92.1537 1323.1 374.01
101 0 288.338 14.5004 4181 91.2239 1323.61 367.867
102 1 346.33 10.4871 3632 97.9235 1322.96 366.218
103 1 233.355 13.413 3130 93.254 1323.27 390.984
104 0 241.33 13.5996 3282 93.0262 1323.32 382.826
105 0 251.438 14.7552 3710 90.7881 1323.72 378.536
106 0 261.331 14.5333 3798 91.421 1323.67 376.25
107 0 269.352 14.6388 3943 92.3325 1323.48 372.768
108 0 278.436 13.9529 3885 91.47 1322.9 365.333
109 0 287.487 14.5085 4171 90.9149 1323.1 363.564
110 0 295.293 14.4636 4271 90.5036 1322.59 354.435
111 0 394.84 18.3669 7252 82.7115 1323.31 300.074
112 0 322.735 15.0681 4863 88.1462 1323.68 343.52
113 0 330.416 13.8098 4563 88.6702 1322.9 344.954
114 0 343.489 14.6963 5048 88.0842 1323.49 341.968
115 0 354.446 16.9165 5996 84.2844 1323.21 326.881
116 0 365.462 15.6761 5729 87.8902 1323.03 322.076
117 0 377.533 16.335 6167 86.6449 1323.06 313.354
118 1 197.572 7.7086 1523 80.1182 1323.85 439.617
119 0 197.575 7.339 1450 145.076 1322.88 443.053
120 0 196.484 11.3954 2239 80.2876 1323.67 418.513
121 0 202.588 12.0194 2435 80.1491 1323.52 416.223
122 0 210.858 12.525 2641 80.8118 1323.73 403.053
123 0 216.327 12.1436 2627 84.8055 1323.03 404.016
124 1 90.2046 9.92189 895 65.3006 1323.64 470.657
125 0 92.1545 10.9382 1008 64.3591 1324.4 467.359
126 0 97.2441 11.538 1122 63.533 1324.61 468.596
127 0 99.3061 11.8724 1179 63.4385 1324.09 466.599
128 0 102.333 10.5831 1083 64.2752 1323.75 465.371
129 0 107.41 11.7959 1267 62.8232 1324.03 463.555
130 0 109.199 10.9616 1197 68.5121 1323.56 461.312
131 0 113.555 11.0519 1255 66.7124 1323.28 459.362
132 1 62.5514 9.3523 585 61.6821 1323.59 484.405
133 0 65.6586 11.3466 745 59.4389 1324.44 481.2
134 0 67.6231 11.5493 781 59.1447 1324.71 481.131
135 0 69.211 11.6889 809 59.9258 1324.31 484.693
136 0 67.3118 10.3845 699 61.0143 1323.88 484.634
137 0 70.2268 10.0531 706 61.5467 1323.61 485.357
138 0 73.3844 10.4791 769 61.3576 1323.13 481.537
139 0 75.2417 10.5527 794 62.762 1322.54 481.829
140 0 78.2775 11.0888 868 62.674 1323.39 480.112
141 0 79.2887 11.2122 889 64.0686 1322.51 479.835
142 0 85.1463 12.0499 1026 66.5565 1322.42 477.43
143 0 87.2042 12.2471 1068 69.1189 1323.19 476.478
144 0 87.2126 12.2459 1068 71.0403 1322.96 473.219
145 0 90.3978 11.6706 1055 72.7545 1323.36 472.629
146 0 91.3093 11.4337 1044 74.3333 1322.67 471.415
147 0 94.5399 12.1853 1152 74.0703 1323.46 469.376
148 0 100.631 13.3656 1345 71.081 1323.07 467.787
149 0 101.649 12.4842 1269 74.4413 1323.44 462.329
150 0 102.647 12.3335 1266 75.4921 1323.28 461.407
151 0 107.766 12.1931 1314 75.7633 1323.67 458.295
152 0 109.724 12.1669 1335 75.9191 1323.27 457.47
153 0 114.593 13.0985 1501 71.9434 1323.16 457.503
154 1 62.3662 10.5827 660 67.3061 1323.53 486.602
155 0 62.3714 11.0948 692 67.1647 1323.93 485.22
156 0 64.2464 10.522 676 67.8994 1323.7 485.354
157 0 66.2563 11.5461 765 66.6484 1323.71 488.629
158 0 65.3836 11.6543 762 67.2205 1323.76 486.965
159 0 70.3546 11.6979 823 66.9878 1323.66 486.269
160 0 71.3228 12.0158 857 68.9557 1323.45 484.373
161 0 73.2209 10.9805 804 70.6219 1324.08 483.956
162 0 74.2485 11.7982 876 69.5171 1323.28 480.579
163 0 75.2504 11.2292 845 72.4864 1323.17 480.095
164 0 78.227 12.1058 947 71.6346 1322.81 479.573
165 0 81.2916 11.7109 952 72.5567 1323.22 478.349
166 0 85.202 11.6312 991 73.1604 1323.13 476.327
167 0 88.3824 12.0499 1065 73.7089 1323.9 474.638
168 0 91.4894 12.0123 1099 73.9618 1323.9 474.272
169 0 94.6118 12.3663 1170 74.5675 1323.61 470.633
170 0 97.5367 12.3236 1202 74.8428 1322.81 464.862
171 0 101.741 12.6006 1282 74.0725 1323.12 461.296
172 0 103.658 12.1072 1255 75.3084 1323.31 461.527
173 0 104.613 12.0062 1256 76.1696 1323.01 458.811
174 0 111.742 12.9853 1451 72.1241 1323.26 457.675
175 0 113.511 11.1531 1266 76.1272 1322.7 456.657
176 0 116.749 11.8887 1388 75.0252 1322.35 456.875
177 0 119.816 11.2172 1344 75.7708 1322.82 454.364
178 0 121.586 12.5097 1521 75.6535 1322.51 451.071
179 0 125.519 11.6715 1465 76.8027 1322.8 449.025
180 0 129.565 11.9322 1546 77.0259 1322.62 447.142
181 0 133.648 12.2037 1631 76.7051 1322.76 443.63
182 0 138.621 11.3258 1570 79.3516 1322.7 443.944
183 0 142.556 11.7498 1675 79.2484 1322.17 438.831
184 0 145.471 11.5968 1687 79.8263 1322.6 439.099
185 0 151.705 11.8849 1803 79.5496 1323.23 436.841
186 1 79.4572 11.6289 924 75.4102 1324.28 473.293
187 0 81.4482 11.5042 937 71.3138 1324.23 473.453
188 0 82.4736 11.6158 958 77.4071 1324.22 472.877
189 0 87.3596 11.1951 978 75.7965 1324.26 473.735
190 0 87.2447 10.9118 952 69.4013 1323.53 472.411
191 0 89.2212 10.827 966 70.9596 1322.8 470.72
192 0 94.2106 11.6654 1099 70.9172 1322.29 471.365
193 0 95.3067 11.4263 1089 71.9339 1322.32 467.814
194 0 97.253 11.2079 1090 74.6596 1322.24 466.834
195 0 101.32 10.9258 1107 75.7687 1322.37 465.494
196 0 105.278 11.9683 1260 74.9524 1322.85 461.912
197 0 108.223 11.7535 1272 76.5535 1321.96 461.642
198 0 112.325 11.805 1326 77.1938 1322.17 459.512
199 0 114.159 11.7555 1342 77.2161 1322.46 458.738
200 1 62.0831 9.68057 601 69.2945 1322.52 485.815
201 0 64.4282 10.6009 683 67.4846 1322.75 484.772
202 0 64.3884 10.9958 708 85.4251 1323.32 484.332
203 0 67.252 10.7506 723 85.8658 1323.11 483.788
204 0 68.3119 9.8226 671 86.9806 1323.3 484.258
205 0 72.2386 11.0883 801 83.4682 1323.36 481.449
206 0 74.2081 10.3493 768 86.4661 1323.43 479.953
207 0 76.3114 10.2737 784 85.2462 1323.23 479.469
208 0 80.2687 11.0005 883 82.8686 1322.83 479.418
209 0 81.2625 10.6814 868 83.7753 1322.97 477.161
210 0 85.3177 10.8067 922 84.9306 1322.19 473.77
211 1 44.0931 9.70673 428 81.1752 1323.99 496.848
212 0 47.0726 10.8556 511 79.2387 1324.46 495.25
213 0 46.0887 10.3713 478 80.9623 1324.08 496.096
214 0 49.194 10.733 528 78.2689 1321.84 491.981
215 0 49.1052 10.5895 520 79.2212 1322.18 492.683
216 0 46.1397 10.0998 466 85.5322 1323.99 495.17
217 0 49.1646 10.292 506 84.3004 1323.33 494.184
218 0 52.1473 10.5279 549 82.6958 1322.83 493.82
219 0 53.2353 10.0309 534 85.3427 1323.35 493.596
220 0 54.2464 10.397 564 84.7979 1322.87 490.686
221 0 54.3042 10.3307 561 86.0481 1322.67 491.289
222 0 58.3594 11.4292 667 87.6522 1323.14 490.088
223 0 59.3452 10.9192 648 87.3843 1322.92 489.812
224 0 61.3363 11.7549 721 86.7476 1323.43 488.533
225 0 61.4371 11.1984 688 89.1919 1323.75 486.86
226 0 63.311 11.2145 710 88.4 1323.42 485.83
227 0 65.3324 11.1736 730 89.7342 1322.89 487.116
228 0 68.3146 11.5641 790 88.8127 1322.89 486.57
229 0 68.1776 11.3674 775 90.8671 1322.91 485.901
230 0 71.2711 11.9123 849 91.4488 1322.88 484.356
231 0 72.3778 11.4814 831 92.9495 1322.92 481.502
232 0 76.3011 12.1754 929 90.8267 1322.29 481.602
233 0 78.311 12.1439 951 91.0862 1322.82 480.558
234 0 80.2832 11.858 952 93.563 1322.52 477.233
235 0 81.2868 12.0192 977 94.3347 1322.46 475.705
236 0 84.1742 11.2386 946 89.908 1322.18 477.692
237 0 86.2365 11.5032 992 91.0081 1321.89 475.174
238 0 91.1741 11.4616 1045 90.6249 1322.6 474.675
239 0 91.204 11.6991 1067 92.0778 1321.85 472.495
240 1 49.0449 10.5414 517 89.2437 1323.32 495.35
241 0 51.0303 11.1894 571 88.3835 1322.89 496.032
242 0 51.0164 11.5845 591 87.1151 1320.36 494.223
243 0 54.1044 11.9953 649 86.5131 1320.55 494.27
244 0 55.0503 11.4077 628 86.9857 1320.71 493.761
245 0 54.1521 10.9322 592 88.9054 1323.12 493.096
246 0 53.1785 10.775 573 94.5829 1323.71 494.639
247 0 55.1519 11.2961 623 91.8716 1323.18 492.029
248 0 56.1984 11.1035 624 94.3301 1323.03 489.431
249 0 58.1405 11.7474 683 92.6969 1322.89 489.395
250 0 59.1845 12.0809 715 93.5357 1322.49 489.748
251 0 61.2901 11.5679 709 94.5035 1322.88 490.175
252 0 62.2882 12.1692 758 92.4195 1323 488.646
253 0 62.1737 11.87 738 96.71 1322.63 487.255
254 0 66.297 12.2027 809 93.6564 1322.34 486.068
255 0 67.2959 11.7986 794 94.7846 1322.42 485.553
256 0 68.2692 11.4254 780 97.4872 1322.51 484.999
257 0 72.4485 12.5054 906 94.0883 1322.85 482.97
258 0 73.3546 11.8329 868 96.576 1322.72 482.202
259 0 76.3899 12.3184 941 95.8268 1322.75 481.202
260 0 78.4004 12.5254 982 95.4094 1322.22 477.797
261 0 82.3697 13.1723 1085 92.6433 1322 477.662
262 0 82.4091 12.8748 1061 94.2724 1322.17 475.727
263 0 86.4811 11.8986 1029 95.8115 1321.04 475.496
264 1 45.2566 10.7388 486 97.6255 1321.15 493.891
265 0 47.2565 11.2789 533 98.5629 1322.14 492.523
266 0 47.0394 11.7348 552 83.442 1320.56 495.332
267 0 48.2724 11.8494 572 84.8269 1320.7 488.222
268 0 50.1864 12.8322 644 83.3043 1320.1 489.668
269 0 52.0472 12.3926 645 86.2791 1320.92 492.212
270 0 51.0663 12.6894 648 88.0941 1320.19 490.801
271 0 52.0428 13.047 679 85.7658 1320.14 491.161
272 0 53.0352 12.2183 648 87.8148 1319.89 491.704
273 0 53.0352 12.1429 644 139.194 1319.86 491.686
274 0 56.085 12.7485 715 86.158 1320.11 490.799
275 0 58.0406 12.3879 719 86.9764 1320.49 490.448
276 0 58.095 12.4796 725 85.8579 1320.24 489.226
277 0 60.0299 12.2772 737 85.9512 1320.19 489.019
278 0 62.0856 12.064 749 86.0454 1320.43 486.96
279 0 63.0353 12.374 780 87.5718 1320.27 486.181
280 0 67.0867 12.7149 853 85.9566 1320.47 485.587
281 0 67.0997 12.4442 835 87.3401 1320.68 484.128
282 0 69.0841 13.1 905 85.0851 1320.42 483.765
283 0 71.0223 12.137 862 89.5197 1320.24 482.203
284 0 74.0636 13.1374 973 86.5488 1320.25 480.74
285 0 77.0709 12.5858 970 87.0979 1320.38 479.338
286 0 77.213 12.3295 952 88.5609 1321.2 478.912
287 0 80.123 13.2921 1065 85.969 1320.59 476.977
288 0 81.1843 12.5271 1017 89.1239 1321.15 477.7
289 0 84.157 12.3935 1043 89.0757 1321.31 475.3
290 0 88.1559 13.0791 1153 89.1943 1321.58 470.633
291 0 89.2203 12.9455 1155 90.1506 1321.73 471.126
292 0 93.2467 13.5447 1263 90.4038 1321.42 469.509
293 0 96.2731 13.6175 1311 91.4844 1321.45 468.727
294 0 97.3037 12.98 1263 93.3547 1320.42 467.093
295 1 51.0231 11.6222 593 91.3187 1321.93 492.71
296 0 52.214 11.4337 597 95.7219 1320.45 491.154
297 0 52.214 11.4912 600 134.03 1318.46 491.172
298 0 53.1213 12.1797 647 88.0278 1319.87 488.805
299 0 56.2586 11.9448 672 90.7679 1322.56 487.699
300 0 58.0493 12.4894 725 93.6993 1322.76 487.434
301 0 61.0797 12.2136 746 93.559 1322.84 485.664
302 0 62.0872 11.967 743 93.9623 1322.25 486.577
303 0 64.0957 11.592 743 94.1184 1322.56 485.942
304 0 67.0481 12.7073 852 90.3486 1322.54 485.284
305 0 68.1011 12.2024 831 92.136 1321.79 482.673
306 0 70.0429 12.4923 875 91.2629 1322.16 482.672
307 0 71.0912 12.7301 905 91.8608 1321.95 481.783
308 0 74.1444 13.8918 1030 88.5981 1321.73 482.555
309 0 77.1108 13.6557 1053 88.7085 1321.71 481.974
310 0 80.0796 14.4981 1161 87.8045 1321.71 479.895
311 0 81.1811 13.4391 1091 90.7809 1322.35 479.101
312 0 84.0532 13.9198 1170 90.9641 1321.98 478.895
313 0 87.1642 14.1113 1230 91.4959 1321.89 477.505
314 0 86.1134 13.9351 1200 93.2083 1321.67 476.656
315 0 91.186 14.3662 1310 91.229 1321.41 474.336
316 0 93.0814 14.1274 1315 92.7148 1320.62 473.364
317 0 95.126 13.8027 1313 92.0556 1321.33 473.042
318 0 97.0711 14.5254 1410 90.456 1319.97 472.234
319 0 101.127 14.6053 1477 89.4557 1320.21 470.947
320 0 102.069 13.9709 1426 91.2644 1320.38 470.539
321 0 105.065 14.1341 1485 90.4256 1320.5 468.025
322 0 106.085 14.0453 1490 82.2081 1320.05 469.431
323 0 112.137 13.7778 1545 81.732 1319.53 467.789
324 1 60.0275 11.6946 702 82.6296 1319.86 494.094
325 0 62.0893 12.8041 795 81.1723 1319.35 493.24
326 0 63.0875 13.2197 834 79.7242 1319.62 491.338
327 0 61.077 12.4761 762 81.8084 1320.34 492.68
328 0 65.0801 12.1389 790 82.3177 1320.11 492.475
329 0 67.0326 12.7997 858 82.6119 1320.42 491.969
330 0 69.0605 11.9026 822 83.354 1319.96 492.286
331 0 67.0594 11.5569 775 151.73 1319.86 491.454
332 0 74.1179 13.0468 967 82.6163 1320.7 485.455
333 0 76.0904 12.8663 979 85.0838 1320.46 484.634
334 0 77.1646 11.9355 921 87.6102 1319.99 483.257
335 0 80.1409 12.7151 1019 85.6418 1319.87 482.869
336 0 82.0855 12.8768 1057 85.2507 1320.03 481.62
337 0 86.0775 12.9999 1119 85.8052 1319.96 479.819
338 0 85.0559 13.015 1107 86.2836 1319.93 478.526
339 0 89.1362 13.1035 1168 87.3827 1319.79 477.032
340 0 94.1153 13.0691 1230 85.8276 1319.33 475.188
341 0 96.103 13.5584 1303 85.3031 1318.47 472.292
342 0 98.1201 13.2185 1297 96.7833 1318.79 472.634
343 0 102.099 12.6838 1295 96.3552 1318.59 470.483
344 1 53.0589 11.1009 589 88.0934 1317.95 496.793
345 0 56.1856 11.7468 660 83.7182 1317.84 493.898
346 0 57.1686 11.8072 675 84.4163 1318.11 493.08
347 0 56.0467 11.6688 654 84.078 1317.75 492.589
348 0 59.1288 12.3798 732 82.8456 1318.43 491.478
349 0 59.1458 12.055 713 83.8065 1317.91 490.332
350 0 63.1233 11.5964 732 83.2254 1318.42 490.389
351 0 64.1172 12.3992 795 81.8314 1318.42 489.652
352 0 66.2129 11.7047 775 82.4065 1317.74 486.996
353 0 68.3123 12.194 833 81.9376 1318.33 482.72
354 0 70.2499 12.726 894 80.415 1318.31 483.811
355 0 75.2481 12.4256 935 79.5241 1318.24 483.908
356 0 77.1426 12.626 974 81.0503 1317.91 482.93
357 0 78.1932 12.2901 961 82.3684 1318.3 481.605
358 0 81.2076 11.7969 958 83.3006 1317.69 479.593
359 0 83.151 12.1706 1012 84.4516 1317.84 477.532
360 0 86.269 12.5653 1084 86.9815 1317.54 476.182
361 0 90.1039 12.1859 1098 88.8224 1316.9 473.419
362 0 92.3484 12.3012 1136 87.8662 1316.92 468.703
363 0 95.2886 12.4989 1191 85.8421 1316.78 470.181
364 0 99.2781 12.1578 1207 85.6222 1317.27 467.812
365 0 102.226 12.0909 1236 86.3042 1317.66 465.988
366 0 107.282 11.5677 1241 86.054 1318.1 465.743
367 0 110.301 11.7496 1296 85.5895 1317.51 462.39
368 1 57.1633 10.6712 610 79.4656 1317.37 490.984
369 0 58.1204 10.9944 639 78.9484 1317.74 491.973
370 0 59.1245 10.4864 620 81.9758 1317.88 487.898
371 0 60.1077 11.0968 667 79.7931 1317.59 487.333
372 0 64.1287 11.399 731 79.4843 1317.46 485.818
373 0 65.1363 12.0363 784 79.3278 1318.49 487.292
374 0 66.1165 12.0394 796 79.5377 1317.87 483.896
375 0 69.2075 11.834 819 80.6716 1318.7 484.581
376 0 70.2055 12.321 865 80.1052 1317.85 483.065
377 0 72.155 11.9188 860 81.4733 1318.45 483.31
378 0 73.1462 12.1811 891 81.4501 1318.37 484.324
379 0 76.2163 11.5592 881 82.8649 1318.1 482.179
380 0 79.2192 12.5222 992 81.7601 1318.43 482.195
381 0 80.1157 12.6442 1013 83.8203 1317.92 478.845
382 0 83.0737 12.0495 1001 85.3546 1318.14 479.577
383 0 87.1969 12.833 1119 84.336 1318.28 474.976
384 0 89.2335 12.5065 1116 84.6362 1318.52 474.814
385 0 92.2309 12.7181 1173 85.5183 1318.52 473.46
386 0 96.2868 12.4939 1203 86.4805 1319.05 470.42
387 0 97.2582 12.2355 1190 85.6664 1318.05 469.455
388 0 100.29 12.6234 1266 83.2504 1319.02 467.5
389 0 103.384 11.7039 1210 84.0554 1318.72 466.117
390 0 108.322 12.6752 1373 82.6759 1318.48 462.114
391 0 111.323 12.4592 1387 82.987 1318.33 461.071
392 0 114.252 12.4725 1425 82.8786 1318.6 456.585
393 0 117.187 12.2881 1440 87.1438 1318.66 452.171
394 0 123.294 12.531 1545 86.0997 1318.63 452.209
395 0 126.197 12.6706 1599 86.6066 1319.28 451.576
396 0 130.38 13.0771 1705 86.9302 1319.38 446.444
397 0 133.325 13.0208 1736 87.1941 1318.65 445.489
398 0 136.315 13.3441 1819 87.9544 1319 444.28
399 0 141.383 13.6297 1927 87.7436 1319.41 441.552
400 0 146.264 13.4688 1970 87.9132 1319.41 438.529
401 0 150.302 13.107 1970 88.0168 1319.13 434.034
402 0 155.334 13.5643 2107 86.6227 1319 433.194
