time division length width area intensity CMx CMy
0 0 50.1035 12.9931 651 59.3379 1250.39 491.108
1 0 51.1043 12.543 641 63.3619 1249.83 488.739
2 0 53.2156 13.6426 726 63.1377 1250.93 489.642
3 0 53.119 13.2344 703 66.8208 1250.01 489.681
4 0 56.0834 13.4799 756 67.6931 1250.84 487.644
5 0 57.1298 12.7604 729 71.2085 1250.71 486.295
6 0 58.1453 13.2599 771 71.1881 1251.24 486.786
7 0 60.0722 12.8013 769 73.2211 1250.98 487.081
8 0 62.1597 13.401 833 73.0912 1250.79 485.465
9 0 64.0755 13.3124 853 74.2872 1251.23 484.695
10 0 64.1034 12.4018 795 76.8868 1250.71 484.901
11 0 68.0891 13.497 919 74.4342 1250.14 483.69
12 0 71.0716 13.3387 948 75.9821 1250.92 482.689
13 0 73.1037 13.6655 999 74.7347 1249.82 479.425
14 0 76.14 13.8692 1056 75.1676 1249.32 478.958
15 0 78.178 13.6739 1069 76.898 1249 477.479
16 0 82.2448 14.007 1152 78.1354 1250.06 477.383
17 0 85.3126 13.6674 1166 79.7067 1249.21 475.508
18 0 89.296 13.976 1248 79.8285 1249.34 474.928
19 0 93.4091 14.5917 1363 79.5282 1249.15 472.054
20 0 95.2312 14.8691 1416 81.0565 1247.75 470.626
21 1 49.0514 12.5786 617 79.3177 1248.73 494.277
22 0 48.1477 12.7109 612 80.0997 1247.88 492.828
23 0 51.2002 13.2031 676 77.3195 1249.08 490.938
24 0 53.0319 14.199 753 76 1248.58 491.772
25 0 54.0842 13.7378 743 77.7483 1248.28 489.623
26 0 57.1448 14.3145 818 75.7311 1248.45 486.911
27 0 58.0142 13.7725 799 84.6233 1248.9 486.762
28 0 62.0528 15.1806 942 80.4374 1248.89 486.879
29 0 62.0489 14.2468 884 82.9231 1248.37 486.431
30 0 64.0182 14.1835 908 83.5529 1248.17 485.155
31 0 67.0332 14.4555 969 81.9897 1248.8 484.811
32 0 68.0699 14.2207 968 82.4587 1248.24 483.461
33 0 68.0699 14.2354 969 162.528 1247.24 483.426
34 0 73.1808 14.6486 1072 77.5299 1247.88 481.188
35 0 75.0652 14.614 1097 78.0729 1248.34 482.064
36 0 78.1541 14.7273 1151 77.9687 1248.7 479.861
37 0 79.1713 14.6518 1160 80.3302 1248.12 478.109
38 0 82.1499 14.1205 1160 82.7957 1248.22 477.246
39 0 83.1122 14.5466 1209 81.4376 1247.7 476.394
40 0 87.0922 14.1804 1235 83.4332 1248.02 474.544
41 0 90.125 14.3467 1293 83.6798 1247.7 474.008
42 0 94.3002 14.3584 1354 83.1987 1247.66 472.357
43 0 94.2352 13.8908 1309 85.3972 1247.67 468.546
44 0 100.228 14.0479 1408 84.3438 1247.44 466.17
45 0 103.269 13.6634 1411 84.8887 1246.96 464.589
46 0 107.352 14.1404 1518 83.6443 1247.3 462.162
47 0 110.324 14.6569 1617 82.9431 1247.03 461.565
48 0 114.452 14.2505 1631 84.141 1247.5 457.604
49 0 118.454 14.9003 1765 82.9314 1247.18 454.912
50 0 122.393 14.8947 1823 82.5052 1247 454.132
51 0 125.366 14.6132 1832 83.7118 1247.02 450.41
52 0 131.414 14.7853 1943 82.0304 1247.76 448.477
53 0 136.483 15.0421 2053 81.492 1246.84 445.816
54 0 139.537 14.1969 1981 83.7587 1247.38 441.075
55 0 143.362 14.3692 2060 82.2306 1247.25 439.534
56 0 149.297 14.4946 2164 82.9704 1247.89 433.866
57 1 74.1654 12.7013 942 80.5329 1248.32 468.481
58 0 75.1829 13.3142 1001 80.3457 1248.28 468.616
59 0 77.1704 13.1916 1018 80.0815 1249.16 468.471
60 0 80.1857 13.4937 1082 78.6488 1248.66 469.687
61 0 83.1193 13.1498 1093 79.4565 1248.4 474.232
62 0 85.1221 12.8521 1094 80.7221 1248.3 472.013
63 0 87.0879 12.7802 1113 81.0512 1248.19 472.489
64 0 92.1357 13.784 1270 79.6142 1247.94 467.779
65 0 94.1123 13.5051 1271 80.4524 1248.21 468.504
66 0 97.0971 13.5946 1320 79.7227 1247.99 465.679
67 0 99.0709 13.3137 1319 79.7976 1248.27 464.627
68 0 103.116 13.3248 1374 79.2504 1248.3 461.713
69 0 104.132 12.9163 1345 80.4796 1248.31 459.091
70 0 107.143 13.356 1431 80.1279 1248.36 457.208
71 0 113.145 13.6285 1542 80.2879 1248.21 453.725
72 0 114.211 12.906 1474 82.6235 1248.16 449.664
73 0 119.239 13.259 1581 82.3112 1248.15 446.441
74 0 124.179 13.6013 1689 82.3884 1247.3 445.156
75 0 125.165 13.5501 1696 84.3219 1247.36 444.67
76 0 135.232 14.1756 1917 82.5336 1247.08 441.709
77 0 136.086 13.7413 1870 85.8433 1246.88 437.725
78 0 143.2 13.75 1969 85.4764 1246.99 437.261
79 1 73.0646 11.5788 846 78.9232 1247.42 478.547
80 0 75.0242 12.476 936 84.515 1247.57 478.765
81 0 78.0609 13.0539 1019 79.1452 1249.75 479.2
82 0 77.0937 12.5821 970 80.9598 1249.36 477.003
83 0 80.0959 13.2466 1061 78.3836 1248.55 477.922
84 0 83.1336 13.4964 1122 78.5882 1249.58 475.012
85 0 86.0409 13.9236 1198 78.0576 1248.68 475.311
86 0 88.1018 12.8488 1132 79.7765 1249.09 474.479
87 0 89.1583 13.2349 1180 79.0237 1249.55 471.868
88 0 92.0778 13.456 1239 78.8814 1249.32 471.863
89 0 95.2045 13.3922 1275 78.0471 1248.25 468.439
90 0 98.1587 12.816 1258 78.3315 1249.1 468.581
91 0 101.131 12.8645 1301 78.1668 1249.1 467.045
92 0 104.17 13.7468 1432 77.8317 1248.96 464.282
93 0 107.107 13.3978 1435 77.6718 1248.82 463.029
94 0 110.119 12.768 1406 78.8229 1248.62 463.25
95 0 112.169 12.8645 1443 79.4865 1248.78 458.307
96 0 117.117 12.7565 1494 79.666 1248.45 457.616
97 1 65.072 9.40496 612 75.9837 1248.3 486.485
98 0 66.2565 11.2442 745 73.655 1248.49 481.384
99 0 70.1572 11.8733 833 72.6122 1248.22 481.101
100 0 72.1402 12.6282 911 74.5565 1249.07 480.241
101 0 73.1162 12.4323 909 81.0429 1249.43 477.499
102 0 79.1339 12.4346 984 79.7317 1248.96 477.379
103 0 80.0928 12.2483 981 80.7951 1249.2 477.34
104 0 82.0693 11.9046 977 81.4933 1249.42 473.523
105 0 84.0788 12.7499 1072 79.3134 1249.72 470.629
106 0 86.1567 11.9201 1027 80.1178 1249.57 469.644
107 0 90.1346 12.1929 1099 79.4268 1249.29 469.561
108 0 91.1343 12.3225 1123 78.9492 1248.71 468.655
109 0 94.1981 12.0066 1131 78.8603 1249.03 466.611
110 0 99.3992 12.3945 1232 77.7378 1248.4 464.177
111 0 102.244 12.7832 1307 76.5409 1248.93 463.734
112 0 103.195 12.365 1276 77.3166 1249.03 462.375
113 0 106.164 12.1039 1285 76.8389 1248.58 460.265
114 1 57.1501 10.0437 574 71.9355 1248.31 486.667
115 0 59.1473 11.0233 652 66.8681 1247.62 484.018
116 0 61.2706 9.9232 608 68.7895 1247.36 482.678
117 0 62.086 10.5821 657 67.21 1246.99 482.588
118 0 66.1385 12.0354 796 65.8693 1246.09 480.872
119 0 66.1317 11.9761 792 103.207 1245.15 480.819
120 0 69.0965 12.3161 851 65.0235 1246.97 478.264
121 0 74.1725 12.9563 961 64.3611 1246.96 479.763
122 0 75.0852 12.8521 965 64.3648 1247.13 477.736
123 0 79.1857 12.136 961 63.7627 1247.12 476.427
124 0 80.1667 12.8732 1032 63.4293 1247.75 475.216
125 0 84.1971 11.5087 969 63.581 1248.29 472.879
126 0 84.1063 11.8778 999 63.0831 1247.49 472.897
127 0 89.255 11.6184 1037 62.2006 1247.61 472.017
128 0 92.1372 12.2643 1130 61.7947 1247.75 470.445
129 0 95.1891 11.8186 1125 61.8373 1247.74 469.092
130 0 97.1784 10.774 1047 64.2741 1247.41 467.921
131 1 50.0463 9.93081 497 65.2173 1246.81 491.256
132 0 51.0444 10.1676 519 62.6609 1245.94 490.547
133 0 55.1007 10.0906 556 58.5701 1247.35 488.424
134 0 56.0922 10.8571 609 58.688 1247.27 490.241
135 0 56.0095 10.159 569 57.2021 1246.63 484.942
136 0 55.0206 10.6142 584 60.8134 1249.22 479.726
137 0 53.0148 9.4502 501 64.0419 1248.47 479.118
138 0 57.0985 11.2262 641 60.3261 1245.99 478.289
139 0 57.0968 9.73784 556 63.9281 1245.48 476.286
140 0 62.1112 9.7567 606 62.7013 1246.3 477.63
141 0 63.1743 9.49753 600 63.7817 1245.47 476.925
142 0 66.1279 10.4041 688 64.7994 1246.28 476.952
143 0 70.1997 11.3248 795 63.6491 1246.4 476.732
144 0 73.0954 11.1909 818 64.2457 1246.21 474.968
145 0 75.1075 10.931 821 65.6188 1246.43 475.826
146 0 79.2009 12.0579 955 70.5152 1246.9 476.591
147 0 86.0894 13.6486 1175 71.486 1246.03 479.085
148 0 89.1884 13.7125 1223 71.9902 1246.12 476.816
149 0 90.1793 13.9611 1259 73.4392 1246.52 474.053
150 0 92.1791 13.9945 1290 75.1729 1246.45 472.249
151 0 96.1377 13.9696 1343 74.9092 1246.79 472.506
152 0 99.1705 14.0566 1394 75.9842 1246.4 470.257
153 0 103.167 15.0242 1550 73.0123 1246.32 470.319
154 0 105.134 14.296 1503 78.851 1245.92 466.867
155 0 107.212 13.6645 1465 79.9638 1245.97 466.056
156 1 56.0788 12.0366 675 78.2341 1245.73 493.093
157 0 57.0977 12.2247 698 76.5616 1245.94 492.764
158 0 58.2848 13.5198 788 74.5254 1247.01 489.849
159 0 59.0675 12.7651 754 71.3408 1246 489.515
160 0 62.0369 13.3791 830 72.3747 1245.56 489.94
161 0 63.0387 12.9286 815 74.0442 1246.19 488.417
162 0 66.0481 13.4145 886 72.6648 1245.85 488.56
163 0 64.0481 12.7717 818 76.8399 1245.66 489.452
164 0 65.0691 12.7557 830 77.9446 1245.04 487.404
165 0 68.0442 12.5801 856 77.9463 1245.59 487.133
166 0 72.0475 13.3384 961 76.0708 1245.74 485.57
167 0 74.0532 12.8421 951 78.9832 1246.41 483.12
168 0 76.0277 13.8107 1050 77.561 1246.69 483.723
169 0 77.0433 13.5768 1046 79.2409 1246.53 482.652
170 0 79.0608 13.0785 1034 80.353 1246.08 480.486
171 0 82.0528 13.8082 1133 78.8129 1246.48 478.883
172 0 85.0536 13.8266 1176 78.4966 1246.54 476.727
173 0 87.0591 14.1054 1228 79.3518 1246.22 474.915
174 0 89.0369 13.7808 1227 79.3488 1246.47 475.637
175 0 92.059 14.0345 1292 79.7995 1245.86 474.286
176 0 95.0818 13.9985 1331 79.9519 1245.48 472.03
177 0 100.143 14.1299 1415 78.3654 1246.6 472.564
178 0 102.12 14.0129 1431 79.7729 1247.11 469.665
179 0 104.193 13.974 1456 79.8379 1247.39 468.049
180 0 107.168 13.3716 1433 80.4759 1247.12 465.073
181 0 111.111 13.1941 1466 80.2115 1247.32 464.412
182 1 62.0769 12.9839 806 81.273 1248.11 487.917
183 0 63.1901 13.3091 841 82.1189 1247.95 486.95
184 0 65.0945 13.2576 863 81.3557 1247.92 486.634
185 0 65.1318 12.6359 823 80.0583 1247.55 487.892
186 0 66.1084 13.1148 867 80.4002 1247.38 485.678
187 0 68.071 12.4576 848 80.8255 1247.75 487.591
188 0 70.1725 12.9681 910 80.3143 1248.05 485.103
189 0 71.1824 12.5733 895 82.0704 1248.22 483.984
190 0 74.2034 12.87 955 81.2335 1248.21 479.912
191 0 76.2053 12.1251 924 83.3182 1247.49 479.239
192 0 79.1932 12.943 1025 83.1902 1247.01 478.42
193 0 80.2214 12.7522 1023 83.6295 1246.91 477.312
194 0 85.157 13.4692 1147 82.6129 1246.57 476.854
195 0 87.1359 13.1404 1145 83.6384 1246.81 475.713
196 0 91.1201 13.4438 1225 83.9918 1247.48 473.296
197 0 93.192 12.8552 1198 86.3873 1246.5 470.617
198 0 96.1076 12.9022 1240 85.3847 1246.31 469.793
199 0 98.2029 12.8815 1265 86.1423 1246.62 468.65
200 1 51.0251 11.4649 585 87.812 1247.39 490.349
201 0 52.0402 11.4719 597 87.3082 1245.75 490.702
202 0 56.0279 12.3332 691 110.266 1246.25 489.887
203 0 57.0673 12.7043 725 109.145 1246.7 488.663
204 0 56.1273 12.5251 703 106.023 1246.08 489.871
205 0 59.1747 12.0998 716 104.149 1246.19 488.782
206 0 58.1189 11.9755 696 107.277 1246.25 488.296
207 0 62.1083 12.9612 805 104.086 1246.13 485.708
208 0 64.1146 12.9144 828 103.688 1245.82 486.669
209 0 67.255 13.2481 891 102.898 1246.27 485.264
210 0 68.1482 13.0891 892 107.021 1245.24 483.41
211 0 72.2831 13.2811 960 104.579 1246.03 483.709
212 0 74.273 13.3427 991 105.286 1246.74 481.492
213 0 74.2442 13.7385 1020 110.352 1246.56 480.671
214 0 78.2744 13.8359 1083 108.374 1246.17 478.699
215 0 81.2329 14.1814 1152 108.019 1246.09 477.816
216 0 83.1347 13.7969 1147 109.732 1246.65 476.874
217 0 88.2413 14.1204 1246 108.278 1244.56 475.279
218 0 88.2083 13.8762 1224 110.01 1244.12 474.3
219 0 92.1628 13.6389 1257 110.837 1244.86 471.185
220 0 96.2761 13.9079 1339 108.063 1244.63 469.436
221 1 52.3478 12.0731 632 109.19 1244.95 490.774
222 0 55.3953 11.6255 644 110.655 1245.92 489.571
223 0 56.2934 13.2342 745 105.573 1245.38 489.901
224 0 58.0382 13.0087 755 105.882 1247.7 488.57
225 0 59.0323 13.7213 810 101.88 1247.61 486.949
226 0 61.0601 13.5277 826 102.203 1247.56 486.134
227 0 63.049 13.0216 821 104.227 1246.88 485.948
228 0 65.061 13.6795 890 102.122 1247.04 484.775
229 0 66.0599 12.9579 856 104.766 1247.18 484.692
230 0 66.0877 12.6045 833 102.661 1246.84 485.4
231 0 66.1256 12.7636 844 101.301 1247.13 484.013
232 0 71.1108 12.8672 915 99.4284 1246.48 483.049
233 0 71.0645 12.0735 858 102.663 1247.21 480.492
234 0 74.0947 12.511 927 102.443 1247.1 478.77
235 0 76.1668 11.9737 912 103.786 1247 477.407
236 0 78.1468 12.259 958 102.514 1246.75 477.463
237 0 81.2052 12.2406 994 102.369 1246.39 477.137
238 0 83.2272 12.4719 1038 101.961 1246.88 477.212
239 0 84.1692 11.7383 988 105.787 1245.99 473.804
240 0 87.3441 11.7924 1030 105.826 1245.72 472.107
241 0 89.1395 12.5421 1118 103.144 1246.43 470.816
242 0 90.1101 12.0852 1089 104.343 1246.88 469.178
243 0 92.2037 11.7132 1080 101.449 1246.26 467.214
244 0 93.1481 11.6696 1087 99.1325 1246.25 464.13
245 0 94.2214 11.197 1055 103.597 1245.5 460.072
246 0 100.242 11.8314 1186 101.75 1245.65 458.724
247 1 49.0631 9.86485 484 90.4607 1246.24 484.758
248 0 52.0579 10.738 559 89.0233 1246.09 484.649
249 0 53.0194 11.2789 598 91.112 1246.61 482.247
250 0 56.0472 10.6339 596 95.2718 1246.49 483.861
251 0 60.058 11.7387 705 100.43 1247.27 486.143
252 0 62.0825 12.129 753 97.8592 1247.46 485.458
253 0 62.0447 12.217 758 100.513 1247.1 483.801
254 0 64.0673 12.0654 773 99.2678 1246.83 481.463
255 0 65.0358 12.6853 825 98.1503 1246.93 480.984
256 0 67.0479 11.8274 793 101.462 1246.97 479.723
257 0 69.0531 13.0479 901 97.1199 1247.51 480.375
258 0 73.0593 12.7568 932 98.1491 1247.31 477.536
259 0 74.0554 13.1523 974 98.0554 1247.36 476.283
260 0 75.03 12.6749 951 100.2 1246.53 473.905
261 0 76.1511 13.1449 1001 99.2088 1246.36 474.16
262 0 79.0981 13.4011 1060 98.534 1246.47 471.785
263 0 81.226 12.7176 1033 102.774 1244.13 472.84
264 0 85.2335 13.4337 1145 101.12 1244.19 471.655
265 0 86.174 12.9505 1116 103.444 1245.24 470.168
266 0 90.1429 13.5784 1224 101.705 1244.83 469.538
267 0 92.1838 13.2887 1225 102.59 1245.15 466.998
268 0 96.161 13.5398 1302 103.171 1244.54 464.333
269 0 98.1676 13.2121 1297 104.591 1244.98 464.152
270 0 102.272 13.4543 1376 103.569 1244.9 462.719
271 0 104.323 12.8064 1336 104.897 1244.86 460.612
272 0 108.317 13.4512 1457 102.784 1244.56 460.238
273 0 108.317 13.4605 1458 151.467 1244.56 460.233
274 0 116.383 13.593 1582 101.318 1244.83 457.73
275 1 53.2354 11.5337 614 98.886 1245.09 487.64
276 0 55.1608 11.8381 653 96.9847 1244.53 485.683
277 0 57.4163 12.6097 724 93.6036 1245.66 488.088
278 0 58.364 12.799 747 93.7202 1245.78 486.791
279 0 61.4386 12.7444 783 94.1545 1245.5 485.92
280 0 63.2005 13.1012 828 94.6063 1245.52 485.198
281 0 64.2863 12.8332 825 96.9212 1245.67 483.708
282 0 65.3059 13.0922 855 96.324 1245.54 484.64
283 0 69.4011 13.2563 920 96.988 1245.32 483.443
284 0 72.3368 13.5339 979 96.5679 1245.18 482.233
285 0 74.3232 13.7911 1025 96.5873 1245.34 481.59
286 0 78.1924 13.3005 1040 97.85 1243.73 481.955
287 0 77.1965 13.226 1021 100.417 1243.98 480.043
288 0 80.1828 13.0203 1044 100.302 1243.92 479.687
289 0 83.1341 12.8828 1071 99.8403 1243.93 478.331
290 1 46.0766 11.2204 517 94.0812 1243.97 497.029
291 0 45.0502 11.1431 502 86.4701 1245.76 497.125
292 0 48.0846 12.1037 582 87.6649 1246.61 495.854
293 0 48.0199 12.0992 581 97.4062 1246.99 495.207
294 0 47.4049 11.5811 549 101.745 1245.72 494.24
295 0 51.2775 12.3056 631 101.239 1245.68 492.691
296 0 50.3198 12.4802 628 102.895 1245.19 493.011
297 0 50.3198 12.4205 625 166.766 1245.11 492.944
298 0 55.3516 12.9174 715 99.5538 1245.29 490.947
299 0 56.3903 12.8923 727 102.265 1245.74 489.853
300 0 55.3751 12.4966 692 104.342 1245.54 490.085
301 0 59.2222 13.1539 779 97.665 1245.4 488.237
302 0 58.2267 12.2452 713 89.8738 1244.97 491.405
303 0 61.2251 11.9069 729 89.4582 1245.28 492.08
304 0 61.2119 12.1055 741 90.2132 1245.14 488.233
305 0 63.2078 12.4985 790 90.8646 1244.44 485.737
306 0 67.3832 11.4569 772 91.6516 1244.95 486.947
307 0 67.1862 12.056 810 89.6877 1244.58 483.43
308 0 70.3071 12.1325 853 87.5205 1244.38 485.06
309 0 73.2196 12.8791 943 87.106 1244.27 482.475
310 0 76.1564 12.8683 980 88.7633 1244.26 481.472
311 0 79.1814 12.3514 978 91.7802 1244.81 478.421
312 0 81.1446 12.299 998 94.016 1244.58 479.257
313 1 43.0481 9.84945 424 85.8844 1244.42 500.314
314 0 42.1111 10.9472 461 85.8091 1244.46 500.002
315 0 44.1516 10.781 476 86.4181 1244.15 498.674
316 0 45.3104 11.035 500 86.962 1244.61 497.214
317 0 48.4543 11.2271 544 83.7132 1246.22 494.715
318 0 49.5002 11.3535 562 86.0605 1244.7 491.064
319 0 50.1766 11.9976 602 84.887 1244.04 494.85
320 0 51.1992 12.4807 639 84.8983 1245.28 495.488
321 0 55.1476 11.6778 644 84.059 1244.72 494.804
322 0 56.2735 12.8302 722 84.2784 1245.35 494.493
323 0 57.2145 12.8988 738 86.1423 1244.6 492.866
324 0 58.2604 12.9076 752 85.8311 1244.82 494.529
325 0 58.2788 12.7319 742 89.5674 1244.14 492.349
326 0 61.2423 12.2791 752 89.9295 1244.28 492.465
327 0 61.2859 12.303 754 91.5252 1244.33 490.577
328 0 65.2537 12.6583 826 100.88 1244.21 490.827
329 0 65.2575 12.0293 785 102.852 1244.5 490.287
330 0 68.2601 12.6282 862 99.8132 1243.82 489.385
331 0 68.2531 12.6588 864 148.484 1243.82 489.439
332 0 72.2277 13.2636 958 96.5919 1244.12 485.213
333 0 74.2269 12.2058 906 100.832 1243.76 484.706
334 0 77.2615 12.2053 943 99.4624 1243.27 485.082
335 0 78.1638 12.2563 958 100.542 1243 482.898
336 0 83.3414 12.6468 1054 98.7343 1242.84 481.694
337 0 83.3549 12.8007 1067 100.881 1242.73 477.888
338 0 85.4629 12.5318 1071 100.554 1242.61 474.967
339 0 88.443 12.5278 1108 102.463 1242.52 474.178
340 0 92.4764 12.76 1180 100.226 1241.82 471.769
341 0 93.3675 12.3705 1155 102.987 1241.26 469.465
342 0 98.4257 12.6999 1250 101.716 1241.32 470.596
343 0 100.551 11.7552 1182 104.259 1241.38 467.975
344 1 53.1768 10.324 549 98.5373 1241.24 492.996
345 0 53.1372 11.6303 618 97.945 1243.1 495.861
346 0 57.0975 11.5942 662 102.279 1243.28 493.304
347 0 57.1443 12.6697 724 100.702 1240.82 492.377
348 0 57.1416 11.9703 684 104.655 1240.65 492.371
349 0 58.169 11.8448 689 104.425 1240.1 492.967
350 0 62.0411 12.3628 767 95.4785 1240.93 491.484
351 0 61.0794 11.6078 709 98.268 1241.07 490.735
352 0 63.0658 11.7972 744 97.0242 1240.61 490.281
353 0 66.1315 12.7776 845 94.4343 1240.93 488.783
354 0 67.0672 12.2713 823 96.1434 1240.87 488.035
355 0 71.1262 12.4427 885 94.6441 1241.55 487.621
356 0 73.1366 12.6886 928 95.4235 1241.29 486.245
357 0 75.1542 12.3346 927 96.2837 1241.79 484.945
358 0 77.1259 12.4342 959 96.8707 1241.35 483.347
359 0 79.2295 12.7478 1010 96.8703 1241.49 482.755
360 0 82.1388 12.7832 1050 101.051 1241.61 479.885
361 0 84.1157 12.887 1084 101.71 1240.52 478.043
362 0 87.0504 12.6364 1100 102.539 1242.3 475.561
363 0 90.1465 12.6794 1143 99.2642 1241.37 476.847
364 0 93.1889 12.5337 1168 98.8211 1241.84 473.875
365 0 97.156 13.3497 1297 96.2328 1242.64 471.753
366 0 100.311 13.0594 1310 96.4687 1243.07 470.403
367 0 102.412 12.8305 1314 97.019 1242.73 467.935
368 0 106.262 12.7797 1358 96.6355 1241.76 466.276
369 1 53.2781 10.3983 554 91.5108 1243.69 492.892
370 0 55.2085 10.7954 596 90.6762 1244.02 490.545
371 0 58.1867 11.6006 675 86.7867 1243.35 488.954
372 0 59.1712 11.9484 707 85.6322 1243.48 487.621
373 0 60.0449 11.7246 704 86.2727 1242.92 489.641
374 0 61.1751 11.7205 717 86.3612 1241.58 488.172
375 0 63.0941 10.7934 681 88.8811 1242.58 487.586
376 0 62.089 10.4527 649 88.0324 1242.15 486.602
377 0 64.1063 10.8726 697 87.439 1242.26 485.08
378 0 67.1688 10.6448 715 86.5427 1242.81 483.649
379 0 69.1675 10.7131 741 85.363 1242.33 484.223
380 0 73.0997 10.985 803 84.462 1242.55 482.394
381 0 74.1593 11.3809 844 84.9526 1242.33 479.94
382 0 78.1417 11.428 893 84.9429 1242.59 479.984
383 0 79.2342 10.8034 856 85.1881 1242.88 477.855
384 0 82.159 11.0152 905 83.3083 1243.31 475.864
385 0 86.1484 11.0043 948 85.7943 1243.78 474.509
386 0 88.2248 10.9946 970 87.1763 1244.01 471.802
387 0 92.241 11.7843 1087 83.4462 1243.17 470.672
388 0 92.2106 10.4543 964 86.0415 1243.99 468.992
389 0 96.2209 10.9124 1050 84.2467 1243.83 468.026
390 0 100.27 10.9405 1097 83.1422 1243.6 465.413
391 0 102.126 12.1223 1238 83.3538 1243.22 464.204
392 0 107.301 12.1434 1303 80.3899 1243.71 461.063
393 0 111.289 11.9598 1331 84.8911 1243.59 458.052
394 1 60.1019 9.73347 585 80.6462 1244.82 486.515
395 0 60.0858 9.86922 593 78.0084 1245.46 484.892
396 0 64.2233 11.4289 734 78.6131 1245.29 483.136
397 0 65.1518 11.312 737 79.5767 1243.63 482.161
398 0 68.1584 12.3242 840 76.9762 1244.74 483.452
399 0 69.1794 11.781 815 79.5031 1245.22 481.499
400 0 68.1871 10.5592 720 82.2722 1245.23 480.844
401 0 74.1997 12.5068 928 77.8071 1244.82 478.259
