time division length width area intensity CMx CMy
0 0 75.1556 14.1307 1062 113.903 196.794 475.282
1 1 38.0339 12.2522 466 121.867 197.193 489.47
2 0 40.0541 12.7827 512 114.623 196.496 490.916
3 0 40.0152 12.9451 518 116.488 197.207 490.996
4 0 44.0243 13.2654 584 114.731 197.411 489.479
5 0 44.0322 13.5356 596 115.97 197.584 489.26
6 0 45.0441 13.7643 620 116.685 198.126 488.113
7 0 46.1089 13.4248 619 109.952 196.89 490.774
8 0 46.0348 13.3595 615 111.65 196.911 489.779
9 0 48.0813 13.7267 660 109.7 196.808 488.564
10 0 49.0472 13.3953 657 109.589 196.279 488.518
11 0 52.0595 14.0993 734 107.046 195.151 487.312
12 0 53.102 13.4835 716 108.652 195.823 487.039
13 0 54.1204 13.8395 749 107.409 195.266 485.184
14 0 57.0938 13.8894 793 106.634 194.977 484.037
15 0 57.044 13.7262 783 108.022 194.811 484.416
16 0 60.057 14.3197 860 105.083 194.467 483.302
17 0 61.0997 14.1899 867 107.12 194.393 481.415
18 0 62.1084 14.201 882 106.986 194.424 481.598
19 0 65.061 14.4941 943 107.473 194.222 480.428
20 0 69.0548 14.3364 990 106.46 194.072 479.377
21 0 71.1105 15.3423 1091 105.756 194.559 478.588
22 0 72.1601 15.2716 1102 105.879 193.804 476.049
23 0 75.1497 15.0367 1130 105.184 193.941 474.938
24 0 78.0853 14.958 1168 104.571 193.775 474.893
25 0 81.1442 14.7762 1199 103.633 193.899 472.758
26 0 81.1205 14.8298 1203 104.833 194.551 471.778
27 0 86.1224 15.1064 1301 103.341 193.42 469.927
28 0 87.1559 15.1797 1323 103.753 193.808 469.088
29 0 90.0988 15.3609 1384 102.693 193.503 469.623
30 0 93.1407 15.2135 1417 102.891 193.57 467.733
31 0 96.1154 15.3773 1478 102.84 193.446 465.461
32 1 51.0664 12.5719 642 105.769 194.298 489.285
33 0 51.0172 12.78 652 105.666 193.939 487.825
34 0 54.0728 13.8517 749 103.275 193.861 486.826
35 0 56.0141 14.657 821 99.2424 193.501 486.4
36 0 56.0844 13.872 778 100.861 194.303 485.982
37 0 59.0865 13.4548 795 100.674 194.04 484.431
38 0 61.1062 14.0411 858 99.5559 193.7 484.442
39 0 62.1654 13.7536 855 101.316 193.814 484.495
40 0 62.1654 13.6732 850 174.38 194.826 484.412
41 0 65.0915 14.134 920 102.136 194.113 482.527
42 0 68.1429 14.631 997 100.077 192.866 481.409
43 0 71.1309 14.2132 1011 100.347 193.059 479.39
44 0 75.0979 14.4744 1087 100.06 192.482 476.954
45 0 78.098 13.9952 1093 101.302 192.887 475.749
46 0 78.112 14.236 1112 102.686 192.819 474.41
47 0 81.092 14.0704 1141 103.94 192.713 471.894
48 0 85.1449 14.7631 1257 100.557 192.38 472.208
49 0 87.1817 14.5214 1266 102.178 192.287 470.969
50 0 89.0951 14.2881 1273 104.28 192.934 469.759
51 0 93.1774 14.4778 1349 102.091 193.894 468.543
52 1 52.0252 12.5516 653 102.986 193.911 488.054
53 0 52.0537 13.2171 688 100.105 194.475 487.987
54 0 54.0514 13.7462 743 99.8654 194.087 485.833
55 0 56.0178 13.6742 766 97.5144 194.251 486.941
56 0 57.0427 12.9026 736 99.5584 194.62 485.557
57 0 58.0825 13.3431 775 98.8413 194.223 482.986
58 0 59.038 13.72 810 99.5889 193.759 482.122
59 0 62.0435 13.9418 865 98.0983 194.391 482.027
60 0 64.1068 13.4775 864 97.3056 194.265 481.257
61 0 67.1366 13.7183 921 96.5038 194.863 480.454
62 0 69.238 13.4608 932 96.6384 194.589 479.322
63 0 73.1335 13.8514 1013 94.5854 194.618 477.881
64 0 73.1335 13.8651 1014 157.604 194.611 477.848
65 0 77.2161 13.2356 1022 98.1341 194.334 476.265
66 0 81.228 13.5914 1104 93.8071 193.797 473.318
67 0 83.1923 13.6671 1137 94.0079 193.186 472.639
68 0 84.0976 13.4606 1132 98.856 193.23 470.966
69 0 88.0862 13.8501 1220 97.0066 193.286 468.981
70 0 92.1559 12.8152 1181 97.3319 192.972 467.688
71 0 95.1837 13.6158 1296 92.9884 193.183 465.447
72 1 49.047 10.6632 523 89.0746 193.717 488.734
73 0 51.1933 12.2868 629 85.0922 194.618 487.733
74 0 52.1453 12.3309 643 86.4417 193.904 485.434
75 0 52.0313 11.4547 596 85.9614 194.517 488.334
76 0 54.0347 12.2144 660 84.1379 194.292 486.889
77 0 55.0497 11.426 629 85.5787 194.833 486.296
78 0 56.084 11.3758 638 85.2727 194.301 485.719
79 0 58.0232 11.4437 664 84.0572 194.134 485.31
80 0 61.1055 11.161 682 83.9413 194.784 483.922
81 0 63.0522 12.0059 757 82.9802 194.21 481.539
82 0 64.0886 12.0614 773 82.8228 195.261 481.642
83 0 66.1123 11.6015 767 83.3963 194.618 479.025
84 0 68.1145 10.4677 713 84.7433 195.506 480.126
85 0 71.1762 11.1273 792 83.5606 194.893 478.991
86 0 74.0858 12.1616 901 81.7691 194.819 476.457
87 0 76.1693 11.4351 871 82.0941 194.432 474.58
88 0 79.1732 11.178 885 82.2746 194.707 473.173
89 1 41.0337 10.5279 432 84.4167 195.454 490.852
90 0 44.0611 11.2344 495 83.503 195.869 491.097
91 0 45.0382 12.0786 544 83.8272 194.658 489.154
92 0 47.089 12.2534 577 84.0624 193.432 488.965
93 0 46.014 11.4313 526 78.0228 195.027 491.511
94 0 47.0254 11.3768 535 78.3271 194.443 490.578
95 0 48.0462 11.9052 572 78.9108 194.107 487.918
96 0 49.0559 10.6613 523 80.5717 194.857 488.857
97 0 52.0364 11.8379 616 77.7224 194.502 487.719
98 0 54.0612 11.191 605 78.3488 194.858 486.704
99 0 54.1083 11.8466 641 78.5257 194.704 486.3
100 0 55.0391 12.0642 664 78.6642 194.291 485.614
101 0 57.0309 12.2039 696 78.533 194.042 484.685
102 0 58.0724 11.6234 675 80.0044 194.27 482.77
103 0 60.0762 10.9361 657 82.5571 194.134 483.239
104 0 64.1349 12.0839 775 80.8452 194.655 480.987
105 0 65.086 11.431 744 83.1586 194.483 481.145
106 0 68.1058 12.1576 828 82.5229 195.086 478.039
107 0 70.174 12.1127 850 83.8247 194.571 478.518
108 0 73.1274 12.5534 918 83.0305 194.467 476.82
109 0 75.2527 12.4248 935 83.7433 194.121 477.129
110 0 77.0946 12.4782 962 84.3035 194.635 476.077
111 0 79.0611 12.5726 994 84.495 193.912 475.439
112 1 43.0379 10.6883 460 87.8152 194.843 493.874
113 0 46.0425 12.6188 581 83.6076 194.907 492.117
114 0 46.037 12.1641 560 84.7554 193.923 491.277
115 0 48.0535 12.4028 596 85.5352 194.55 490.503
116 0 47.0215 12.2497 576 88.8351 194.128 490.24
117 0 51.0671 13.1004 669 85.2571 194.716 490.049
118 0 49.0751 12.6541 621 90.9356 194.24 490.126
119 0 52.1042 12.9932 677 88.8331 194.111 489.312
120 0 53.111 12.9352 687 89.3581 194.876 488.803
121 0 54.0676 13.853 749 87.8077 194.622 487.559
122 0 57.1956 14.0395 803 86.5318 194.455 487.722
123 0 59.1879 13.5163 800 87.9738 194.585 486.345
124 0 61.1482 13.8843 849 86.9105 194.583 484.792
125 0 60.1734 13.5608 816 89.7096 194.716 483.328
126 0 66.1961 14.0492 930 85.8452 195.283 482.508
127 0 66.14 13.169 871 89.2434 194.923 482.367
128 0 68.1163 14.0642 958 86.7401 194.233 481.783
129 0 70.1917 13.5913 954 87.9665 194.601 481.481
130 0 71.1608 13.0409 928 89.6185 194.999 480.154
131 0 75.1424 13.1617 989 88.5794 194.236 478.297
132 0 78.1751 13.764 1076 87.6506 193.796 476.388
133 0 80.1523 13.4619 1079 88.7637 193.504 475.542
134 0 82.124 13.5527 1113 88.0431 193.472 475.928
135 0 84.1688 13.6274 1147 87.9861 193.882 473.112
136 0 86.1465 13.7208 1182 88.044 193.611 472.134
137 0 88.1636 13.6337 1202 88.0358 193.743 469.775
138 0 91.1516 13.7024 1249 86.9688 194.047 470.33
139 0 94.2178 13.628 1284 85.1869 192.912 467.886
140 0 98.1748 12.9565 1272 83.5723 192.73 468.517
141 1 49.0271 12.2381 600 82.91 193.565 492.435
142 0 48.0337 11.8459 569 88.2127 191.902 491.241
143 0 52.048 11.9313 621 78.8438 192.527 488.557
144 0 52.0254 12.6477 658 81.0471 192.407 488.933
145 0 53.0636 11.8537 629 82.3959 192.399 489.496
146 0 56.0759 12.1443 681 81.116 192.023 488.9
147 0 59.0437 12.55 741 78.8394 192.717 489.192
148 0 61.0933 12.7182 777 78.9781 192.368 487.826
149 0 61.0267 12.601 769 80.0611 192.456 483.464
150 0 65.0301 13.2246 860 79.7977 192.129 483.083
151 0 66.0516 13.5046 892 80.5919 191.806 482.353
152 0 69.0542 13.1201 906 81.628 191.76 481.478
153 0 71.1082 13.5849 966 82.706 191.679 479.734
154 0 74.072 13.3789 991 83.3411 191.712 478.244
155 0 78.0643 13.8476 1081 82.0648 192.361 476.444
156 0 78.1341 13.2337 1034 84.5348 193.906 476.376
157 0 82.1651 13.266 1090 83.7266 194.272 474.403
158 0 83.1486 12.8084 1065 84.785 194.078 474.256
159 0 86.1839 13.3436 1150 84.6652 193.808 472.425
160 0 87.2314 13.0801 1141 86.2235 193.527 471.372
161 0 92.1893 12.8757 1187 85.9705 193.17 468.643
162 0 94.1851 13.1125 1235 83.7749 194.088 468.524
163 1 49.0378 10.5633 518 85.1718 193.602 490.878
164 0 50.0206 11.0155 551 80.4047 193.904 487.735
165 0 53.0487 12.1398 644 78.8789 194.537 489.321
166 0 54.046 11.8233 639 77.7496 194.49 487.509
167 0 55.1036 12.1226 668 79.988 194.446 486.967
168 0 57.0984 12.5047 714 79.2997 194.567 484.842
169 0 59.1956 12.5854 745 79.0174 194.455 484.711
170 0 60.0936 12.1311 729 80.8395 194.39 483.354
171 0 62.1509 12.5179 778 82.6478 194.243 482.382
172 0 64.2424 12.375 795 82.8113 194.925 481.218
173 0 67.1631 12.9238 868 81.1509 194.606 479.416
174 0 68.0809 13.2343 901 81.7314 194.898 479.19
175 0 72.1306 12.9349 933 81.806 194.726 478.603
176 0 74.1263 13.5714 1006 81.5686 194.005 478.042
177 0 77.1478 12.7029 980 83.352 193.518 477.166
178 0 78.0646 12.8483 1003 84.5803 194.066 475.342
179 0 83.0848 13.1312 1091 83.5655 194.32 473.706
180 0 85.192 13.4872 1149 84.6118 193.621 472.049
181 0 86.101 13.1241 1130 85.8283 194.369 472.312
182 0 90.1309 13.4138 1209 85.1439 193.844 470.831
183 0 93.0993 13.5769 1264 86.2144 194.021 469.615
184 0 96.1649 13.56 1304 87.4992 193.202 467.24
185 0 99.131 13.3762 1326 87.8643 193.675 466.419
186 0 101.175 13.7682 1393 88.3388 193.795 465.658
187 0 104.113 13.4662 1402 89.8795 193.259 464.003
188 1 54.0838 12.2403 662 85.3353 194.095 489.434
189 0 56.1146 12.3319 692 83.7384 193.634 488.033
190 0 58.3395 12.8215 748 92.7112 193.318 485.134
191 0 58.1322 11.7835 685 87.2102 193.839 486.272
192 0 59.2291 11.6159 688 89.25 193.049 487.109
193 0 61.1764 11.0664 677 90.6484 192.625 486.671
194 0 64.2494 11.8912 764 90.3076 192.915 483.898
195 0 67.2755 11.8914 800 89.5325 193.095 483.15
196 0 67.2031 11.4132 767 91.7888 192.817 482.631
197 0 69.2168 11.5868 802 91.7344 192.954 480.847
198 0 71.1623 11.804 840 93.106 193.007 480.112
199 0 75.1692 11.5606 869 90.7089 193.338 479.138
200 0 78.1779 12.8809 1007 89.1619 192.971 475.389
201 0 79.1491 11.9521 946 92.0814 192.66 474.379
202 0 82.2304 12.0515 991 116.647 192.259 475.652
203 0 85.218 12.5912 1073 114.568 192.211 473.626
204 0 85.1648 11.3192 964 117.716 192.485 472.804
205 0 90.1193 12.3614 1114 113.984 192.695 471.637
206 0 93.086 12.1178 1128 111.484 192.091 470.827
207 0 95.1015 12.4814 1187 109.623 191.962 467.789
208 0 97.0971 11.9674 1162 108.612 192.237 468.233
209 1 55.1861 11.0898 612 99.4265 193.549 489.989
210 0 55.1113 11.885 655 97.9237 192.415 487.218
211 0 56.072 11.5922 650 98.6538 191.355 487.76
212 0 59.2703 12.2321 725 102.232 191.299 487.127
213 0 61.32 12.1657 746 102.647 191.295 486.025
214 0 62.195 13.1361 817 99.4051 191.395 484.187
215 0 66.2928 12.8973 855 97.7287 191.637 483.95
216 0 67.2321 12.2709 825 101.371 191.55 482.897
217 0 69.0946 12.6059 871 102.278 192.527 480.906
218 0 71.2775 13.1318 936 112.759 192.421 479.408
219 0 74.181 13.2918 986 110.767 192.813 478.499
220 0 75.1024 13.1687 989 111.866 192.741 476.14
221 0 78.072 13.5388 1057 110.95 192.013 475.764
222 0 79.0902 13.3266 1054 113.823 192.528 476.02
223 0 83.0555 13.2321 1099 113.269 193.227 474.631
224 0 84.101 13.5789 1142 113.656 192.552 473.789
225 0 87.0559 13.9566 1215 112.816 191.947 472.988
226 0 87.0855 13.9518 1215 114.319 191.872 471.156
227 0 88.2983 14.1679 1251 114.835 192.468 471.206
228 0 91.3299 14.1903 1296 113.529 191.895 470.009
229 0 93.2514 14.1124 1316 113.866 191.824 470.672
230 0 94.3684 14.3904 1358 111.627 192.177 468.994
231 0 95.3402 14.2752 1361 111.447 192.399 468.987
232 0 96.3171 14.8156 1427 110.501 191.273 467.613
233 0 98.2657 14.6745 1442 110.212 191.334 469.278
234 0 99.3095 13.8355 1374 112.416 191.961 467.799
235 0 101.317 14.5089 1470 109.699 191.774 465.881
236 0 103.316 14.654 1514 109.079 191.573 465.883
237 0 105.289 14.9208 1571 106.714 191.772 465.151
238 0 106.342 14.6884 1562 107.471 191.977 463.371
239 0 108.273 14.9068 1614 105.415 191.848 462.023
240 0 107.266 15.4102 1653 103.158 191.707 463.035
241 0 109.364 15.4347 1688 104.398 191.469 461.56
242 0 109.375 15.0308 1644 105.58 191.617 461.53
243 0 110.338 14.9359 1648 105.544 191.56 462.066
244 0 108.286 14.591 1580 105.897 190.823 461.949
245 0 111.278 14.7289 1639 104.671 190.709 460.668
246 0 112.341 15.2927 1718 101.474 191.065 460.69
247 0 112.309 15.2526 1713 100.4 190.506 460.194
248 1 149.353 12.1324 1812 98.9139 190.705 453.825
249 0 148.433 11.5743 1718 100.212 190.677 454.093
250 1 163.529 11.2518 1840 97.6071 190.848 449.051
251 0 164.421 11.355 1867 97.6031 190.99 450.33
252 0 163.332 10.8858 1778 96.5281 191.426 454.826
253 0 164.339 11.4093 1875 95.8427 191.683 450.683
254 0 162.306 10.6404 1727 98.1332 191.34 452.653
255 0 164.37 12.119 1992 92.1079 190.798 446.734
256 0 165.469 12.2259 2023 90.4958 191.641 449.825
257 0 161.377 13.831 2232 86.6196 190.987 445.258
258 0 159.297 11.7391 1870 91.0209 190.945 455.029
259 0 159.52 11.9233 1902 89.8559 190.677 453.525
260 0 157.312 12.1224 1907 89.0739 191.069 450.405
261 0 159.435 12.4126 1979 87.0738 190.853 447.487
262 0 159.299 12.781 2036 85.1591 191.128 446.891
263 0 158.336 11.7661 1863 87.1573 191.376 453.131
264 1 171.326 11.481 1967 150.929 191.31 448.759
265 0 173.327 13.1197 2274 79.1715 191.916 441.34
266 0 175.399 10.9522 1921 83.4341 191.77 448.323
267 1 64.1056 9.88992 634 85.2429 192.336 485.084
268 0 63.1046 9.71402 613 85.3426 192.344 484.664
269 0 64.2066 10.3883 667 80.6267 191.954 483.693
270 0 65.0655 11.0811 721 75.4341 192.705 482.671
271 0 65.0808 10.6483 693 75.0736 191.994 482.176
272 0 63.1075 9.65019 609 74.6634 192.765 482.488
273 0 63.1661 10.607 670 69.9149 192.296 481.228
274 0 63.1031 9.87273 623 68.1557 192.371 483.013
275 0 64.1161 11.4792 736 63.6467 192.19 481.082
276 0 62.1099 9.82129 610 65.5803 192.956 481.259
277 0 62.1538 10.5223 654 63.5887 192.439 481.544
278 0 63.1397 10.0729 636 61.1509 192.17 482.388
279 0 62.0861 10.5499 655 61.4153 192.073 480.902
280 0 62.0961 10.3388 642 59.1059 192.438 479.579
281 0 61.0478 8.76362 535 59.172 192.716 481.254
282 0 61.1073 9.65515 590 57.2797 192.553 478.583
283 0 59.1356 8.3875 496 56.8508 192.431 477.611
284 0 60.043 9.39327 564 54.578 192.323 476.791
285 0 58.2014 8.24722 480 54.0938 192.679 479.227
286 0 60.0468 8.39346 504 53.1091 192.895 478.933
287 1 124.396 6.90535 859 51.4657 189.917 384.545
288 1 87.14 13.7595 1199 94.216 189.528 273.613
289 0 89.1215 15.1254 1348 91.9948 189.323 271.374
290 0 92.1455 14.2383 1312 93.1303 189.104 270.64
291 0 96.1644 16.0038 1539 86.0578 189.292 267.619
292 0 98.2067 14.2353 1398 93.4227 189.409 267.253
293 0 115.068 16.9726 1953 78.0379 188.721 260.794
294 0 106.225 17.5853 1868 81.9138 189.433 259.125
295 0 115.186 18.952 2183 76.6427 188.531 255.672
296 0 116.329 17.7427 2064 80.2432 189.207 254.777
297 0 116.192 15.853 1842 84.3111 189.065 256.212
298 0 117.236 13.8353 1622 89.2725 188.758 257.474
299 0 121.234 13.6266 1652 87.27 188.834 255.055
300 0 124.168 13.1998 1639 87.5235 188.537 253.517
301 0 130.11 16.4246 2137 80.1905 188.109 249.221
302 1 74.1044 13.7509 1019 86.05 188.18 277.045
303 0 79.2013 14.2169 1126 84.3162 188.504 276.719
304 0 78.1193 13.9786 1092 86.5375 188.274 274.702
305 0 83.157 14.3223 1191 83.8598 188.936 273.828
306 0 85.0815 13.7985 1174 84.7095 188.831 274.187
307 0 86.083 13.7425 1183 84.7447 188.656 272.192
308 0 89.1066 13.8935 1238 85.1058 188.943 271.262
309 0 93.1526 14.8037 1379 82.2306 188.344 270.282
310 0 94.2135 13.5437 1276 85.1803 188.162 268.085
311 0 98.1775 13.934 1368 84.28 188.716 266.765
312 0 100.157 13.9981 1402 85.6405 189.073 265.968
313 0 102.093 13.5562 1384 86.901 188.637 265.554
314 0 107.133 14.3 1532 84.455 188.565 263.91
315 0 109.121 13.9386 1521 85.5365 188.554 262.941
316 0 113.129 13.7807 1559 87.7999 188.733 261.962
317 0 117.155 14.1266 1655 86.452 188.209 259.352
318 0 121.198 16.4937 1999 80.1716 188.377 257.692
319 0 124.212 16.0613 1995 81.2531 188.495 254.539
320 0 129.186 16.5575 2139 80.5386 188.077 253.476
321 0 132.101 16.0483 2120 81.1476 188.064 251.038
322 0 137.305 16.1247 2214 81.1481 187.969 249.785
323 1 70.0978 11.5695 811 86.7546 188.633 283.549
324 0 72.0849 12.2217 881 83.6935 188.262 284.736
325 0 73.0704 12.2621 896 84.6886 188.454 282.71
326 0 74.0642 12.6512 937 85.1089 187.554 281.988
327 0 77.0604 13.1455 1013 84.7878 187.69 280.497
328 0 80.0901 13.2975 1065 83.1531 187.941 280.766
329 0 84.0581 13.8714 1166 81.916 187.597 279.213
330 0 85.0759 13.9758 1189 82.9041 187.498 277.526
331 0 90.0853 14.6972 1324 81.1798 186.763 275.785
332 0 90.0994 13.6849 1233 84.5702 187.424 272.559
333 0 93.1144 14.0795 1311 85.3288 187.822 271.05
334 0 97.1669 13.5025 1312 87.4276 187.531 270.522
335 0 105.08 16.7207 1757 80.5566 187.099 264.539
336 0 102.198 15.9886 1634 84.2118 186.59 265.816
337 0 107.156 16.5832 1777 88.0428 187.03 264.022
338 0 109.203 16.5289 1805 88.1706 187.449 260.765
339 1 49.138 11.3151 556 84.8633 187.367 294.621
340 0 51.1361 11.929 610 85.4049 187.759 292.987
341 0 52.1283 11.9513 623 86.0658 186.791 292.536
342 0 55.121 12.2095 673 84.2615 187.328 292.502
343 0 55.1241 12.0274 663 86.9065 187.398 291.596
344 0 57.1152 12.396 708 88.7189 187.027 290.414
345 0 59.0961 12.4712 737 87.9172 186.003 290.555
346 0 61.199 13.1538 805 82.2224 186.086 289.55
347 0 62.0753 12.6298 784 91.0804 186.256 287.804
348 0 65.0933 12.9199 841 90.6897 186.46 287.477
349 0 66.0705 13.1829 871 91.2101 186.442 286.137
350 0 68.0855 12.9984 885 91.7853 186.482 286.249
351 0 70.0938 13.325 934 91.8822 186.861 285.104
352 0 73.0749 13.3425 975 92.3251 186.216 283.646
353 0 75.0874 13.2379 994 94.7726 186.251 283.28
354 0 77.1241 13.6144 1050 95.8286 185.288 281.53
355 0 79.0648 13.217 1045 96.8967 185.397 279.856
356 0 81.0752 12.8276 1040 98.4048 185.601 279.721
357 1 41.0696 10.397 427 92.3653 185.754 299.269
358 0 41.0696 10.4457 429 151.89 185.755 299.273
359 0 45.1266 12.0107 542 97.9779 186.694 297.542
360 0 46.1432 11.746 542 99.8838 187.244 295.71
361 0 49.0843 11.8571 582 98.7749 186.431 294.565
362 0 50.1349 12.2669 615 95.9171 186.397 293.093
363 0 51.0551 12.5942 643 96.0918 186.838 292.893
364 0 53.1082 12.6346 671 95.1028 186.03 293.914
365 0 56.0682 12.9307 725 93.0731 186.79 292.04
366 0 56.1249 13.078 734 93.4346 188.117 292.292
367 0 56.2281 12.3604 695 98.3554 187.101 291.567
368 0 59.0975 12.9616 766 95.8368 186.617 288.769
369 0 62.103 12.7852 794 96.5718 186.78 290.713
370 0 62.167 12.7077 790 96.4468 186.182 288.684
371 0 65.2033 12.8214 836 96.8421 186.44 287.108
372 0 64.1123 13.18 845 95.5456 186.44 286.516
373 0 68.1772 13.5529 924 95.9859 186.338 286.712
374 0 68.1433 13.3102 907 96.4498 186.336 284.819
375 0 72.1002 13.4674 971 96.0742 186.449 283.885
376 0 73.0948 13.6809 1000 96.932 187.003 282.365
377 0 76.1498 13.9725 1064 96.9323 187.131 279.96
378 0 79.1513 13.2531 1049 98.1888 187.056 281.516
379 0 82.1277 14.2339 1169 94.8837 187.383 279.086
380 0 84.0688 13.9529 1173 96.3333 188.188 277.205
381 0 89.1391 13.2938 1185 98.0346 188.239 275.31
382 0 89.124 14.1937 1265 96.8055 187.478 274.327
383 0 91.106 13.7752 1255 98.8112 187.887 272.164
384 0 94.2028 14.4476 1361 93.4974 187.574 270.606
385 0 95.1718 14.7313 1402 99.1441 187.746 271.073
386 0 99.1272 14.7992 1467 97.2658 188.018 269.527
387 0 99.1717 16.7286 1659 90.6269 188.136 265.372
388 0 101.088 16.1344 1631 94.2685 187.287 265.188
389 0 104.112 16.8185 1751 93.4712 187.525 262.162
390 0 108.158 17.1231 1852 92.2327 187.407 261.332
391 0 111.183 17.3498 1929 92.2955 187.443 259.034
392 0 115.179 17.1993 1981 91.1747 187.028 257.701
393 0 119.236 17.6373 2103 89.2943 187.294 254.069
394 0 120.119 16.6085 1995 93.202 186.929 253.283
395 0 126.103 17.454 2201 90.2526 188.149 251.967
396 0 129.113 17.2329 2225 91.8584 187.658 250.502
397 0 132.059 17.4089 2299 89.8865 187.872 248.304
398 0 138.173 17.6663 2441 90.3794 187.079 247.524
399 0 141.142 16.7562 2365 93.1277 187.789 244.685
400 0 145.102 16.8846 2450 92.5571 187.495 241.449
401 0 150.104 16.915 2539 92.6231 188.022 237.116
