time division length width area intensity CMx CMy
0 0 42.1181 13.5334 570 92.3895 425.914 488.379
1 0 43.1266 13.4024 578 91.9723 425.497 486.95
2 0 44.0862 13.4963 595 90.837 424.911 488.109
3 0 45.1148 13.3437 602 90.608 425.279 488.605
4 0 44.0371 13.2161 582 91.5945 425.206 487.136
5 0 48.0883 13.1633 633 89.2812 425.344 487.359
6 0 47.0777 13.5521 638 89.4545 425.926 487.071
7 0 52.0322 14.3373 746 84.252 424.925 486.282
8 0 50.0451 13.7276 687 85.2431 424.913 485.207
9 0 53.038 13.7826 731 79.7387 424.995 483.566
10 0 53.0939 14.3142 760 82.8145 425.067 484.884
11 0 55.1206 14.4955 799 81.2441 424.059 485.528
12 0 56.0638 13.4846 756 77.8664 424.143 483.55
13 0 59.0573 15.4088 910 76.5154 423.57 481.348
14 0 59.1165 14.463 855 79.8129 423.509 482.108
15 0 61.1081 14.4334 882 79.4751 423.63 482.324
16 0 61.1264 14.4128 881 79.7196 423.222 481.824
17 0 63.0548 14.5429 917 78.8877 423 480.576
18 0 63.0759 14.4746 913 79.3001 423.042 480.26
19 0 66.0773 14.8311 980 78.2071 422.969 479.394
20 0 67.0748 14.7895 992 78.877 422.763 478.564
21 0 67.0886 14.2498 956 80.9874 423.383 478.734
22 0 71.0791 14.927 1061 77.9736 422.823 476.651
23 0 72.0916 14.7451 1063 78.4553 422.774 475.221
24 0 73.1046 14.3083 1046 79.9694 422.478 475.252
25 0 76.0984 14.7835 1125 78.8169 422.756 473.949
26 0 78.0705 14.8968 1163 78.4101 423.543 473.272
27 0 80.0918 15.3948 1233 77.2141 422.677 471.854
28 0 81.0855 15.3172 1242 77.4034 422.88 471.857
29 0 83.186 14.726 1225 78.5216 422.449 472.857
30 0 86.1126 15.0501 1296 76.5787 422.559 472.076
31 0 85.1953 14.3083 1219 78.7941 422.436 471.03
32 0 90.0828 15.3081 1379 75.3481 422.956 469.728
33 0 91.1625 15.1927 1385 75.8751 421.875 468.907
34 0 95.1526 15.081 1435 74.7394 421.926 468.203
35 0 96.2681 14.9063 1435 75.2544 421.327 467.629
36 0 98.2051 14.2151 1396 77.4821 422.098 464.397
37 0 101.187 14.498 1467 75.696 421.866 463.348
38 0 104.052 14.608 1520 74.5704 421.725 461.924
39 0 107.09 14.6792 1572 74.187 421.985 461.202
40 0 110.087 14.2888 1573 74.5118 421.784 458.301
41 0 113.157 14.9084 1687 72.5406 422.282 458.554
42 0 117.119 14.7456 1727 73.3208 421.203 456.171
43 0 120.103 14.9538 1796 74.4427 421.395 452.275
44 0 123.082 14.2425 1753 78.348 421.082 450.605
45 0 128.108 14.558 1865 76.7212 421.129 447.464
46 0 132.145 15.0138 1984 75.9708 421.393 446.816
47 0 134.147 14.7972 1985 77.1073 421.257 443.832
48 0 140.125 14.8939 2087 76.724 420.839 441.32
49 0 144.234 14.7469 2127 76.26 420.649 439.487
50 0 145.219 14.3989 2091 77.6442 421.354 437.25
51 0 152.141 15.4988 2358 75.4813 422.284 434.463
52 0 157.222 15.2905 2404 75.4493 421.696 432.488
53 0 160.197 15.0752 2415 76.6783 422.039 432.975
54 0 163.171 14.874 2427 78.8315 421.267 431.309
55 0 169.152 14.3835 2433 78.2881 421.269 426.21
56 1 94.1235 13.1954 1242 79.3277 421.94 463.827
57 0 97.0543 13.137 1275 79.1318 421.65 461.716
58 0 101.11 13.8661 1402 81.4529 420.666 461.088
59 0 105.13 13.6783 1438 80.0466 422.159 460.951
60 0 109.109 14.5909 1592 78.272 421.904 457.734
61 0 113.108 14.3137 1619 81.7492 422.38 456.708
62 0 117.182 14.0295 1644 80.6472 422.063 454.629
63 0 120.145 13.4588 1617 79.8695 422.139 452.079
64 0 120.145 13.5004 1622 144.739 423.163 452.06
65 0 129.171 13.4008 1731 81.7244 421.998 448.33
66 1 67.088 11.7458 788 81.8604 421.758 480.39
67 0 68.0508 13.4018 912 81.5811 421.711 480.243
68 0 70.0825 12.8848 903 81.1894 422.223 476.02
69 0 74.1401 14.0545 1042 79.3234 422.198 476.226
70 0 76.0521 13.7011 1042 81.0384 422.208 473.807
71 0 79.0949 14.7291 1165 78.1159 422.069 471.367
72 0 79.0716 13.5194 1069 79.3555 421.974 472.549
73 0 82.1388 13.8059 1134 81.9409 422.676 471.548
74 0 86.1494 14.1382 1218 82.1946 422.632 470.012
75 0 88.19 13.7884 1216 83.1242 422.516 467.958
76 0 92.2396 13.7251 1266 83.0577 422.264 467.532
77 0 93.2328 13.7291 1280 84.7094 422.734 466.665
78 0 96.1541 14.0712 1353 83.2934 421.73 466.069
79 0 97.1452 14.2364 1383 84.4816 421.479 464.725
80 0 102.139 14.3726 1468 84.6322 422.121 463.365
81 0 105.214 14.5608 1532 85.0483 421.514 460.629
82 0 108.213 14.5823 1578 84.4899 422.572 458.426
83 0 111.19 13.8592 1541 86.2044 421.969 458.539
84 0 114.243 14.2503 1628 86.3133 422.639 455.519
85 0 119.221 14.4354 1721 86.1923 422.24 454.546
86 0 119.221 14.4186 1719 160.424 421.24 454.466
87 0 126.18 14.0672 1775 87.6986 421.892 450.369
88 0 128.111 13.8239 1771 89.1254 422.337 447.942
89 0 134.211 14.0749 1889 88.343 422.259 446.078
90 0 140.161 14.4762 2029 87.5185 422.395 442.638
91 0 143.15 14.3835 2059 92.4196 422.321 440.305
92 0 149.189 14.5654 2173 93.6148 421.607 437.976
93 0 154.23 14.7507 2275 94.2664 422.012 434.921
94 0 158.3 15.1548 2399 94.9892 421.566 432.268
95 0 163.259 14.9394 2439 97.0504 421.157 428.258
96 1 92.1072 12.2683 1130 94.1292 422.172 467.128
97 0 94.1051 12.5392 1180 95.5932 421.806 466.809
98 0 98.1081 13.0468 1280 94.925 422.116 464.876
99 0 101.136 13.1901 1334 96.0045 421.971 462.292
100 0 104.127 12.9937 1353 96.5728 421.691 461.456
101 0 108.24 13.2483 1434 96.3647 421.561 459.801
102 0 111.217 13.2893 1478 97.1793 421.936 456.368
103 0 116.334 13.1432 1529 98.5363 421.842 455.831
104 0 117.171 12.4348 1457 101.517 422.563 452.397
105 0 122.383 12.8939 1578 100.729 422.158 449.223
106 0 125.474 13.0226 1634 102.069 422.912 443.799
107 0 128.503 12.8713 1654 103.184 422.377 440.533
108 0 132.587 12.9349 1715 103.636 422.423 440.459
109 0 136.242 13.021 1774 103.307 422.019 441.829
110 0 140.409 12.9265 1815 104.777 422.756 437.252
111 0 145.41 12.9083 1877 104.535 422.023 433.828
112 0 148.452 12.5765 1867 107.12 422.445 431.017
113 0 152.392 12.645 1927 108.105 422.496 429.12
114 0 160.403 12.8489 2061 107.887 421.453 426.875
115 0 164.373 12.4412 2045 109.622 421.961 422.433
116 0 170.364 12.9898 2213 109.187 421.59 421.392
117 0 175.351 13.071 2292 108.143 421.924 416.008
118 0 180.417 12.7261 2296 110.649 421.619 413.456
119 0 187.433 12.9593 2429 109.825 421.442 411.949
120 0 193.401 12.4767 2413 110.361 422.041 408.151
121 0 198.278 12.2051 2420 112.26 421.39 403.758
122 0 204.424 11.8528 2423 112.487 421.287 403.052
123 0 212.279 12.3328 2618 111.627 421.6 398.806
124 0 219.223 12.7861 2803 110.696 421.521 395.497
125 0 226.322 12.2171 2765 112.937 421.447 389.998
126 0 234.197 13.0147 3048 110.072 421.889 387.552
127 0 177.19 10.1586 1800 122.406 421.142 374.704
128 0 54.0618 9.50764 514 86.5409 422.654 481.94
129 0 58.0815 8.53972 496 95.5706 421.192 479.264
130 0 60.0761 8.75557 526 95.0837 421.456 478.876
131 0 62.0665 9.07091 563 94.8508 420.261 475.964
132 0 64.2356 9.38732 603 93.2968 420.244 474.118
133 0 64.1682 8.69589 558 94.0932 420.283 475.925
134 0 66.1064 9.43932 624 92.3349 420.375 474.926
135 0 69.2281 9.14369 633 91.2291 420.896 473.968
136 0 73.2031 11.352 831 84.8592 421.049 475.077
137 0 76.2015 11.6139 885 84.2893 421.206 473.666
138 0 78.1115 11.2019 875 84.4994 421.431 473.567
139 0 81.1866 11.6275 944 82.0456 420.5 470.858
140 0 85.1371 11.5696 985 80.0386 420.104 471.72
141 0 88.0748 11.6038 1022 80.5274 420.495 469.907
142 1 46.1041 10.1076 466 76.1094 419.569 489.225
143 0 47.0735 10.1119 476 73.4181 421.124 491.214
144 0 50.1013 10.339 518 71.3687 421.793 488.483
145 0 52.0712 10.9466 570 74.5965 423.275 487.254
146 0 53.0808 11.247 597 74.2446 422.64 487.608
147 0 52.2305 10.626 555 76.1784 422.595 488.171
148 0 55.2517 11.33 626 74.3562 422.264 486.369
149 0 56.0949 11.6945 656 75.0823 422.459 484.532
150 0 57.1915 10.9282 625 73.9936 422.485 481.043
151 0 59.1835 11.8952 704 74.4432 422.484 482.643
152 0 62.2658 11.9167 742 74.1941 422.474 481.152
153 0 66.383 12.5484 833 72.9832 422.176 481.492
154 0 66.2256 12.4423 824 73.7961 422.002 480.096
155 0 69.2695 12.2998 852 74.1702 422.673 479.561
156 0 70.2351 13.0846 919 73.9619 422.312 476.86
157 0 72.1402 12.8916 930 74.4946 422.904 477.459
158 0 74.2959 13.1097 974 75.1766 422.562 475.957
159 0 74.2959 13.029 968 136.665 421.517 475.941
160 0 77.3078 12.7283 984 79.5661 421.96 475.135
161 0 81.2433 13.2811 1079 81.392 421.767 473.163
162 0 83.1221 13.0772 1087 82.9016 423.133 471.289
163 0 87.0577 13.4279 1169 82.9829 422.251 469.584
164 0 90.1228 13.4594 1213 81.4699 422.486 467.513
165 0 90.1259 13.0484 1176 86.7959 421.061 465.943
166 1 47.0169 10.5707 497 84.1529 420.296 489.304
167 0 47.0204 11.5056 541 82.9852 420.36 490.039
168 0 48.0181 11.4957 552 79.9692 420.585 486.788
169 0 51.2324 12.0432 617 76.3663 423.708 484.433
170 0 52.0166 11.9577 622 78.3714 421.252 486.767
171 0 54.0574 12.5792 680 76.9294 420.413 485.591
172 0 54.0613 12.7633 690 77.6348 421.181 485.016
173 0 57.0529 12.69 724 78.1326 421.135 484.033
174 0 58.033 13.0098 755 78.4834 421.743 482.956
175 0 60.0567 12.8878 774 79.6202 421.417 481.164
176 0 60.0735 12.518 752 82.7739 421.43 483.689
177 0 60.04 12.5083 751 83.747 420.209 483.007
178 0 62.0418 12.1692 755 85.0821 420.964 481.895
179 0 65.042 11.9 774 85.3966 421.579 480.819
180 0 66.0843 12.5597 830 84.8723 420.414 479.388
181 0 68.0315 12.2737 835 85.7641 421.477 479.758
182 0 70.0442 12.9204 905 83.6497 420.958 479.551
183 0 73.062 13.0027 950 85.6116 421.336 477.62
184 0 75.0563 12.9769 974 85.3039 420.248 476.748
185 0 77.086 12.8687 992 86.3206 420.589 475.398
186 0 80.087 12.9234 1035 85.6879 420.817 475.522
187 0 81.0438 13.104 1062 86.9115 420.266 473.497
188 0 86.0514 13.3641 1150 85.1557 420.075 471.398
189 1 46.0211 11.7989 543 86.8029 419.411 489.506
190 0 45.0753 11.4031 514 87.3385 420.016 488.154
191 0 48.0466 11.7178 563 84.3552 420.396 488.309
192 0 49.1505 12.4109 610 82.841 421.766 487.569
193 0 49.0287 11.993 588 79.0306 419.379 488.833
194 0 50.0823 11.7407 588 79.3333 419.701 488.226
195 0 51.0389 11.8341 604 79.8907 419.922 486.975
196 0 52.0609 11.5826 603 80.476 419.648 486.692
197 0 54.089 11.7399 635 80.3811 419.83 484.502
198 0 57.0617 12.4251 709 79.8886 419.935 483.841
199 0 58.0671 11.8484 688 81.9244 420.342 483.081
200 0 57.0531 11.9362 681 83.3906 420.06 482.465
201 0 63.0635 12.3051 776 82.2603 419.772 481.457
202 0 65.0695 13.2166 860 103.971 419.388 480.093
203 0 67.0814 12.5519 842 106.188 419.325 478.999
204 0 68.1357 12.8127 873 106.953 419.798 478.271
205 0 70.1222 12.6921 890 107.893 419.993 476.653
206 0 73.1061 12.5571 918 108.471 419.437 477.52
207 0 75.195 13.4317 1010 107.158 419.613 475.799
208 0 77.1812 12.6456 976 109.057 419.971 475.78
209 0 80.1804 13.2826 1065 106.154 420.375 473.975
210 0 82.3696 13.0145 1072 107.736 420.552 471.987
211 0 85.2451 13.033 1111 107.196 419.728 472.044
212 0 88.1725 12.5776 1109 99.229 420.83 470.485
213 0 90.1254 12.183 1098 100.651 420.59 468.911
214 1 48.0864 10.8971 524 95.6546 422.053 488.748
215 0 49.115 11.6258 571 93.9037 422.165 487.799
216 0 49.0845 11.0626 543 93.9208 421.313 488.387
217 0 53.2905 11.7094 624 95.1779 421.803 486.276
218 0 53.1049 11.6938 621 94.6554 421.382 486.269
219 0 54.1565 11.6145 629 94.6359 421.925 485.38
220 0 56.1796 11.7836 662 93.5529 421.754 484.665
221 0 57.1807 12.5392 717 92.1757 420.642 483.371
222 0 58.2831 12.1648 709 92.2116 421.238 483.097
223 0 62.2141 11.9426 743 92.1911 421.884 481.544
224 0 63.1258 12.3404 779 92.4056 421.683 481.216
225 0 63.1927 12.0425 761 94.4691 421.49 477.982
226 0 66.0997 12.3299 815 93.6528 421.746 475.934
227 0 69.1521 12.6243 873 92.8225 421.837 476.591
228 0 71.1523 11.8338 842 94.0131 421.176 475.709
229 0 70.2353 11.5184 809 96.4487 421.153 475.355
230 0 74.1756 12.1738 903 94.8605 421.488 473.65
231 0 78.2022 11.79 922 99.1952 421.861 472.549
232 0 79.1431 12.2816 972 105.079 419.883 470.641
233 0 82.2456 12.1587 1000 104.966 420.348 469.386
234 1 44.1121 9.99726 441 101.966 421.569 491.005
235 0 43.1966 10.649 460 103.176 420.55 489.185
236 0 44.3289 11.0763 491 101.118 420.299 487.495
237 0 45.1141 11.482 518 89.5232 421.089 489.954
238 0 45.1455 11.1639 504 91.75 421.413 490.091
239 0 46.2054 10.5832 489 92.5153 421.382 488.73
240 0 47.2612 10.5795 500 92.904 421.212 488.442
241 0 48.162 10.8799 524 91.605 421.116 488.529
242 0 50.1283 10.8521 544 90.9871 421.118 486.632
243 0 52.1469 11.832 617 88.2593 421.263 487.439
244 0 55.2729 11.7779 651 86.6237 420.416 487.27
245 0 56.1082 11.8699 666 86.0571 420.318 485.18
246 0 57.1829 11.9616 684 86.614 420.599 483.788
247 0 58.2141 11.5436 672 87.7753 419.954 482.747
248 0 61.1643 12.1313 742 86.6321 420.326 483.005
249 0 62.1696 11.8064 734 86.7221 420.078 481.527
250 0 64.1896 12.6812 814 85.672 420.392 480.48
251 0 65.153 12.1714 793 87.826 420.435 480.721
252 0 70.2178 12.7318 894 86.0749 420.777 479.624
253 0 70.1675 12.1139 850 89.5976 420.966 477.071
254 0 75.2165 12.7898 962 88.2599 420.564 477.503
255 0 75.2514 13.023 980 90.4673 420.103 475.364
256 0 78.3691 13.4109 1051 92.1037 420.756 475.109
257 0 81.2027 12.8198 1041 92.7445 420.391 473.227
258 0 85.2445 13.7839 1175 89.0783 420.315 471.916
259 0 85.2326 13.4808 1149 91.0766 419.895 470.376
260 0 88.1373 12.889 1136 89.5229 420.434 468.025
261 0 89.1582 12.6741 1130 83.077 419.313 468.806
262 0 91.1642 12.3843 1129 83.8875 419.64 468.678
263 0 92.1873 11.6719 1076 85.539 419.688 467.767
264 0 96.1416 12.0863 1162 86.5404 419.42 464.273
265 0 101.155 12.2287 1237 86.3274 420.195 461.829
266 0 104.18 12.8432 1338 86.0807 419.933 460.389
267 1 54.032 11.086 599 81.5459 418.691 485.275
268 0 55.0395 10.7196 590 82.1983 418.898 483.588
269 0 56.0477 11.6508 653 79.3583 419.089 484.836
270 0 55.2746 11.5243 637 80.9796 420.414 482
271 0 59.1671 11.1379 659 80.302 419.288 482.894
272 0 63.2254 12.748 806 88.7655 418.648 481.878
273 0 65.182 12.5802 820 89.9146 418.288 480.73
274 0 66.1437 12.9415 856 90.0467 418.47 478.519
275 0 67.1241 13.1249 881 91.1669 418.314 477.591
276 0 69.1851 12.4882 864 93.434 419.064 477.465
277 0 72.2292 12.9172 933 92.5863 418.422 476.311
278 0 74.2413 13.281 986 90.8854 418.172 475.244
279 0 76.1867 12.6663 965 93.0176 418.457 473.723
280 0 78.1432 12.6819 991 92.2048 419.027 473.065
281 0 80.2314 12.5263 1005 92.3095 419.054 471.724
282 0 80.2314 12.5637 1008 149.719 419.059 471.689
283 0 84.2313 12.1214 1021 91.7365 419.109 468.404
284 0 89.1908 11.9968 1070 90.8477 419.085 468.464
285 0 89.2125 11.8705 1059 83.3909 419.87 468.587
286 0 91.1737 11.7797 1074 83.8538 419.907 466.385
287 0 93.1672 11.4633 1068 85.2846 420.411 465.787
288 0 99.1604 11.4058 1131 84.8992 420.135 465.698
289 1 50.0376 11.0317 552 80.3333 421.274 488.803
290 0 52.0073 10.6139 552 79.779 420.17 486.904
291 0 54.0952 11.6646 631 79.5325 421.163 488.412
292 0 55.0755 11.5296 635 80.1291 421.427 486.488
293 0 54.2056 11.1981 607 80.8484 420.835 486.044
294 0 57.1498 12.1435 694 78.6081 421.261 484.065
295 0 60.2051 12.4408 749 77.1535 420.328 482.908
296 0 62.1617 12.3066 765 76.9229 420.979 482.932
297 0 64.2819 11.7762 757 77.395 420.816 480.41
298 0 64.1984 11.8072 758 78.0185 420.501 479.507
299 0 67.1513 11.8092 793 78.1286 420.324 480.214
300 0 68.2524 11.8238 807 79.5886 420.03 478.2
301 0 70.1804 11.2709 791 83.6536 419.966 476.885
302 0 72.306 12.1014 875 85.112 420.285 477.534
303 0 75.1725 12.1986 917 85.4046 420.356 476.185
304 0 79.1285 13.0926 1036 83.001 419.946 475.312
305 0 82.1953 12.3851 1018 83.7063 420.386 473.084
306 0 85.1927 11.6677 994 82.5342 420.245 472.305
307 0 87.2185 12.3827 1080 81.5426 420.37 468.77
308 0 88.134 11.1989 987 85.1256 420.272 469.29
309 1 48.0368 10.5336 506 83.5099 421.391 490.69
310 0 48.0181 10.7668 517 83.617 420.778 491.056
311 0 49.0405 11.0521 542 84.3321 421.814 487.786
312 0 51.1967 10.8405 555 82.5838 422.213 487.589
313 0 51.0213 11.8774 606 79.7657 420.284 489.924
314 0 54.0633 11.0426 597 89.8007 420.211 487.595
315 0 56.061 12.0761 677 87.1285 420.44 485.767
316 0 55.049 11.0084 606 90.6518 420.802 486.193
317 0 57.0367 12.2553 699 86.628 420.28 485.063
318 0 58.064 11.5734 672 88.8289 420.28 485.21
319 0 59.0321 11.3159 668 89.5988 420.596 484.862
320 0 63.0397 11.4372 721 87.8641 420.323 484.447
321 0 64.0217 11.2618 721 87.0915 420.687 483.49
322 0 66.0507 11.8545 783 86.7305 420.3 482.69
323 0 67.0426 11.6195 779 87.561 421.325 482.28
324 0 68.0791 11.5601 787 88.028 420.848 481.717
325 0 73.0797 12.0964 884 86.6686 421.08 482.422
326 0 75.0837 12.5327 941 86.9362 420.092 480.527
327 0 76.0594 12.648 962 88.5665 420.087 479.98
328 0 76.0591 12.8716 979 89.0756 420.288 479.341
329 0 80.1082 12.5705 1007 90.0377 420.07 478.502
330 0 83.0627 12.328 1024 90.6846 419.597 476.428
331 0 84.1828 12.0096 1011 92.2957 419.017 476.495
332 0 88.1013 12.5537 1106 91.0606 419.687 473.124
333 0 91.099 12.92 1177 91.2234 420.061 472.15
334 1 48.0218 10.8909 523 91.0057 419.977 494.086
335 0 51.0181 11.2313 573 91.3176 419.258 494.743
336 0 53.0308 10.6542 565 93.4637 418.805 492.568
337 0 53.0359 11.0868 588 92.4745 418.315 493.017
338 0 56.0337 12.0999 678 88.0369 419.323 490.898
339 0 57.0995 12.5395 716 84.9818 418.529 490.595
340 0 60.1152 13.2579 797 82.7716 418.064 489.056
341 0 61.0948 13.3072 813 83.4084 416.956 488.358
342 0 60.0488 11.6072 697 89.4864 416.478 489.034
343 0 62.0462 12.3456 766 87.4308 417.55 488.148
344 0 63.1238 11.6121 733 90.8759 418.454 486.704
345 0 66.0659 12.4118 820 88.7341 416.489 486.3
346 0 69.1517 13.1306 908 78.2302 417.671 484.681
347 0 70.1254 12.663 888 87.5968 417.35 483.064
348 0 70.1266 12.0354 844 90.2903 417.686 481.686
349 0 76.0826 12.3813 942 90.3386 416.973 481.159
350 0 78.0696 12.8987 1007 91.1013 416.235 480.28
351 0 77.0604 12.7952 986 92.8286 416.436 479.357
352 0 80.1108 12.3204 987 93.2006 415.878 477.679
353 0 83.0698 13.2058 1097 92.6062 416.412 478.927
354 0 86.079 13.476 1160 99.1845 416.998 477.041
355 0 87.1009 13.5934 1184 101.515 416.939 475.811
356 0 88.0646 13.9897 1232 103.645 416.735 475.485
357 0 92.1134 13.7548 1267 104.672 416.99 474.459
358 0 92.1267 13.8288 1274 166.794 416.995 474.424
359 0 97.211 13.3627 1299 107.73 417.026 471.119
360 0 99.1633 13.2811 1317 109.391 417.585 470.029
361 0 101.189 13.2228 1338 111.732 416.961 466.825
362 0 105.15 13.8945 1461 107.991 416.871 464.01
363 0 109.178 13.7024 1496 108.778 416.128 461.918
364 0 111.18 13.3388 1483 106.731 415.757 461.523
365 0 112.137 12.3153 1381 103.826 416.681 456.091
366 0 117.187 12.8427 1505 101.181 417.597 453.751
367 0 117.304 12.0115 1409 106.392 417.247 451.402
368 1 63.123 9.83793 621 92.9517 417.013 478.634
369 0 66.0975 11.014 728 91.2212 417.512 479.499
370 0 68.0784 11.4427 779 90.7805 416.365 477.555
371 0 72.2271 12.4607 900 95.6033 418.264 481.118
372 0 73.233 12.7811 936 100.196 418.327 479.94
373 0 75.1948 12.5275 942 101.048 418.159 478.792
374 0 79.1477 12.5967 997 99.8726 418.187 477.582
375 0 81.1411 12.8665 1044 101.045 418.072 475.761
376 0 86.1993 13.6892 1180 97.7831 418.736 473.837
377 0 86.1553 13.8355 1192 98.3809 418.8 472.848
378 0 90.2252 13.7101 1237 99.4002 418.531 471.891
379 0 94.128 13.7154 1291 97.9822 418.611 469.576
380 0 96.2136 13.8858 1336 100.856 418.71 468.823
381 0 98.1266 12.9221 1268 103.428 418.003 466.899
382 0 102.163 13.8797 1418 99.445 416.901 465.345
383 0 102.148 12.6973 1297 101.872 417.665 463.766
384 0 108.191 13.0973 1417 102.905 416.978 462.728
385 0 110.253 13.3239 1469 103.588 417.083 459.609
386 0 113.212 12.9933 1471 104.602 416.92 457.621
387 0 118.22 13.0604 1544 100.157 417.431 456.258
388 0 122.192 13.2497 1619 97.7029 416.906 453.398
389 0 125.208 13.266 1661 99.9862 417.579 449.781
390 0 128.131 12.214 1565 96.331 417.433 446.557
391 1 68.2083 11.2303 766 91.2533 419.602 477.094
392 0 70.2498 11.8861 835 89.7808 418.455 477.029
393 0 74.1027 13.1574 975 87.6113 417.111 475.204
394 0 77.1808 13.2935 1026 93.2115 417.596 475.821
395 0 77.159 13.3879 1033 95.394 419.222 472.985
396 0 81.1223 13.8803 1126 93.6306 418.883 472.486
397 0 82.1716 13.5813 1116 95.8253 419.487 470.631
398 0 85.1625 12.94 1102 97.5653 418.589 471.014
399 0 87.1998 13.1537 1147 97.49 419.254 468.99
400 0 87.1835 12.0321 1049 96.9075 418.85 469.583
401 0 91.167 13.0859 1193 94.6186 419.305 465.894
