time division length width area intensity CMx CMy
0 0 46.0765 13.6512 629 135.777 251.968 501.45
1 0 47.0945 14.4178 679 131.829 251.784 500.133
2 0 49.0959 13.9116 683 130.471 251.876 500.827
3 0 50.2184 14.417 724 126.456 252.081 501.134
4 0 50.238 14.4313 725 126.897 251.545 500.65
5 0 51.1511 15.1512 775 123.637 251.799 500.557
6 0 53.2751 14.7912 788 121.541 251.81 500.472
7 0 54.1248 14.4481 782 122.063 251.642 499.48
8 0 56.231 14.3337 806 120.2 251.484 499.02
9 0 56.1245 14.5213 815 120.037 250.982 497.454
10 0 60.1485 14.9297 898 114.032 251.122 497.44
11 0 60.2302 14.5442 876 115.862 250.662 496.462
12 0 62.1714 15.3447 954 112.22 250.114 496.194
13 0 65.2301 14.8244 967 110.792 250.142 494.013
14 0 67.1564 14.8459 997 108.121 249.872 490.632
15 0 69.1163 15.0037 1037 103.273 250.006 492.038
16 0 71.1448 15.4614 1100 101.239 249.312 491.771
17 0 69.1407 15.0852 1043 103.168 248.91 488.668
18 0 72.221 14.5941 1054 102.324 248.702 489.311
19 0 76.1924 14.8571 1132 99.7677 248.299 485.38
20 0 79.1661 15.7138 1244 95.3392 248.445 483.907
21 0 81.174 15.5345 1261 95.609 248.957 482.504
22 0 84.2215 15.8273 1333 93.5896 248.515 482.273
23 0 86.152 15.3798 1325 94.7253 248.592 480.245
24 0 89.1446 15.6039 1391 93.317 248.311 481.01
25 0 92.1728 15.5794 1436 93.2723 248.113 478.666
26 0 96.1614 16.1707 1555 91.5608 248.833 478.221
27 0 99.1905 15.818 1569 93.3601 248.533 475.531
28 0 101.111 15.2209 1539 94.8142 247.763 475.676
29 0 105.194 14.9534 1573 94.9479 247.754 473.556
30 0 108.137 14.6019 1579 96.3775 248.07 473.284
31 0 111.137 14.9365 1660 95.5771 248.166 471.125
32 0 117.237 15.0294 1762 94.0341 247.844 469.91
33 0 121.222 15.319 1857 92.1255 247.591 468.009
34 0 126.236 14.8927 1880 93.7479 247.479 464.836
35 0 130.286 15.228 1984 93.7016 247.183 461.665
36 0 136.318 15.2731 2082 92.2056 247.705 458.507
37 0 139.233 14.8457 2067 93.6062 247.386 455.987
38 0 144.296 14.5327 2097 94.6109 247.5 452.424
39 0 149.296 14.5885 2178 94.5712 247.245 450.834
40 0 154.257 15.3056 2361 92.9814 247.318 449.307
41 0 158.265 15.354 2430 92.8255 246.942 448.531
42 0 164.264 15.1768 2493 93.8299 247.161 444.091
43 0 169.259 14.7053 2489 96.3949 246.458 440.096
44 0 177.247 15.1991 2694 93.8337 246.967 437.727
45 1 90.1289 12.7595 1150 88.6974 247.227 477.232
46 0 94.1242 13.2272 1245 94.6578 247.732 476.414
47 0 97.1205 13.962 1356 93.7891 247.162 473.107
48 0 102.207 14.138 1445 100.136 247.688 474.56
49 0 104.184 14.1385 1473 99.095 247.486 472.93
50 0 108.208 14.1486 1531 97.7329 247.653 471.579
51 0 112.172 14.237 1597 98.4678 247.905 470.463
52 0 116.104 14.332 1664 97.2127 247.376 467.774
53 0 120.111 14.1869 1704 96.2758 247.079 465.883
54 0 126.145 14.515 1831 94.8651 247.484 462.504
55 0 129.162 14.0521 1815 95.6479 247.721 461.07
56 0 134.098 13.8555 1858 95.936 248.013 457.674
57 0 140.081 14.0347 1966 94.6333 247.532 454.348
58 0 145.162 13.8535 2011 95.5719 246.923 453.579
59 0 151.14 14.5229 2195 94.6474 247.209 449.369
60 0 156.213 15.1396 2365 91.7315 247.547 448.95
61 0 161.177 15.0394 2424 92.4711 246.963 445.637
62 0 165.266 14.4252 2384 94.1846 247.26 442.753
63 0 172.413 14.9177 2572 92.9355 247.035 441.25
64 0 178.361 14.9079 2659 93.5401 246.772 439.121
65 0 184.292 14.7267 2714 95.5866 247.38 434.79
66 0 189.384 14.3307 2714 96.262 246.565 433.461
67 0 197.247 14.9812 2955 96.2541 246.627 428.778
68 1 112.214 12.7881 1435 90.8488 246.491 473.881
69 0 115.252 13.2926 1532 89.923 247.375 470.71
70 0 120.259 12.9886 1562 90.8137 247.308 469.452
71 0 124.228 13.2498 1646 89.4417 247.058 467.215
72 0 129.208 13.6369 1762 88.9722 246.701 465.928
73 0 132.34 13.2915 1759 91.9142 246.474 462.392
74 0 137.365 13.1838 1811 94.0872 246.468 460.668
75 0 140.398 13.711 1925 96.0197 246.62 458.355
76 0 147.387 13.8818 2046 95.0186 246.072 452.91
77 0 153.227 14.038 2151 92.8684 246.321 452.721
78 0 158.184 13.5096 2137 89.8446 246.84 447.441
79 1 91.0571 11.5422 1051 86.8906 248.316 483.188
80 0 96.1618 12.5622 1208 84.7583 248.677 483.023
81 0 97.185 12.5019 1215 82.7539 247.849 480.433
82 0 99.1315 11.5806 1148 85.581 247.664 479.011
83 0 104.132 12.5321 1305 83.0659 247.798 477.93
84 0 107.174 12.7084 1362 83.9905 248.025 477.41
85 0 111.232 12.3077 1369 85.4967 247.695 473.5
86 0 115.138 12.1333 1397 88.7824 248.045 471.706
87 1 61.4082 9.94981 611 83.7856 249.308 497.782
88 0 62.3118 10.7363 669 83.8475 248.958 495.88
89 0 67.3409 12.0432 811 81.4562 249.784 493.424
90 0 68.1295 11.5662 788 83.665 247.994 493.547
91 0 68.0734 11.2379 765 85.9935 248.514 493.812
92 0 72.074 12.1958 879 83.4232 247.738 491.811
93 0 74.2137 12.1676 903 90.247 247.183 492.221
94 0 78.1677 13.1 1024 89.2578 247.105 490.533
95 0 80.123 12.4933 1001 91.1508 246.29 487.738
96 0 81.1199 12.0316 976 92.2418 246.222 487.699
97 0 85.1323 12.0049 1022 91.2045 246.359 486.523
98 0 88.1058 12.1104 1067 90.3618 246.134 485.037
99 0 92.0973 12.4759 1149 89.0792 246.103 485.018
100 0 92.0973 12.5519 1156 146.103 245.098 484.965
101 0 97.2919 12.9096 1256 90.7452 246.406 482.601
102 1 53.2301 10.3137 549 95.9763 247.077 503.998
103 0 52.3237 10.4733 548 91.8759 246.87 500.918
104 0 52.2586 11.1178 581 84.4957 246.969 495.064
105 0 55.0136 11.7789 648 93.7006 248.116 497.836
106 0 54.2341 11.6716 633 92.2701 246.826 502.188
107 0 58.1607 11.8981 692 91.3671 246.981 501.769
108 0 60.1227 11.9589 719 92.2643 246.631 501.477
109 0 60.1476 11.8708 714 93.5966 246.765 501.067
110 0 61.2329 12.183 746 93.6609 247.457 499.929
111 0 61.2224 12.1851 746 94.3499 246.627 498.85
112 0 65.1397 12.8186 835 92.2802 247.55 498.685
113 0 66.1631 12.3634 818 94.2751 247.48 496.921
114 0 68.2191 12.3866 845 93.9633 248.014 494.904
115 0 70.2099 12.5766 883 92.0815 247.438 493.539
116 0 72.1462 12.9598 935 93.2995 247.088 494.097
117 0 75.2314 12.9334 973 94.2076 246.584 492.53
118 0 76.1896 12.6001 960 94.799 247.3 491.615
119 0 80.3184 13.0356 1047 95.086 247.049 490.893
120 0 82.1429 13.2939 1092 92.4533 247.949 488.86
121 0 84.0611 13.395 1126 94.0924 247.844 487.766
122 0 87.1481 13.5402 1180 93.2051 248.075 487.487
123 0 90.1407 13.0574 1177 95.8912 248.615 485.783
124 0 91.1313 13.0691 1191 95.3241 248.423 484.751
125 0 93.1073 12.8776 1199 95.3578 248.208 483.807
126 0 96.1177 13.1297 1262 95.0412 247.825 482.321
127 0 101.096 13.0866 1323 94.3114 247.785 480.159
128 0 103.186 14.1686 1462 95.5985 247.899 478.504
129 1 55.1476 10.753 593 98.1585 249.236 502.165
130 0 57.0556 11.9007 679 94.9632 249.13 501.186
131 0 58.1134 12.4756 725 94.2234 247.025 501.492
132 0 60.118 12.8747 774 89.522 247.306 500.472
133 0 61.213 12.6117 772 90.8912 247.947 499.28
134 0 60.0903 12.398 745 90.4107 248.357 498.329
135 0 64.1969 12.0878 776 89.442 248.169 498.335
136 0 65.1169 12.5774 819 88.8474 248.405 497.306
137 0 65.1373 12.4506 811 89.0333 248.28 496.684
138 0 68.1422 12.562 856 89.0748 248.452 495.438
139 0 69.0843 12.6078 871 89.3307 247.96 495.602
140 0 72.0539 12.3935 893 89.8399 246.588 494.625
141 0 74.1137 13.2634 983 92.0407 245.593 494.513
142 0 77.0908 13.4906 1040 92.1635 246.187 493.29
143 0 78.0984 12.7403 995 95.7005 246.155 493.406
144 0 80.097 13.1965 1057 95.8155 246.251 490.433
145 0 83.0802 13.4448 1117 95.4109 245.992 490.73
146 0 87.1143 13.2125 1151 95.0565 245.972 489.681
147 0 89.1214 13.2965 1185 96.411 245.614 487.97
148 0 89.1291 13.1495 1172 96.9497 245.607 487.161
149 0 92.0768 13.1629 1212 97.7962 246.205 485.573
150 0 95.1326 13.0975 1246 98.4238 246.08 482.966
151 0 97.1015 13.7485 1335 97.5251 245.837 482.436
152 0 100.222 13.48 1351 99.2613 245.944 481.605
153 0 104.17 14.0444 1463 98.1722 245.843 479.69
154 0 105.151 13.8183 1453 100.088 245.604 477.683
155 0 107.121 13.4614 1442 101.718 245.971 477.314
156 0 112.098 13.952 1564 100.021 245.69 475.675
157 0 114.114 13.1359 1499 97.2702 246.985 473.868
158 0 119.162 13.6453 1626 95.8346 247.289 471.082
159 0 122.134 13.2068 1613 96.7136 247.33 469.978
160 0 129.153 14.0841 1819 94.083 247.655 467.599
161 0 132.444 13.7416 1820 98.0901 247.168 461.856
162 0 137.406 13.784 1894 97.6869 246.759 459.098
163 1 74.3109 12.34 917 93.7764 247.921 492.583
164 0 76.2862 12.4531 950 92.6158 247.529 490.017
165 0 79.1204 12.6769 1003 94.1117 247.441 490.516
166 0 80.1372 12.7656 1023 94.6804 247.137 489.841
167 0 84.1394 12.5387 1055 95.8891 247.179 487.265
168 0 85.1534 12.5656 1070 96.3626 247.557 485.992
169 0 88.0567 12.8894 1135 98.2123 246.328 484.194
170 0 92.1618 12.478 1150 98.6548 246.385 484.68
171 0 94.1083 13.442 1265 96.2506 247.113 483.625
172 0 96.2633 12.9125 1243 97.1529 246.781 479.975
173 0 100.133 12.6332 1265 92.2719 247.233 477.297
174 0 103.215 12.6436 1305 97.4322 246.638 474.729
175 0 108.153 13.1758 1425 91.1642 247.695 474.878
176 1 62.1047 12.1891 757 88.753 249.029 496.933
177 0 63.0551 12.2591 773 89.4799 248.714 498.248
178 0 65.0515 13.3125 866 92.1178 248.361 496.841
179 0 65.0344 12.1628 791 89.1783 246.944 497.196
180 0 66.0466 12.4155 820 89.5024 246.379 495.748
181 0 68.0968 12.2473 834 87.6703 246.283 496.741
182 0 70.0717 12.316 863 87.9467 246.024 494.188
183 0 72.0797 11.9174 859 88.0058 246.603 493.693
184 0 75.0715 12.5347 941 86.3454 246.581 491.687
185 0 76.1455 12.4761 950 86.9547 246.708 490.943
186 0 80.1149 12.3697 991 85.0151 246.747 490.212
187 0 83.0598 13.1472 1092 82.6355 246.528 487.714
188 0 87.1253 13.0502 1137 82.9894 246.051 486.282
189 0 88.0787 12.7159 1120 84.042 245.695 482.996
190 0 92.0999 12.7362 1173 83.8619 245.731 481.844
191 0 94.0433 12.0476 1133 86.2551 245.345 481.315
192 1 51.0959 10.6075 542 84.0849 244.891 504.089
193 0 52.2866 11.0736 579 82.2556 245.883 503.461
194 0 52.0683 10.7551 560 78.7268 245.155 503.114
195 0 54.0948 11.221 607 77.196 244.944 501.878
196 0 54.0487 11.6192 628 76.9363 245.279 501.525
197 0 56.1059 10.9258 613 77.5155 245.323 502.232
198 0 56.1039 11.7995 662 76.7251 245.437 501.523
199 0 57.0902 10.7724 615 78.7333 245.167 500.909
200 0 58.0528 11.369 660 77.5712 245.026 500.026
201 0 60.1123 10.7466 646 79.582 245.209 498.593
202 0 62.0839 10.9851 682 100.5 244.991 498.328
203 0 65.0718 12.0021 781 97.2574 245.732 496.776
204 0 66.1112 11.6622 771 99.1725 245.38 496.093
205 0 70.0533 12.1907 854 96.8396 244.535 494.165
206 0 70.0533 12.2193 856 151.081 244.553 494.088
207 0 76.0284 12.1139 921 94.7861 243.944 491.812
208 0 77.0644 11.964 922 95.2614 244.527 491.543
209 0 80.0395 12.4189 994 94.84 244.474 489.197
210 0 84.1381 12.1823 1025 94.0459 245.072 487.645
211 0 87.0452 12.706 1106 92.7911 244.362 486.596
212 0 87.0563 12.2679 1068 94.3024 244.483 486.719
213 0 93.0495 12.6922 1181 92.4776 243.862 484.537
214 1 48.0439 10.5112 505 95.2436 247.085 506.149
215 0 50.061 11.0066 551 93.4646 246.804 505.472
216 0 53.0931 11.4704 609 95.2282 246.305 505.153
217 0 51.0267 11.0334 563 100.135 246.54 503.103
218 0 51.1131 11.2691 576 88.3333 245.589 505.767
219 0 51.0491 10.9503 559 92.8909 243.977 504.542
220 0 52.0153 11.1698 581 92.969 244.019 503.324
221 0 55.0571 11.6606 642 92.8302 244.173 502.844
222 0 56.0502 10.562 592 96.0861 244.458 504.002
223 0 59.0592 11.9541 706 92.7705 244.331 501.101
224 0 61.063 11.7092 715 93.5566 244.856 500.917
225 0 62.0818 11.7748 731 94.6252 244.207 499.19
226 0 65.0977 11.5058 749 93.9586 244.239 498.59
227 0 66.0282 12.2069 806 93.9901 243.697 496.973
228 0 68.0469 11.6243 791 96.1479 244.556 496.683
229 0 70.042 12.207 855 97.3216 243.763 495.011
230 0 70.0157 12.1259 849 98.4664 243.987 494.126
231 0 74.0652 12.2865 910 98.9044 244.484 492.625
232 0 77.0245 12.7622 983 98.4649 244.442 492.379
233 0 79.0374 12.0323 951 102.121 244.202 490.982
234 0 82.0315 11.4834 942 105.964 243.442 490.106
235 0 85.0777 12.2711 1044 100.655 243.628 488.389
236 1 45.0137 10.5746 476 104.164 243.433 507.435
237 0 46.0182 11.2999 520 100.481 243.317 507.967
238 0 45.0377 11.1906 504 103.974 243.851 507.278
239 0 50.0464 11.1896 560 103.03 243.307 506.5
240 0 50.025 12.074 604 103.118 243.742 504.303
241 0 51.126 11.9704 612 91.5605 246.859 505.198
242 0 50.1442 11.0681 555 94.7117 246.434 505.955
243 0 52.1435 11.1999 584 94.3887 244.839 505.712
244 0 54.0842 11.7225 634 93.6609 245.943 505.415
245 0 54.1018 11.4784 621 95.6812 246.035 503.905
246 0 55.1183 11.9198 657 94.8158 245.569 504.253
247 0 57.318 11.8985 682 94.412 245.364 502.826
248 0 57.2083 12.3059 704 94.0014 245.186 502.365
249 0 59.1408 12.5294 741 93.5897 244.645 501.717
250 0 61.1274 11.3697 695 95.6676 245.081 501.013
251 0 65.1377 12.1896 794 95.0227 246.2 498.751
252 0 65.1363 12.0056 782 95.3286 245.572 497.629
253 0 68.2073 12.506 853 95.7022 246.141 497.971
254 0 69.1865 11.6497 806 94.1216 245.669 495.971
255 0 72.2126 12.3247 890 95.7449 245.436 495.36
256 0 76.1658 12.2233 931 93.2546 245.697 496.475
257 0 78.1787 13.418 1049 93.3794 245.93 493.635
258 0 81.1271 12.8317 1041 91.8934 245.973 492.245
259 0 85.1609 13.3629 1138 90.2417 245.083 491.226
260 0 87.2517 13.3063 1161 91.2145 245.809 487.972
261 1 49.058 10.9055 535 99.8131 246.617 508.026
262 0 49.0837 11.4091 560 98.7821 246.664 506.107
263 0 51.0199 11.1329 568 98.5581 245.873 506.972
264 0 53.019 11.958 634 92.5221 246.041 506.254
265 0 52.0621 12.5811 655 90.8427 243.95 505.56
266 0 56.036 12.4027 695 101.259 246.301 504.604
267 0 56.0597 12.3261 691 101.187 245.845 503.456
268 0 58.0548 12.4021 720 100.774 245.424 502.743
269 0 60.0482 12.0237 722 101.129 245.749 501.967
270 0 59.06 12.8005 756 100.492 245.646 500.595
271 0 63.0278 13.264 836 97.006 245.762 500.565
272 0 64.0243 12.6514 810 99.5235 245.138 499.575
273 0 67.0292 12.9794 870 98.1954 245.438 499.126
274 0 68.0237 12.9808 883 98.9524 245.245 497.439
275 0 71.1561 13.0136 926 100.162 245.585 495.974
276 0 73.1067 13.1041 958 99.4374 246.146 496.176
277 0 73.1067 13.1862 964 175.801 247.146 496.211
278 0 77.0457 13.4206 1034 96.0164 245.609 493.662
279 0 79.198 12.4372 985 102.126 246.485 492.003
280 0 81.2009 13.3989 1088 100.324 245.823 491.166
281 0 82.2495 13.1065 1078 101.28 245.439 490.54
282 0 84.1942 13.1719 1109 100.285 245.737 489.362
283 0 87.2574 13.2252 1154 100.268 245.652 487.676
284 0 89.2285 13.1684 1175 99.4894 245.855 487.031
285 0 93.2676 13.606 1269 97.6596 245.227 486.03
286 0 95.276 13.0988 1248 98.5721 245.492 484.905
287 0 95.2644 13.2054 1258 99.686 245.157 482.727
288 0 98.1217 12.7495 1251 96.9281 245.882 481.723
289 0 102.12 13.1316 1341 95.6786 245.16 482.103
290 1 53.0526 10.7818 572 95.1224 244.769 505.888
291 0 54.0344 10.5673 571 83.4308 244.669 504.585
292 0 56.0501 11.1329 624 81.4679 244.226 501.917
293 0 58.051 11.5933 673 80.4606 244.449 502.468
294 0 59.0682 11.292 667 83.3103 243.901 500.268
295 0 61.0231 11.6841 713 81.8205 243.853 500.187
296 0 65.0267 13.3945 871 80.6096 243.6 499.822
297 0 66.0755 13.2122 873 81.2451 244.05 498.517
298 0 68.0862 13.2039 899 93.6485 244.808 497.511
299 0 71.117 13.9207 990 91.9131 244.656 496.724
300 0 73.1354 13.5092 988 91.8704 244.82 497.439
301 0 76.1821 12.7064 968 94.9969 244.61 493.833
302 0 77.1423 13.1316 1013 96.7878 243.88 493.399
303 0 79.1111 12.552 993 99.7633 244.439 492.552
304 0 83.1453 13.3381 1109 99.0361 243.968 490.896
305 0 85.1567 13.5045 1150 98.8209 243.69 489.05
306 0 86.1477 13.2447 1141 99.716 244.695 488.521
307 0 88.0983 12.8266 1130 99.3204 244.176 488.327
308 0 92.1562 13.9003 1281 99.5761 244.428 488.892
309 0 93.328 13.8865 1296 101.4 244.709 485.983
310 0 96.3405 13.7118 1321 101.868 244.23 484.926
311 0 97.1779 13.3775 1300 104.402 244.297 483.084
312 0 100.075 12.3607 1237 97.6483 245.357 483.019
313 0 104.138 12.954 1349 93.5834 244.494 482.979
314 0 106.145 13.1141 1392 93.3046 244.095 481.927
315 0 112.14 12.2437 1373 94.8128 244.548 479.924
316 1 57.0406 11.8512 676 90.5843 244.543 506.155
317 0 59.018 12.3861 731 89.1368 243.999 504.834
318 0 62.1352 12.0704 750 89.6747 244.672 504.575
319 0 64.1267 12.1478 779 91.3697 244.313 503.901
320 0 64.0986 12.6368 810 90.8667 244.122 502.511
321 0 66.1128 12.8719 851 90.5053 243.703 501.589
322 0 69.0629 12.3511 853 91.8453 243.46 500.429
323 0 71.1109 12.2766 873 94.575 243.593 499.354
324 0 76.1706 13.2072 1006 91.3628 244.105 498.946
325 0 78.1265 12.4926 976 94.2695 243.489 498.103
326 0 80.1755 12.9466 1038 96.8632 243.712 496.314
327 0 83.1388 12.834 1067 93.0375 243.13 494.086
328 0 85.1929 12.1372 1034 95.0706 242.855 493.367
329 0 88.0943 11.8509 1044 97.2998 243.041 491.41
330 0 92.2759 12.3651 1141 96.4961 243.237 490.661
331 1 49.146 11.1912 550 89.8618 243.38 513.184
332 0 49.1319 11.1944 550 91.1873 242.307 511.26
333 0 50.0359 11.2319 562 92.1762 242.194 511.174
334 0 51.3765 11.6006 596 93.8372 243.523 506.344
335 0 55.0422 12.1543 669 91.0867 241.954 508.395
336 0 56.0517 12.0068 673 92.3314 241.41 506.639
337 0 58.1201 12.4226 722 89.0526 241.553 507.259
338 0 60.197 12.6917 764 87.8233 242.518 506.48
339 0 62.2155 12.6335 786 89.0089 243.24 505.317
340 0 63.1895 12.7553 806 89.0868 242.821 503.61
341 0 63.1818 12.6144 797 90.3501 243.578 503.045
342 0 67.2006 12.7975 860 88.236 242.733 502.21
343 0 68.0997 12.188 830 87.3627 241.11 501.877
344 0 71.0471 12.7802 908 86.8491 240.396 500.983
345 0 74.1073 13.1836 977 84.5005 240.627 500.405
346 0 75.0557 13.2568 995 85.8985 240.721 498.376
347 0 78.1257 12.8639 1005 86.8806 239.972 497.796
348 0 79.0407 12.8794 1018 88.7701 239.881 496.809
349 0 80.0946 11.6487 933 93.03 240.026 494.919
350 0 82.0959 11.9616 982 93.0122 240.137 494.341
351 0 86.1207 11.6348 1002 94.3633 240.1 491.762
352 1 44.0134 10.6104 467 90.06 239.891 512.516
353 0 44.0198 10.1318 446 90.2915 240.209 512.126
354 0 46.0274 11.5366 531 88.2298 240.243 511.043
355 0 49.0515 11.4981 564 87.1755 240.319 511.105
356 0 50.0316 12.2123 611 86.7267 239.682 509.655
357 0 50.2124 11.9691 601 85.02 242.865 509.74
358 0 50.1468 11.227 563 88.2327 243.14 508.453
359 0 51.2278 11.849 607 87.5618 241.853 508.048
360 0 54.2356 12.4641 676 83.8713 242.572 507.423
361 0 52.1965 11.1119 580 88.5862 242.403 508.829
362 0 54.242 10.8588 589 86.6061 243.051 506.776
363 0 56.2844 10.8734 612 85.799 243.175 505.709
364 0 56.2326 10.7055 602 85.1279 243.297 507.179
365 0 57.1377 11.1835 639 82.9327 242.513 506.374
366 0 60.2133 11.642 701 81.7746 243.411 504.766
367 0 64.1513 11.8938 763 80.5046 243.713 503.704
368 0 65.1918 11.2744 735 82.0898 243.068 501.11
369 0 68.2124 11.6694 796 81.6407 242.997 501.535
370 0 70.2165 11.4218 802 82.5461 242.796 499.13
371 0 71.1795 11.1549 794 84.267 242.719 497.098
372 0 75.2092 11.355 854 83.1932 242.597 496.274
373 0 77.1721 11.7141 904 82.9558 243.143 496.142
374 0 81.1889 11.2454 913 82.6955 242.653 493.975
375 1 42.0698 10.4826 441 84.7891 243.85 511.796
376 0 43.0817 9.93461 428 86.9813 243.862 512.049
377 0 44.0568 10.0779 444 87.8468 244.635 510.984
378 0 46.007 10.4332 480 88.4542 244.204 510.358
379 0 49.0494 11.6006 569 86.9033 243.731 508.847
380 0 50.0618 11.326 567 90.1446 243.974 506.06
381 0 53.0769 12.3594 656 88.3963 243.71 506.242
382 0 53.2724 11.3192 603 95.5141 241.985 504.804
383 0 56.1799 12.3532 694 92.2968 243.061 504.509
384 0 55.2122 11.7909 651 87.0952 243.748 506.313
385 0 57.2086 11.8514 678 85.7006 243.547 504.757
386 0 57.2339 11.0075 630 87.9603 243.884 503.83
387 0 60.1614 11.7517 707 86.4738 243.813 502.45
388 0 62.2205 11.5878 721 86.8363 243.76 500.634
389 0 64.1946 11.3561 729 88.9246 243.263 498.813
390 0 67.1362 11.9459 802 87.4065 243.531 497.677
391 0 68.1672 12.308 839 87.3468 243.225 496.439
392 0 68.1672 12.3226 840 125.089 242.229 496.404
393 0 71.1583 11.8047 840 91.9464 243.758 494.413
394 0 73.2033 11.5022 842 93.0416 243.138 492.599
395 0 79.1663 12.998 1029 88.7697 243.608 493.498
396 0 83.1357 13.5922 1130 87.6363 244.139 493.181
397 0 84.1808 13.3641 1125 92.6187 244.178 490.193
398 0 87.203 13.2564 1156 93.5926 244.675 491.433
399 0 91.1834 13.7086 1250 93.2688 243.974 489.739
400 0 94.2406 14.134 1332 92.1419 244.466 487.464
401 0 97.1459 13.7422 1335 92.5243 243.921 484.547
