time division length width area intensity CMx CMy
0 0 57.164 12.4029 709 128.127 97.8815 497.374
1 0 58.0956 12.0835 702 128.631 97.584 495.964
2 0 59.1097 12.1807 720 125.146 97.7153 497.111
3 0 61.1555 12.0349 736 121.325 97.8682 496.938
4 0 62.1357 11.7485 730 121.116 97.311 495.536
5 0 66.0976 12.1336 802 116.153 97.6721 495.511
6 0 68.1139 11.9799 816 113.855 97.6618 494.663
7 0 71.0953 11.8995 846 112.459 97.3676 493.187
8 0 73.192 12.3921 907 109.269 97.3131 492.337
9 0 77.1611 12.0397 929 108.689 96.6986 490.183
10 0 79.1386 12.1812 964 106.915 96.6898 488.816
11 1 43.0726 12.2816 529 106.306 97.1682 506.586
12 0 45.063 12.538 565 105.161 96.708 505.614
13 0 47.1153 12.8408 605 102.021 96.3868 504.671
14 0 49.0769 13.2445 650 101.128 96.2508 503.112
15 0 50.0349 13.2907 665 99.4692 96.8842 503.03
16 0 51.081 12.9598 662 99.5846 96.1949 503.541
17 0 51.0711 13.3148 680 98.9088 95.95 501.224
18 0 54.2021 13.339 723 97.1148 95.6598 501.946
19 0 54.1606 13.4415 728 97.169 95.1703 500.437
20 0 56.1308 13.2369 743 96.7577 95.2019 497.93
21 0 60.0587 13.8698 833 93.8379 95.7047 497.502
22 0 62.1685 14.2033 883 92.0804 95.1461 494.955
23 0 64.1058 13.1813 845 93.9408 95.2142 495.297
24 0 66.0717 13.8637 916 92.3483 94.9192 494.04
25 0 69.1455 14.6503 1013 90.5064 94.7275 492.508
26 0 71.0752 13.4365 955 93.8126 95.4419 492.568
27 0 73.068 13.9322 1018 93.7692 95.1896 489.25
28 0 78.1356 14.2701 1115 91.2529 94.5345 491.436
29 0 79.1 15.0063 1187 90.7767 94.4625 490.604
30 0 80.1679 14.3823 1153 93.4302 94.8803 491.11
31 0 83.1563 14.8035 1231 91.9618 95.1324 489.009
32 0 87.2082 14.3106 1248 98.4375 95.0593 488.251
33 0 89.1067 14.7688 1316 95.503 94.6945 486.413
34 0 91.1441 15.492 1412 94.0127 94.6006 485.928
35 0 94.1619 15.1548 1427 95.5277 94.2579 482.532
36 0 98.1231 15.0933 1481 94.3592 94.6664 481.503
37 0 101.214 15.2351 1542 93.2853 94.3645 480.095
38 0 104.281 15.8034 1648 92.4314 94.645 477.74
39 0 106.279 15.5157 1649 93.6562 94.4839 476.438
40 0 109.308 15.3512 1678 94.8343 94.5733 473.199
41 0 114.391 15.7705 1804 92.8814 94.2627 471.614
42 0 118.238 15.1475 1791 94.8498 94.5243 470.295
43 1 62.203 12.4271 773 95.6507 94.7995 496.942
44 0 62.1739 12.8028 796 96.0251 94.446 496.835
45 0 67.0438 14.0505 942 85.0754 93.9331 495.376
46 0 70.2812 14.0863 990 91.6414 94.9475 492.48
47 0 72.1103 14.0618 1014 96.8757 94.1844 490.661
48 0 74.1418 14.0676 1043 98.5273 94.1457 490.784
49 0 77.3004 14.075 1088 96.4715 94.1204 489.82
50 0 79.1265 13.7249 1086 96.9282 94.2026 488.979
51 0 83.2045 14.3862 1197 95.6541 94.35 486.988
52 0 86.1755 14.2268 1226 95.8972 93.8295 485.886
53 0 87.1503 14.366 1252 94.6294 93.5327 484.87
54 0 93.1815 14.681 1368 92.8801 94.1206 483.435
55 0 95.2275 14.7541 1405 92.5587 94.3616 482.41
56 0 97.1336 14.6293 1421 92.7474 94.8846 480.28
57 0 103.167 14.8303 1530 91.5301 95.1196 477.495
58 0 105.275 14.1914 1494 94.1874 94.5234 475.181
59 0 109.242 13.9323 1522 94.7832 94.4731 473.683
60 0 110.177 13.9049 1532 94.3584 95.0496 471.317
61 1 60.14 12.0219 723 89.5837 95.1881 498.152
62 0 62.1568 11.9054 740 90.1757 95.2054 497.381
63 0 64.1251 13.2242 848 88.0601 94.921 497.236
64 0 66.097 12.7389 842 89.9002 94.4418 496.61
65 0 69.134 13.5823 939 89.8679 94.6092 495.812
66 0 69.0845 12.9551 895 93.2793 93.9274 495.256
67 0 73.0804 13.2594 969 95.3581 93.8514 494.057
68 0 75.0962 13.4894 1013 95.7552 93.6387 491.872
69 0 77.1609 13.1673 1016 96.436 95.2431 490.961
70 0 78.2032 13.6311 1066 97.3968 95.1191 489.556
71 0 81.1129 13.7833 1118 98.9007 94.4973 490.227
72 0 84.0972 13.96 1174 98.6823 94.167 488.302
73 0 88.1754 14.199 1252 99.3283 94.2428 485.435
74 0 88.2732 13.5149 1193 102.063 94.1609 482.878
75 0 92.2204 14.14 1304 100.735 94.3121 482.431
76 0 95.257 13.5318 1289 102.621 93.8386 480.085
77 0 100.215 14.0398 1407 100.069 94.1613 477.76
78 1 51.0749 11.1992 572 97.6101 95.8916 503.587
79 0 55.114 11.957 659 92.7405 96.1654 502.595
80 0 55.0826 11.6915 644 94.0745 96.0497 501.663
81 0 59.0745 12.3573 730 95.7986 94.3082 501.126
82 0 60.138 12.0722 726 97.9656 94.3361 499.977
83 0 62.1662 12.6114 784 96.1569 94.3253 498.889
84 0 64.1051 12.1363 778 100.293 94.5553 497.067
85 0 66.0955 12.5273 828 99.8853 94.2464 496.579
86 0 68.1136 12.8315 874 99.6934 94.4703 495.733
87 0 70.1065 12.6237 885 101.01 94.2915 494.701
88 0 72.0748 13.0975 944 101.633 94.2998 493.194
89 0 74.1038 13.4136 994 101.982 94.9115 491.01
90 0 75.1064 13.3677 1004 103.052 94.1245 489.996
91 0 79.1385 13.4574 1065 103.204 94.8047 488.433
92 0 81.1915 13.2157 1073 101.728 95.2973 486.339
93 0 84.0572 13.0387 1096 102.156 96.1706 486.866
94 0 85.0788 13.0467 1110 102.528 96.0883 486.307
95 0 90.1093 12.9176 1164 100.835 95.3222 482.923
96 0 92.0782 13.1627 1212 100.033 95.0338 482.559
97 0 93.0678 12.9798 1208 99.7392 94.8949 482.435
98 0 96.1107 12.5792 1209 98.8726 94.5724 480.245
99 1 49.144 11.0085 541 93.6562 94.2828 505.279
100 0 49.138 11.0098 541 142.841 94.2569 505.131
101 0 50.3158 11.8253 595 88.358 95.2555 503.466
102 0 51.2111 11.6576 597 88.129 95.5762 505.409
103 0 51.1135 11.8168 604 86.5778 95.5513 504.358
104 0 55.1339 11.5718 638 85.8997 95.5251 502.633
105 0 56.2511 11.9464 672 85.2173 95.9018 501.028
106 0 57.1838 12.2762 702 85.0855 95.4915 500.59
107 0 59.1268 12.5324 741 86.2686 95.4211 498.601
108 0 59.213 12.1595 720 88.3319 95.1306 499.625
109 0 61.167 12.2615 750 89.4147 94.9013 498.067
110 0 64.1896 12.4008 796 89.0905 95.5553 497.81
111 0 66.1414 12.3674 818 90.0086 94.6504 495.737
112 0 66.2621 12.3147 816 92.2279 95.5147 495.571
113 0 71.2261 12.9587 923 91.3207 95.5395 494.664
114 0 73.2319 13.4231 983 91.0905 95.9288 492
115 0 75.1821 12.7424 958 91.3685 95.2933 490.697
116 0 76.1316 12.9381 985 91.4406 94.9929 491.268
117 0 81.2083 13.3238 1082 91.073 94.2329 489.393
118 0 82.2412 13.5212 1112 93.9541 95.161 488.608
119 0 85.2563 13.0782 1115 97.3919 94.8045 487.289
120 0 87.1718 13.3529 1164 96.9107 94.7646 486.021
121 0 90.2431 13.8958 1254 95.3309 94.6579 481.839
122 1 48.1101 10.9333 526 99.5665 95.251 505.738
123 0 50.1745 11.7191 588 100.568 95.1752 500.963
124 0 49.2383 12.0638 594 88.2155 94.835 504.544
125 0 53.119 12.8956 685 84.2438 93.4511 504.623
126 0 54.088 12.5351 678 85.087 93.0044 503.121
127 0 56.077 12.9822 728 83.5014 92.9409 502.791
128 0 54.0838 12.4621 674 84.9644 92.7537 503.042
129 0 57.0473 12.5861 718 84.4903 92.7786 501.185
130 0 59.0554 12.0395 711 85.339 92.8326 499.525
131 0 60.0575 12.538 753 85.1647 92.8406 500.062
132 0 64.099 12.6835 813 83.813 92.6753 498.731
133 0 65.1353 12.8962 840 85.0774 92.3714 497.724
134 0 68.0932 12.7619 869 85.7687 92.6341 496.259
135 0 70.1394 11.6767 819 87.1209 92.4689 494.988
136 0 72.1426 13.2099 953 83.6936 92.7639 494.944
137 0 73.1592 13.2998 973 94.1449 93.0339 493.077
138 0 74.1891 12.549 931 95.8195 93.2309 492.06
139 0 77.2032 12.5513 969 93.6708 93.031 492.439
140 0 81.1547 12.7411 1034 88.9178 92.8317 491.071
141 0 84.1209 12.1373 1021 88.5299 92.5142 489.295
142 0 86.1085 12.6236 1087 82.5271 92.896 488.736
143 1 42.0266 10.6123 446 83.0471 92.4013 511.592
144 0 44.0257 11.0844 488 83.0717 92.5246 509.527
145 0 45.0344 11.8132 532 82.1447 92.1598 510.716
146 0 46.0624 11.5278 531 86.8267 92.1262 508.273
147 0 45.1452 11.8285 534 84.7584 91.9232 508.47
148 0 49.0327 11.6657 572 78.542 92.1993 506.601
149 0 49.0518 12.9047 633 77.0932 92.7946 506.55
150 0 50.0574 12.166 609 79.225 92.5681 505.172
151 0 52.1115 12.0127 626 78.9968 92.4201 505.642
152 0 55.066 12.3307 679 78.8807 92.4978 504.76
153 0 55.0602 12.1503 669 80.5172 92.3662 503.978
154 0 57.0612 12.6706 723 79.8077 92.4675 503.022
155 0 58.0491 12.4205 721 81.1775 92.6366 502.645
156 0 60.1473 13.4171 807 81.8563 92.1772 501.462
157 0 62.1713 13.1733 819 82.8718 92.7057 499.778
158 0 63.1401 13.4938 852 82.7899 93.0223 498.937
159 0 64.2124 12.8324 824 85.2112 93.1966 498.167
160 0 69.1828 13.4137 928 84.0733 93.6853 498.31
161 0 70.2395 13.4113 942 86.9809 93.1518 495.066
162 0 72.3043 13.6921 990 85.7313 93.1071 495.054
163 0 74.0354 12.1969 903 87.2082 93.7542 493.673
164 0 76.108 12.2195 930 86.9269 92.729 491.102
165 0 80.0625 12.2155 978 87.1656 92.9509 491.09
166 0 82.1542 13.0851 1075 84.5833 92.8577 490.469
167 0 84.2262 13.1313 1106 84.2025 93.0461 487.995
168 0 87.1775 12.3656 1078 87.7375 93.2857 485.538
169 0 88.3435 12.7004 1122 85.4403 94.0428 484.345
170 0 94.4477 13.3619 1262 82.2559 94.1339 482.414
171 1 46.3822 11.3621 527 82.4782 95.1404 505.089
172 0 50.2125 12.3276 619 83.1325 93.5864 504.008
173 0 49.1268 12.9054 634 89.4038 93.3533 503.749
174 0 52.1667 12.8818 672 91.0089 93.0074 501.876
175 0 54.1688 12.738 690 90.1986 93.7754 502.768
176 0 56.071 12.4663 699 91.3319 93.4835 501.788
177 0 56.0975 12.6922 712 90.9817 93.5492 501.112
178 0 59.1571 12.8641 761 90.4244 93.6925 500.134
179 0 61.0896 13.161 804 89.5373 94.2612 499.051
180 0 63.0986 13.1382 829 88.6634 93.4343 497.384
181 0 65.1211 13.3904 872 87.5356 93.4037 497.93
182 0 66.172 12.4524 824 90.1432 93.1117 496.178
183 0 68.1225 12.7271 867 90.1938 93.6494 495.012
184 0 70.1529 13.5846 953 88.1857 93.4932 493.231
185 0 71.0959 12.9121 918 90.3889 93.6547 493.047
186 0 75.1017 13.0756 982 88.443 93.5937 493.277
187 0 77.1264 13.8344 1067 87.5408 93.9672 491.927
188 0 78.1063 13.5584 1059 90.8414 93.4127 489.181
189 0 79.1554 13.3914 1060 92.9104 93.1132 488.189
190 0 84.0427 13.6954 1151 91.4744 94.4857 487.705
191 0 86.0483 13.8992 1196 92.3102 93.8152 486.834
192 0 88.0708 13.5913 1197 91.8638 93.1896 484.983
193 0 91.0611 13.7929 1256 93.6608 93.0732 485.858
194 0 93.0347 13.4466 1251 95.8617 93.2038 482.921
195 0 94.0364 13.2183 1243 97.1754 93.1175 482.8
196 0 96.0427 13.4732 1294 96.9606 93.3709 481.282
197 0 101.116 13.2917 1344 96.3051 92.3088 478.475
198 0 103.151 13.2912 1371 96.911 92.1094 477.671
199 0 107.138 13.6272 1460 96.0151 91.6712 475.647
200 0 111.153 13.5399 1505 96.0631 92.1083 474.303
201 0 117.269 13.6439 1600 96.0969 91.6081 471.338
202 1 60.1009 11.0481 664 117.233 92.4217 501.514
203 0 64.0785 12.1414 778 116.281 93.0758 499.398
204 0 66.047 12.4457 822 112.741 92.3358 498.007
205 0 68.0748 12.8094 872 109.716 91.6755 497.303
206 0 70.2449 13.1255 922 123.919 91.5466 495.433
207 0 73.194 12.9929 951 123.125 91.0883 494.74
208 0 75.1745 13.4487 1011 118.595 91.1197 494.579
209 0 79.1283 13.08 1035 117.994 91.7295 492.46
210 0 81.0705 13.4574 1091 109.153 91.7214 491.387
211 0 82.1707 12.6201 1037 115.533 91.892 490.87
212 0 84.2345 13.0588 1100 114.183 92.2555 489.918
213 0 87.3307 12.5271 1094 116.463 92.0101 487.779
214 0 90.4744 13.2966 1203 113.365 92.7539 483.448
215 0 93.6486 12.6537 1185 114.886 92.6743 483.159
216 0 95.5831 13.0672 1249 113.59 92.5917 481.38
217 0 98.5789 12.8831 1270 114.395 91.8323 479.577
218 1 50.4193 10.6507 537 106.002 92.9292 504.81
219 0 53.1291 11.4062 606 104.64 91.4653 505.579
220 0 55.1316 11.9714 660 103.785 91.1636 503.824
221 0 54.1252 11.381 616 106.804 91 504.263
222 0 57.1195 11.9049 680 105.126 91.6676 503.753
223 0 58.1435 12.1424 706 104.732 91.7025 502.652
224 0 62.1543 12.0185 747 106.268 91.5448 499.88
225 0 65.2214 11.254 734 105.989 92.2698 498.311
226 0 66.1324 11.2502 744 106.886 92.3562 496.995
227 0 68.237 12.1195 827 105.146 92.4099 496.482
228 0 71.2229 11.822 842 106.494 93.1603 494.521
229 0 73.2412 12.1516 890 106.799 92.5416 494.411
230 0 75.1488 12.4686 937 107.668 92.6724 492.764
231 0 78.1359 12.0943 945 109.52 92.9852 491.301
232 0 79.1801 12.1874 965 109.185 93.0725 491.601
233 0 84.1824 12.2829 1034 109.27 92.9884 490.412
234 0 85.2005 12.1713 1037 116.588 92.1543 486.689
235 0 88.2028 12.4146 1095 109.605 92.5279 486.764
236 0 90.1815 12.242 1104 110.564 92.0734 484.703
237 0 93.1321 12.3588 1151 109.752 92.0652 483.124
238 0 97.1419 12.3737 1202 110.036 92.3386 481.745
239 0 99.2265 12.9099 1281 107.136 91.5386 480.443
240 0 102.184 12.8885 1317 108.518 92.0501 478.632
241 0 104.234 12.6638 1320 106.693 91.7902 477.38
242 1 54.1003 10.7393 581 105.346 92.8141 504.25
243 0 56.1551 11.2902 634 100.932 91.6341 502.726
244 0 57.1492 12.2311 699 109.222 90.2074 501.631
245 0 59.2293 12.038 713 97.2679 91.6844 501.307
246 0 60.1064 11.5462 694 98.6744 91.6124 502.301
247 0 59.21 11.6028 687 99.476 90.7744 501.889
248 0 63.2396 12.0178 760 97.5158 91.8039 500.679
249 0 65.1433 11.4977 749 102.112 90.2243 499.443
250 0 66.2341 11.8066 782 98.9987 92.0665 498.083
251 0 69.2324 12.1331 840 99.731 92.331 497.065
252 0 71.3059 12.229 872 100.467 92.2339 496.422
253 0 71.2001 12.5281 892 102.41 92.1446 495.05
254 0 75.2548 12.2384 921 102.508 91.8599 493.786
255 0 75.2878 11.7815 887 105.904 91.3788 494.227
256 0 79.1893 11.8324 937 105.291 91.3831 493.06
257 0 81.1726 12.2085 991 106.084 91.7326 491.349
258 0 83.138 12.4853 1038 103.279 92.0347 490.189
259 0 87.1444 12.5309 1092 102.441 91.2115 489.427
260 0 88.1509 12.0362 1061 103.794 91.9906 486.608
261 0 92.1916 12.1269 1118 104.706 91.424 484.026
262 0 94.1871 11.7851 1110 105.66 91.7162 483.72
263 0 97.255 11.6189 1130 105.834 91.3566 482.05
264 0 102.206 13.1206 1341 102.861 91.7576 480.585
265 1 59.0344 11.4509 676 105.84 92.7855 501.361
266 0 58.1114 10.6175 617 99.7455 92.4311 500.585
267 0 61.1236 11.305 691 101.92 92.3632 498.896
268 0 61.1046 10.9812 671 107.605 92.2548 497.934
269 0 62.0665 10.9721 681 103.474 89.63 498.855
270 0 63.2926 12.4027 785 105.285 91.772 498.31
271 0 66.2041 12.2198 809 104.303 92.4314 497.122
272 0 68.3152 11.9593 817 105.448 91.9584 496.766
273 0 70.3256 12.1009 851 100.987 92.1657 496.658
274 0 74.28 12.1298 901 97.6915 91.7536 495.619
275 0 75.2452 11.9476 899 98.6018 91.4828 494.4
276 0 79.1578 11.7613 931 97.8034 91.7197 492.602
277 0 79.1578 11.6982 926 155.703 91.7387 492.886
278 0 83.1425 11.7629 978 99.1309 91.8262 490.174
279 0 85.1631 12.2353 1042 101.027 92.3397 489.65
280 0 88.1294 12.2661 1081 101.799 91.6633 487.598
281 0 90.1656 11.9003 1073 103.464 91.1696 486.344
282 0 92.1131 11.931 1099 102.899 91.1301 486.427
283 0 96.1057 12.2782 1180 102.384 91.1432 485.04
284 0 101.098 12.7698 1291 101.054 90.3648 480.14
285 0 103.044 12.7906 1318 101.97 89.5326 479.892
286 0 106.044 12.3157 1306 103.74 89.794 477.192
287 0 111.049 12.9762 1441 103.812 89.5177 475.686
288 0 114.059 12.2217 1394 107.409 90.5466 472.974
289 0 118.059 12.714 1501 107 90.5436 473.268
290 0 119.162 12.2858 1464 108.308 90.8074 469.542
291 0 123.17 12.4706 1536 107.201 90.4121 469.374
292 0 128.157 12.8358 1645 106.129 89.8821 467.105
293 0 132.176 12.6574 1673 106.372 89.9056 465.66
294 0 134.276 12.4967 1678 108.75 89.5298 463.021
295 0 137.214 12.1489 1667 109.233 89.3809 460.912
296 0 141.236 12.8721 1818 106.543 89.3729 458.474
297 1 74.0804 10.9206 809 104.486 90.0124 491.417
298 0 80.1016 11.4355 916 101.872 89.5983 489.217
299 0 81.0916 11.6165 942 100.798 90.3524 489.738
300 0 81.0814 11.4206 926 103.135 90.4568 489.103
301 0 85.0778 11.9185 1014 112.777 93.2791 487.99
302 0 89.1077 12.8384 1144 109.797 92.4126 486.991
303 0 91.0636 13.0678 1190 110.233 92.9588 486.869
304 0 92.0879 12.6727 1167 113.943 92.419 484.55
305 0 98.0743 13.0207 1277 110.874 91.917 484.159
306 0 100.174 13.3567 1338 109.772 92.7444 482.447
307 0 102.059 12.9141 1318 113.805 92.0531 481.416
308 0 106.113 13.6458 1448 111.933 92.145 480.515
309 0 108.264 13.7996 1494 114.987 90.7711 480.097
310 0 111.238 13.988 1556 115.379 90.1806 478.324
311 0 113.187 13.7118 1552 117.253 90.1907 476.421
312 0 117.279 13.8558 1625 117.605 90.4031 475.759
313 0 119.072 12.9753 1545 115.854 91.4246 474.366
314 0 123.105 13.2651 1633 112.402 91.4311 472.683
315 0 126.079 13.0236 1642 114.097 91.8033 470.433
316 0 130.066 12.7704 1661 114.962 92.1433 468.459
317 0 132.115 12.088 1597 111.775 90.824 465.533
318 0 137.259 12.3271 1692 110.313 90.8274 461.726
319 0 140.307 11.9667 1679 113.014 90.6147 461.041
320 0 146.128 12.3933 1811 112.016 90.4644 461.428
321 0 149.226 12.4174 1853 113.658 90.0124 460.641
322 0 154.188 12.6534 1951 112.93 89.6653 456.778
323 1 85.0508 11.499 978 108.834 88.5041 489.816
324 0 86.0536 11.1094 956 109.938 89.3536 489.692
325 0 88.0618 11.6282 1024 110.284 88.5576 489.778
326 0 90.202 11.1527 1006 114.026 89.2773 484.623
327 0 94.1609 11.5441 1087 112.11 89.448 482.57
328 0 98.1719 11.3882 1118 110.482 89.1655 482.382
329 0 101.198 11.0971 1123 110.881 89.1995 480.183
330 0 103.281 10.8249 1118 111.401 89.0206 480.965
331 0 108.247 11.8988 1288 109.273 89.4992 480.321
332 0 111.237 12.2711 1365 111.337 88.4835 478.274
333 0 115.373 12.3513 1425 112.096 89.1207 475.869
334 0 119.357 11.6457 1390 113.437 89.3748 471.985
335 0 124.605 11.9659 1491 113.641 89.4299 470.552
336 0 127.412 11.5845 1476 114.761 88.8659 469.715
337 0 131.4 11.8874 1562 112.485 89.0723 467.045
338 0 133.388 11.7402 1566 113.679 88.8946 465.262
339 0 138.504 11.7542 1628 114.346 88.7236 463.155
340 0 141.436 11.5458 1633 115.11 88.3252 460.389
341 0 145.471 12.5317 1823 111.818 89.0538 462.662
342 0 151.503 12.1846 1846 113.574 88.3711 459.143
343 0 153.457 12.8179 1967 112.643 88.4855 458.542
344 0 157.414 12.2734 1932 116.135 87.6972 454.036
345 0 161.401 13.0111 2100 112.928 88.0229 454.019
346 0 164.4 12.6156 2074 114.746 88.0651 453.728
347 0 169.394 12.9934 2201 114.181 87.194 450.969
348 0 172.551 12.6339 2180 117.229 87.0693 447.076
349 0 176.377 12.2975 2169 119.746 87.1047 444.095
350 0 183.385 12.88 2362 117.536 87.1804 441.95
351 0 188.473 13.2698 2501 117.754 87.2027 438.888
352 0 195.62 12.7952 2503 116.967 87.3608 436.687
353 0 202.395 13.4144 2715 116.161 87.7797 431.495
354 0 206.636 13.1052 2708 117.066 87.7312 428.285
355 1 43.2704 10.5615 457 105.733 88.6761 507.438
356 0 46.3921 10.6699 495 103.689 88.4869 507.927
357 0 45.199 10.5976 479 104.846 89.0355 506.34
358 0 48.0309 10.7431 516 97.7713 89.5233 510.234
359 0 47.1135 9.74244 459 95.6296 87.7407 511.017
360 0 49.1952 9.33018 459 97.0414 87.8889 508.566
361 0 51.1577 10.3406 529 93.344 88.2098 509.905
362 0 53.2136 10.0162 533 93.6004 88.3677 507.713
363 0 54.2031 10.0548 545 94.7578 88.367 506.919
364 0 55.209 10.5961 585 94.959 88.5436 506.528
365 0 57.241 9.99284 572 95.3566 88.2605 506.886
366 0 60.3251 11.1894 675 92.9526 89.0474 506.476
367 0 62.2079 11.2044 697 94.6313 89.34 504.628
368 0 65.2356 10.8836 710 95.1972 88.7197 501.808
369 0 65.308 11.2084 732 96.8443 88.9959 501.404
370 0 67.2193 11.0534 743 98.0256 88.5895 500.423
371 0 69.3033 11.3126 784 98.5638 89.7602 498.967
372 1 38.0382 9.59561 365 100.233 90.5014 514.381
373 0 39.1501 10.0128 392 100.222 90.0612 515.092
374 0 41.0602 10.1558 417 97.9065 90.2254 513.384
375 0 43.0905 10.6752 460 97.4522 90.163 512.252
376 0 44.0464 10.8976 480 101.502 89.2979 511.829
377 0 41.0181 10.1906 418 94.7967 87.9737 513.256
378 0 41.0296 10.7483 441 95.576 89.746 513.583
379 0 44.069 9.78012 431 94.9118 89.8747 512.473
380 0 44.1062 10.384 458 93.8603 89.6463 511.338
381 0 45.0466 10.3671 467 92.576 89.8865 511.422
382 0 46.0535 10.5964 488 91.625 89.8648 509.988
383 0 48.0672 10.8182 520 91.8038 91.8154 507.331
384 0 47.0488 10.1809 479 91.9666 90.0752 509.674
385 0 53.0668 11.2311 596 92.3641 91.8121 505.973
386 0 49.0604 10.4565 513 92.5945 91.9708 505.411
387 0 51.0386 10.9917 561 87.4973 90.2941 506.266
388 0 51.0456 10.1282 517 90.058 90.4081 506.478
389 0 53.023 10.5615 560 89.4571 89.7268 505.159
390 0 54.0372 10.3632 560 88.8411 90.0054 503.077
391 0 55.024 10.9588 603 87.058 89.8342 502.371
392 0 56.0298 10.78 604 87.7533 90.2401 501.899
393 0 57.0551 10.8492 619 88.7544 90.2666 500.388
394 0 61.0273 11.7161 715 84.0573 89.8042 499.959
395 0 62.1035 11.0944 689 83.7983 91.717 498.167
396 0 65.0843 10.9397 712 83.3708 90.8708 499.465
397 0 63.0303 10.7885 680 86.9691 88.7956 496.909
398 0 66.0232 10.7386 709 87.4415 89.3526 498.03
399 0 70.0378 11.5366 808 86.2092 88.6349 495.873
400 0 70.0337 11.0233 772 88.3303 88.6075 494.413
401 0 73.009 10.7521 785 89.6459 88.1325 492.666
