time division length width area intensity CMx CMy
0 0 55.1503 13.2366 730 106.636 1063.66 495.619
1 0 59.1069 13.1118 775 105.27 1064.13 494.608
2 0 59.1482 13.3901 792 104.476 1064 495.249
3 0 62.0958 13.1088 814 103.576 1063.73 493.678
4 0 64.2099 13.1288 843 101.452 1064.29 492.973
5 0 67.1822 13.0987 880 99.858 1064.15 492.593
6 0 68.1563 13.6891 933 99.0075 1063.92 491.09
7 0 73.201 13.5654 993 97.29 1064.19 489.352
8 1 36.1095 11.7975 426 102.566 1064.48 507.155
9 0 36.1574 12.2243 442 102.667 1064.38 507.05
10 0 38.1109 11.2829 430 93.014 1063.19 503.226
11 0 37.0493 12.4968 463 93.7084 1064.4 506.413
12 0 40.0196 12.169 487 89.5441 1063.94 507.326
13 0 42.0352 12.5133 526 87.5399 1062.96 507.11
14 0 42.048 12.2241 514 88.7821 1063.56 505.121
15 0 43.0247 12.5509 540 87.1019 1063.3 505.783
16 0 44.0547 12.6434 557 87.6768 1063.91 504.819
17 0 47.0245 12.8869 606 85.5363 1063.2 502.781
18 0 47.0309 12.9915 611 85.874 1063.85 504.209
19 0 49.08 13.2233 649 85.2465 1063.08 500.336
20 0 51.0342 13.1088 669 84.8176 1062.92 500.516
21 0 54.0332 12.9365 699 84.5207 1062.13 499.831
22 0 55.0607 12.8767 709 84.7814 1063.02 498.622
23 0 57.0441 14.0768 803 81.533 1062.6 498.1
24 0 59.0442 13.2782 784 84.6173 1062.61 497.633
25 0 62.1025 13.7193 852 83.1197 1062.78 496.313
26 0 63.043 13.9111 877 83.6032 1062.5 496.323
27 0 66.0675 13.8646 916 83.5895 1062.37 494.954
28 0 68.0283 13.4944 918 83.7789 1062.49 494.984
29 0 71.0422 14.414 1024 89.2002 1061.99 494.015
30 0 75.0594 13.4027 1006 90.8698 1062.46 493.076
31 0 76.0787 13.5255 1029 90.5753 1062.29 491.696
32 0 78.0746 13.1285 1025 90.8937 1061.48 490.364
33 0 83.1136 13.656 1135 87.8326 1061.66 488.959
34 0 84.0721 12.6677 1065 89.6883 1061.53 487.824
35 1 41.018 11.3365 465 83.4688 1062.32 509.832
36 0 41.0183 11.3364 465 84.7355 1061.32 507.624
37 0 43.059 11.8442 510 82.2529 1061.68 506.475
38 0 43.1062 11.7616 507 83.0927 1061.23 504.32
39 0 44.0733 11.617 512 84.0176 1061.8 504.367
40 0 48.0128 12.2676 589 81.9491 1061.78 502.418
41 0 49.1218 12.927 635 79.7039 1061.35 501.331
42 0 51.0894 13.1143 670 79.397 1061.49 499.861
43 0 55.1643 13.0519 720 84.25 1061.13 498.353
44 0 55.0956 13.5038 744 83.5739 1061.08 497.849
45 0 57.1748 12.4006 709 84.708 1061.21 497.14
46 0 59.0736 13.4578 795 82.205 1060.94 495.478
47 0 61.1766 12.2432 749 83.7343 1061.18 494.307
48 0 62.0516 13.0859 812 83.266 1061.52 494.065
49 0 64.0346 11.8686 760 84.7211 1061.89 492.551
50 0 66.1635 12.7412 843 83.739 1061.38 490.696
51 0 68.1302 12.9164 880 83.483 1061.75 491.739
52 0 68.1414 12.929 881 123.654 1062.74 491.776
53 0 74.0202 13.4153 993 81.0816 1061.12 490.085
54 0 77.1011 13.5666 1046 79.9293 1061.11 488.728
55 0 77.0739 13.7141 1057 79.9272 1061.5 487.658
56 0 81.0782 13.3575 1083 80.4321 1061.46 485.394
57 0 83.0382 13.4516 1117 79.7538 1061.28 484.072
58 0 84.05 13.5039 1135 79.7665 1061.58 482.392
59 0 88.0729 13.5229 1191 78.4828 1061.68 481.892
60 0 89.1675 12.6504 1128 80.1498 1061.1 479.379
61 0 93.1535 13.4939 1257 78.2283 1061.3 478.101
62 0 97.1016 13.1512 1277 78.6672 1062.04 477.156
63 0 100.142 13.5208 1354 77.8885 1061.55 476.131
64 1 47.1394 11.2645 531 76.6309 1062.27 500.972
65 0 49.1001 11.6089 570 74.1632 1062.04 502.27
66 0 52.1181 11.7426 612 75.6324 1061.96 499.837
67 0 51.1419 11.4192 584 77.8271 1061.49 499.885
68 0 54.0913 12.4604 674 75.181 1060.93 497.435
69 0 54.0424 12.3422 667 75.8816 1060.77 497.463
70 0 56.0448 11.4908 644 70 1061.18 499.023
71 0 57.0674 11.9157 680 69.2471 1061.18 500.203
72 0 60.0317 11.5273 692 69.091 1060.82 497.832
73 0 60.051 11.4736 689 69.5167 1061 495.888
74 0 63.0477 12.0226 758 69.1557 1060.96 495.106
75 0 64.0239 11.3395 726 70.7893 1061.1 495.711
76 0 66.0774 11.9708 791 70.1719 1061.1 493.451
77 0 70.0899 11.9133 835 70.8503 1060.55 492.988
78 0 72.0399 12.6597 912 69.7171 1061 492.53
79 0 74.0927 12.1739 902 71.5288 1060.37 489.919
80 0 76.0551 12.4252 945 71.764 1061.47 488.753
81 0 77.0472 11.8629 914 73.6335 1061.78 486.655
82 0 82.0633 13.0753 1073 71.8863 1061.34 486.098
83 0 85.1267 13.0394 1110 74.309 1061.09 481.809
84 0 89.0828 13.2686 1182 75.6007 1061.25 481.649
85 0 88.0821 12.6019 1110 77.8207 1061.02 479.302
86 0 93.1249 13.1436 1224 76.4338 1060.58 477.785
87 0 96.1106 13.2972 1278 75.3756 1061.2 475.258
88 0 98.1691 12.4173 1219 77.0427 1060.98 473.993
89 0 102.151 12.4815 1275 76.1255 1060.58 471.449
90 1 57.0714 11.8448 676 68.1568 1061.07 498.223
91 0 58.1078 12.1843 708 65.0085 1061.39 496.246
92 0 60.0668 11.9201 716 64.7779 1061.99 496.13
93 0 62.032 11.8971 738 71.7168 1061.16 493.846
94 0 63.0196 11.9804 755 72.7073 1062 493.389
95 0 67.0727 12.2404 821 72 1060.78 491.387
96 0 69.0354 12.5008 863 72.4519 1061.02 490.514
97 0 70.0594 12.2753 860 74.5756 1059.83 489.892
98 0 73.072 11.4818 839 76.2718 1060.9 489.644
99 0 73.1314 10.8025 790 79.057 1060.23 487.38
100 0 74.104 10.9036 808 78.9666 1060.69 484.876
101 0 78.1092 12.1369 948 78.4557 1061.28 485.043
102 0 82.0805 12.5487 1030 77.9243 1060.6 485.304
103 0 84.0739 11.7397 987 79.4326 1060.88 485.249
104 0 87.0817 11.7935 1027 78.7994 1061.34 482.095
105 0 90.1141 12.1624 1096 78.0958 1061.5 479.688
106 0 91.117 11.8748 1082 78.9686 1061.37 479.498
107 0 93.1601 10.9489 1020 81.8088 1060.83 474.351
108 0 97.08 12.0313 1168 79.2603 1061.06 476.854
109 0 101.187 12.393 1254 78.4833 1060.83 473.609
110 0 104.114 12.3327 1284 79.1254 1060.97 472.541
111 0 109.101 12.9421 1412 78.6771 1061.74 470.651
112 0 111.069 12.8299 1425 80.6112 1060.99 468.392
113 0 114.214 13.1245 1499 80.2815 1060.97 467.233
114 0 118.118 12.6484 1494 82.1814 1061.09 465.449
115 0 122.275 12.9135 1579 82.7106 1061.14 462.436
116 0 126.204 12.8364 1620 83.813 1061.4 459.433
117 0 131.191 13.5756 1781 83.0472 1060.93 456.55
118 0 136.133 14.1552 1927 84.8012 1060.82 455.987
119 0 140.091 13.9695 1957 86.0036 1061.62 452.777
120 0 144.2 13.3218 1921 87.7408 1060.61 451.289
121 0 150.271 14.2609 2143 85.2338 1060.16 447.589
122 1 82.0908 11.1584 916 82.8712 1060.87 481.75
123 0 84.1534 11.5028 968 82.4143 1061.17 481.342
124 0 86.1381 11.1333 959 85.3504 1061.05 479.307
125 0 90.0611 11.8586 1068 76.6067 1060.67 482.949
126 0 91.0966 11.3725 1036 78.7423 1060.42 482.136
127 0 94.1182 11.4962 1082 80.085 1060.16 479.433
128 0 100.144 11.6433 1166 79.5249 1060.42 479.254
129 0 101.076 11.6942 1182 81.0753 1059.78 477.773
130 0 106.051 12.4468 1320 81.0121 1059.94 474.897
131 0 108.11 11.7381 1269 82.1584 1059.48 474.033
132 0 111.076 11.7847 1309 82.8663 1059.27 472.707
133 1 63.0672 10.6236 670 80.1567 1060.1 496.401
134 0 65.0458 11.0999 722 86.1759 1060.1 493.668
135 0 68.0716 11.6348 792 83.3232 1060.02 492.288
136 0 68.0794 11.0753 754 74.191 1061.11 492.87
137 0 70.0796 11.33 794 74.1373 1060.81 493.356
138 0 73.1301 11.6778 854 73.534 1060.04 490.828
139 0 76.1713 11.251 857 75.0583 1060.28 490.503
140 0 78.1125 11.0354 862 76.0789 1060.11 489.031
141 0 80.1035 11.3853 912 75.4035 1059.38 488.905
142 0 84.1747 11.8919 1001 75.3876 1059.85 488.462
143 0 86.1515 11.1432 960 76.0979 1059.72 487.162
144 0 89.126 11.1864 997 76.6469 1060.16 484.04
145 0 92.0935 11.1626 1028 76.9066 1059.98 482.983
146 0 96.0953 11.5406 1109 76.1939 1060.44 481.676
147 0 98.125 11.6484 1143 76.0464 1059.72 479.589
148 0 102.121 11.3786 1162 78.2573 1059.3 477.529
149 0 105.17 11.7809 1239 77.18 1060.07 475.251
150 0 109.116 11.8131 1289 77.7882 1059.77 473.073
151 1 58.0163 9.65246 560 75.0446 1060.54 499.88
152 0 58.0972 9.17427 533 76.1557 1058.38 498.4
153 0 63.0401 10.6599 672 73.4405 1058.18 495.969
154 0 63.0271 10.6462 671 73.7168 1059.24 497.574
155 0 64.0394 11.2119 718 73.8217 1060.24 495.84
156 0 67.054 11.5728 776 75.4936 1059.18 493.588
157 0 67.0977 11.0138 739 77.4168 1059.41 494.725
158 0 68.1138 10.0273 683 79.2987 1059.6 495.269
159 0 71.0782 10.7206 762 78.0197 1058.88 492.934
160 0 75.0603 10.7247 805 79.4137 1059.49 491.82
161 0 78.0897 11.4612 895 77.8771 1059.51 489.359
162 0 80.092 10.9624 878 79.7938 1059.53 489.019
163 0 84.1286 11.3992 959 79.3942 1059.69 487.703
164 0 88.1496 11.5372 1017 80.4425 1060.81 486.053
165 0 92.1334 11.9826 1104 79.0933 1060.68 485.916
166 0 92.1042 10.8898 1003 84.2343 1059.86 482.272
167 0 96.0957 12.2274 1175 84.8366 1059.89 478.997
168 1 52.0141 11.4776 597 88.0754 1061.04 500.008
169 0 52.212 11.5299 602 83.2741 1060.65 497.992
170 0 52.008 10.7099 557 78.246 1061.06 495.562
171 0 52.0482 10.6056 552 80.6413 1061.79 494.904
172 0 52.0158 10.8813 566 77.9859 1061.39 492.585
173 0 54.0964 11.2022 606 78.5776 1061.85 491.351
174 0 58.0147 11.8763 689 78.5036 1060.1 498.605
175 0 59.0234 11.7919 696 79.1753 1059.2 498.165
176 0 61.0439 11.6637 712 79.2753 1060.18 498.649
177 0 62.0455 11.7978 732 78.9604 1059.4 497.607
178 0 65.061 12.2654 798 76.0313 1059.66 495.184
179 0 67.0226 12.4286 833 74.9652 1059.98 495.246
180 0 67.0467 11.5591 775 76.8116 1060.5 494.33
181 0 71.0221 11.6161 825 76.5903 1060.24 493.251
182 0 73.043 12.2394 894 76.6823 1060.28 493.56
183 0 75.0139 11.3712 853 78.8324 1059.98 489.474
184 0 76.0507 11.637 885 79.4429 1060.41 489.244
185 0 80.0216 12.2717 982 79.3442 1060 487.824
186 0 83.0553 11.7271 974 79.2012 1060.23 488.315
187 0 86.0309 11.8097 1016 78.5935 1059.47 486.264
188 0 86.0284 11.6706 1004 80.8745 1060.34 484.074
189 0 91.0887 11.7248 1068 80.0824 1060.52 483.361
190 0 94.1458 12.1195 1141 79.2612 1060.74 480.696
191 1 49.0657 11.2095 550 83.6582 1060.49 501.205
192 0 48.0126 11.2471 540 77.0574 1059.86 497.393
193 0 49.0193 11.5261 565 77.4885 1059.57 498.45
194 0 49.0648 11.5358 566 78.0813 1059.82 502.216
195 0 52.0444 11.7592 612 77.3235 1060.18 501.621
196 0 52.0506 12.2189 636 77.1698 1059.84 501.78
197 0 53.0365 12.2557 650 77.2154 1059.8 500.069
198 0 56.1647 12.125 681 75.2819 1060.15 500.463
199 0 58.0646 12.3483 717 75.3752 1059.64 499.396
200 0 61.0885 12.5392 766 74.3877 1059.67 498.119
201 0 62.0788 12.8546 798 74.2093 1059.95 496.492
202 0 64.0993 12.075 774 94.9664 1059.83 496.049
203 0 66.1066 12.4193 821 93.0706 1059.46 496.481
204 0 67.1109 12.3825 831 93.5463 1059.4 494.233
205 0 71.1371 12.7219 905 92.4785 1059.62 493.694
206 0 71.1371 12.7641 908 133.208 1059.6 493.638
207 0 74.0794 12.0141 890 94.5101 1059.39 491.655
208 0 76.0824 12.1973 928 93.1261 1059.97 490.047
209 0 80.075 12.1012 969 93.0093 1058.73 487.246
210 0 80.1265 12.5052 1002 92.7894 1059.39 485.361
211 0 87.0596 12.8992 1123 89.4452 1058.7 484.884
212 0 89.1221 12.7017 1132 89.3578 1058.7 482.176
213 0 92.0525 13.2859 1223 88.4244 1058.68 479.744
214 0 98.0724 13.0618 1281 87.5706 1058.55 479.162
215 0 98.1495 13.6119 1336 86.4925 1058.64 473.669
216 1 46.0863 10.4586 482 84.9357 1059.27 496.614
217 0 46.0492 11.3574 523 82.8757 1059.24 492.709
218 0 51.0333 11.032 563 79.6448 1058.77 501.861
219 0 53.038 11.4446 607 78.6639 1058.83 502.699
220 0 56.0365 10.8858 610 80.5459 1057.78 500.359
221 0 58.0537 11.9545 694 79.9611 1057.6 498.559
222 0 62.0408 11.976 743 79.7012 1057.86 498.028
223 0 65.0716 12.0636 785 79.5261 1058.37 497.269
224 0 66.0708 11.8207 781 81.1319 1058.82 495.955
225 0 69.0359 12.5587 867 81.466 1058.89 493.46
226 0 72.0233 12.6487 911 81.7409 1058.24 490.924
227 0 74.0719 12.4204 920 82.2707 1058.36 489.336
228 0 78.0424 12.7367 994 81.2414 1058.2 489.51
229 0 80.0422 12.256 981 83.6646 1058.06 489.377
230 0 81.071 11.8661 962 85.9636 1058.73 488.316
231 0 85.1025 12.4321 1058 86.7363 1057.68 485.014
232 0 88.1344 12.4923 1101 87.6122 1057.9 484.595
233 0 92.1414 12.1335 1118 89.1887 1057.85 482.136
234 0 94.0425 12.1328 1141 88.6398 1057.74 479.137
235 0 96.1078 12.0178 1155 88.3333 1057.96 478.859
236 0 100.126 12.5243 1254 87.9577 1057.84 476.793
237 0 105.072 12.3725 1300 94.4992 1057.89 474.113
238 0 108.1 12.4237 1343 92.8094 1057.58 471.614
239 0 112.067 12.5639 1408 90.4822 1057.73 470.129
240 0 115.096 12.3636 1423 90.2207 1057.62 467.815
241 0 118.069 11.8913 1404 91.1282 1057.84 466.509
242 0 121.058 11.8786 1438 91.6711 1057.27 462.832
243 0 129.168 12.9056 1667 89.3407 1057.12 463.209
244 1 70.1468 10.7917 757 81.7675 1057.3 493.914
245 0 72.1061 10.859 783 83.1328 1057.82 491.189
246 0 75.146 11.9368 897 82.5964 1057.89 491.868
247 0 75.1407 11.9509 898 143.378 1057.89 491.748
248 0 80.1354 11.8674 951 82.8759 1058 488.245
249 0 83.0991 12.0098 998 84.2395 1057.91 487.373
250 0 87.0992 11.8371 1031 83.323 1058.52 486.896
251 0 89.0539 12.1275 1080 89.0111 1058.68 485.362
252 0 91.0883 12.0542 1098 86.4244 1058.53 483.089
253 0 95.1822 12.1556 1157 82.7744 1057.43 482.748
254 0 97.1189 12.078 1173 83.9668 1058.05 480.158
255 0 100.079 12.2104 1222 83.7169 1058.3 480.316
256 0 102.111 11.3699 1161 86.8906 1057.92 477.116
257 0 104.128 11.505 1198 86.7813 1058.12 476.745
258 0 108.202 11.3861 1232 86.2273 1058.76 473.325
259 0 111.291 11.3576 1264 87.5245 1058.66 471.758
260 0 115.133 11.7343 1351 89.1636 1058.29 469.144
261 0 121.196 12.3106 1492 86.4142 1058.88 468.364
262 0 122.201 11.0228 1347 89.729 1058.88 464.955
263 1 65.1689 11.2323 732 80.3907 1059.16 495.612
264 0 67.0754 11.0622 742 83.9111 1057.75 494.656
265 0 70.074 11.8732 832 79.3858 1058.24 493.84
266 0 68.0666 10.2106 695 84.4086 1057.98 495.75
267 0 70.0884 10.6722 748 83.1711 1057.82 493.638
268 0 73.0893 10.6582 779 83.1078 1058.2 492.775
269 0 76.0464 10.4673 796 85.0992 1057.41 491
270 0 77.1045 10.8165 834 85.1667 1057.6 489.845
271 0 81.0568 11.276 914 84.2921 1057.46 487.445
272 0 84.105 11.343 954 83.0294 1057.75 485.386
273 0 85.2007 11.2793 961 84.9469 1057.84 484.831
274 0 88.1028 11.0553 974 84.7423 1057.97 483.921
275 0 90.14 11.2048 1010 85.6089 1058.05 480.326
276 0 95.0729 12.0224 1143 84.5503 1057.95 482.652
277 0 99.0728 12.6775 1256 84.6457 1058.07 479.438
278 0 102.129 11.9653 1222 86.6187 1058.21 476.569
279 0 104.137 12.013 1251 84.3389 1057.98 475.169
280 0 108.084 12.5735 1359 85.3135 1058.66 472.567
281 0 111.097 12.0075 1334 88.2879 1058.59 470.732
282 0 114.162 12.3683 1412 88.8754 1058.91 469.831
283 0 118.129 11.953 1412 91.4731 1058.6 469.053
284 0 123.279 11.6808 1440 93.6062 1058.36 465.338
285 0 128.064 12.0799 1547 91.0116 1058.69 463.837
286 0 131.127 11.8129 1549 93.009 1058.55 461.088
287 0 135.082 11.6892 1579 96.1799 1058.52 459.678
288 1 76.0467 11.0327 839 92.5101 1058.2 491.066
289 0 77.0949 11.181 862 94.3677 1058.02 487.676
290 0 79.1118 11.4269 904 96.6084 1057.08 486.545
291 0 84.0768 12.8216 1078 92.3822 1057.19 486.12
292 0 86.1873 12.1132 1044 96.2854 1057.23 484.895
293 0 89.2079 12.7455 1137 94.5101 1057.76 483.16
294 0 91.255 12.4267 1134 96.2954 1057.25 481.612
295 0 93.3028 12.4648 1163 96.4471 1056.83 481.496
296 0 97.2896 13.0333 1268 95.1711 1056.86 480.076
297 0 98.3237 13.0792 1286 95.9456 1056.57 477.357
298 0 100.413 12.7076 1276 96.3809 1057.57 476.451
299 0 98.1644 11.6132 1140 93.7851 1056.87 476.281
300 0 102.141 11.9149 1217 92.1537 1056.35 476.225
301 0 104.231 11.9159 1242 93.0539 1056.87 471.786
302 0 108.258 11.722 1269 93.1497 1056.93 473.493
303 0 109.176 11.3761 1242 93.5572 1057.12 471.952
304 0 111.158 11.3442 1261 93.9754 1057.62 467.395
305 0 115.328 11.3936 1314 91.8896 1057.75 468.518
306 0 120.112 11.9971 1441 88.1728 1058.29 468.441
307 0 123.121 11.3059 1392 89.5172 1058.2 466.336
308 0 128.176 11.6636 1495 88.6067 1058.34 464.506
309 0 130.109 11.4058 1484 90.312 1057.9 463.118
310 1 62.0409 10.8316 672 91.9464 1058.83 490.333
311 0 66.1233 11.4181 755 88.5338 1059.62 489.785
312 0 66.0442 11.4317 755 90.9921 1058.41 487.807
313 0 70.0557 11.548 809 90.6996 1058.85 486.693
314 0 72.0418 11.9236 859 90.851 1059.08 485.579
315 0 74.0621 12.125 898 90.3096 1058.83 485.689
316 0 74.0544 12.2883 910 91.2813 1058.98 483.574
317 0 78.0563 12.0682 942 90.2367 1059.01 481.809
318 0 82.2771 12.2877 1011 90.7992 1057.32 483.826
319 0 83.2505 12.9248 1076 89.1125 1057.16 484.009
320 0 85.1688 12.4928 1064 89.4398 1057.48 482.523
321 0 87.1974 12.3513 1077 89.4559 1057.88 479.465
322 0 88.1024 12.0428 1061 88.2959 1058.22 481.578
323 0 86.2285 11.6667 1006 91.3231 1057.66 478.81
324 0 93.1045 12.0402 1121 88.2444 1057.65 479.306
325 0 92.085 11.674 1075 90.253 1057.25 477.687
326 0 96.1246 11.8492 1139 89.3433 1056.53 475.144
327 0 98.1844 12.2626 1204 88.7949 1056.53 472.616
328 0 99.1165 12.0162 1191 88.9656 1056.25 469.461
329 0 101.188 11.622 1176 89.1556 1056.43 469.645
330 0 105.179 12.1127 1274 87.6013 1056.6 469.121
331 0 108.164 11.4271 1236 89.7694 1056.54 466.444
332 0 111.188 10.9724 1220 90.5844 1055.96 461.026
333 1 54.1652 9.61872 521 86.38 1056.86 490.019
334 0 57.1397 10.4831 599 83.596 1056.57 490.666
335 0 59.0891 10.408 615 85.5675 1056.09 487.828
336 0 69.1042 11.6925 808 87.4765 1057.65 493.842
337 0 69.0628 11.8153 816 86.6446 1057.22 496.518
338 0 71.1342 11.8649 844 86.2038 1057.1 495.57
339 0 72.0973 11.4567 826 88.6114 1056.87 495.159
340 0 74.1027 11.8619 879 87.2025 1056.57 493.386
341 0 75.0777 11.0552 830 90.1446 1056.6 491.82
342 0 78.1111 11.6629 911 90.0834 1056.6 490.962
343 0 78.0908 10.872 849 92.9128 1056.05 488.324
344 0 82.1206 11.5075 945 91.3153 1055.6 486.316
345 0 84.1261 11.5898 975 90.0451 1055.09 484.537
346 0 83.0998 10.5054 873 92.5304 1054.96 481.982
347 0 84.0578 10.8973 916 89.9803 1055.03 476.039
348 0 84.1111 11.3897 958 89.4603 1054.11 475.938
349 0 85.1203 10.5733 900 93.1867 1054.06 472.783
350 0 93.2249 11.3274 1056 89.1307 1054.83 472.149
351 0 95.1528 11.4342 1088 89.2077 1054.22 470.366
352 0 101.132 11.5098 1164 87.0498 1053.87 469.733
353 0 104.132 11.4663 1194 87.4087 1054.18 467.312
354 0 105.141 11.3467 1193 88.4082 1053.92 463.657
355 0 115.194 12.0232 1385 84.9971 1053.9 463.744
356 1 62.0681 9.52181 591 75.4467 1054.61 491.134
357 0 64.078 9.55087 612 74.7206 1055.16 491.516
358 0 69.1804 9.85828 682 73.8842 1055.72 489.151
359 0 72.106 9.88822 713 72.7293 1055.41 492.635
360 0 74.1262 10.5766 784 71.514 1055.17 493.08
361 0 76.1713 10.8965 830 72.1169 1054.92 491.386
362 0 80.139 12.366 991 76.5883 1055.06 493.61
363 0 83.1452 11.7986 981 76.0214 1055.65 493.103
364 0 85.1389 11.8042 1005 78.5642 1055.73 492.488
365 0 87.1193 11.8803 1035 78.4029 1055.68 491.619
366 0 90.1417 11.7704 1061 80.1678 1054.69 488.946
367 0 92.1809 12.1826 1123 79.6634 1055.54 488.882
368 0 95.1017 11.7138 1114 80.3321 1055.51 485.18
369 0 98.1529 12.3481 1212 79.5297 1056.24 486.408
370 0 101.229 12.1309 1228 86.0513 1056.32 483.506
371 0 104.203 11.9382 1244 86.1214 1056.46 480.858
372 0 107.158 11.6837 1252 85.9784 1055.92 479.966
373 0 109.131 11.7015 1277 85.5012 1055.14 479.441
374 0 113.223 11.3581 1286 84.7232 1055.89 477.543
375 0 117.174 11.1287 1304 85.5989 1055.95 474.633
376 0 122.146 12.0593 1473 82.8961 1055.74 473.318
377 1 62.0521 10.8941 676 78.682 1057.61 502.953
378 0 64.0688 12.0496 772 78.1554 1056.25 500.008
379 0 67.0907 12.5651 843 77.2325 1057.22 499.219
380 0 68.0434 11.8307 805 88.7516 1057.78 496.768
381 0 71.0654 11.792 838 87.9224 1057.44 496.642
382 0 75.0601 12.3368 926 85.3078 1057.47 495.882
383 0 74.082 12.3782 917 87.7917 1057.13 493.754
384 0 77.0483 12.4597 960 87.4562 1057.15 494.153
385 0 80.0986 12.6344 1012 87.0968 1057.24 492.328
386 0 81.1724 12.0361 977 90.1566 1057.48 491.284
387 0 82.1904 11.8627 975 90.9415 1057.94 490.245
388 0 85.191 12.3722 1054 91.3046 1057.99 488.843
389 0 89.2987 12.6094 1126 91.7602 1057.71 487.909
390 0 90.2479 12.0557 1088 93.7767 1057.26 486.43
391 0 92.1888 12.431 1146 93.8045 1057.07 484.614
392 0 95.2368 12.5897 1199 94.2002 1057.16 482.349
393 0 95.1076 12.2703 1167 96.4576 1057.79 481.633
394 0 100.127 12.2245 1224 94.674 1057.61 481.044
395 0 103.27 12.3463 1275 95.1067 1057.6 478.156
396 0 103.197 12.7329 1314 95.0906 1057.47 475.836
397 0 108.361 12.809 1388 94.1131 1057.44 471.103
398 0 111.449 12.6694 1412 92.8322 1057.58 472.185
399 0 113.375 13.1158 1487 92.959 1057.92 468.702
400 0 118.406 12.6936 1503 93.3706 1057.81 466.61
401 1 61.0961 11.3264 692 92.172 1058.21 494.887
