time division length width area intensity CMx CMy
0 0 43.0258 11.7371 505 97.2634 914.37 500.968
1 0 46.0326 11.6657 537 96.1639 914.808 500.488
2 0 46.0065 11.7375 540 96.0537 914.637 501.567
3 0 49.0297 12.7474 625 92.1808 914.344 500.394
4 0 48.0207 12.1198 582 92.6117 914.859 500.302
5 0 50.0136 12.4766 624 89.2388 914.731 501.048
6 0 53.0192 12.6746 672 88.5179 914.417 499.799
7 0 52.0618 12.6964 661 88.9531 914.708 499.322
8 0 55.0414 13.0629 719 86.993 914.798 498.221
9 0 57.0509 12.41 708 89.3065 914.66 497.643
10 0 59.0676 12.765 754 87.9907 913.517 496.528
11 0 61.0227 12.225 746 88.4517 914.432 495.869
12 0 63.1538 13.1425 830 89.7349 914.136 494.539
13 0 67.0803 14.4006 966 87.9389 913.236 492.838
14 0 70.063 13.5307 948 94.1857 913.981 490.415
15 0 70.0534 13.6324 955 95.4377 913.542 490.273
16 0 72.0682 13.4456 969 95.8834 914.35 490.546
17 0 76.0998 13.4954 1027 95.0438 913.498 487.633
18 0 79.135 13.9382 1103 94.7063 914.064 487.715
19 0 81.1621 14.4895 1176 93.5374 913.38 485.478
20 0 84.1182 13.9209 1171 96.38 913.051 483.647
21 0 89.1077 15.1839 1353 92.782 912.204 483.336
22 0 90.0948 14.7511 1329 95.0293 913.024 481.965
23 0 93.0795 14.7293 1371 95.2188 912.705 480.569
24 0 94.0717 14.6484 1378 96.1422 912.747 480.737
25 0 100.081 15.2276 1524 92.9442 913.013 478.167
26 0 102.1 15.2302 1555 92.3749 912.601 477.871
27 0 105.088 14.8066 1556 92.7397 912.539 476.083
28 0 108.123 15.1217 1635 90.1829 912.602 475.524
29 0 114.068 15.3944 1756 88.6498 911.927 473.701
30 0 118.126 15.6528 1849 87.4851 912.362 472.082
31 1 58.0264 12.9941 754 90.8037 912.509 500.642
32 0 60.0429 13.2239 794 90.6889 911.666 500.154
33 0 64.0515 13.8014 884 88.6561 911.936 498.038
34 0 66.0562 14.0638 929 89.8698 911.822 496.637
35 0 70.0817 13.8981 974 89.8368 912.313 494.719
36 0 72.036 14.5066 1045 88.8507 911.251 492.221
37 0 76.05 14.1354 1075 89.7795 911.692 490.294
38 0 79.0582 14.2174 1124 89.3852 911.441 488.625
39 0 82.055 14.3684 1179 88.7574 911.933 487.662
40 0 85.0626 14.6363 1245 88.506 911.897 485.521
41 0 86.0346 14.2849 1229 89.24 911.474 484.222
42 0 90.0411 13.6937 1233 89.283 911.722 482.343
43 0 93.1167 13.7462 1280 88.1961 911.36 478.888
44 0 96.0924 14.2675 1371 86.2188 911.45 479.262
45 1 49.0889 12.4672 612 84.0245 911.923 501.35
46 0 50.0958 12.4761 625 83.5264 911.866 501.059
47 0 51.0701 12.1206 619 83.7884 911.89 497.262
48 0 52.0819 12.7108 662 84.3384 912.02 497.588
49 0 54.0504 12.7289 688 84.3619 912.096 498.586
50 0 58.0201 12.9265 750 83.856 911.476 497.644
51 0 59.066 12.7146 751 85.4581 911.992 498.245
52 0 59.0663 12.6976 750 138.448 912.988 498.287
53 0 62.0753 13.4031 832 86.5541 911.286 495.859
54 0 66.027 13.0401 861 86.9663 911.209 494.942
55 0 66.0529 12.6565 836 87.927 911.689 494.634
56 0 70.0643 12.7026 890 88.5124 911.702 492.496
57 0 74.0477 12.8296 950 89.5379 911.395 488.872
58 0 78.0382 13.3781 1044 87.5565 911.862 489.779
59 0 78.018 13.3431 1041 88.4169 911.923 488.247
60 0 80.0661 13.1267 1051 89.5557 911.324 486.322
61 0 84.079 13.2613 1115 89.7874 911.485 484.838
62 0 87.1101 13.5576 1181 89.0093 912.229 482.644
63 0 90.0374 12.9724 1168 90.5034 911.698 480.562
64 0 94.1117 13.2183 1244 88.9156 912.042 479.987
65 0 94.1075 12.6239 1188 90.2525 911.739 479.37
66 0 99.084 12.3532 1224 89.2328 911.76 478.047
67 0 104.127 13.0994 1364 88.1591 911.328 474.846
68 1 56.0781 11.1808 627 87.6284 910.748 497.166
69 0 60.0523 12.2893 738 86.3577 910.875 497.654
70 0 62.0373 12.702 788 86.9708 911.668 497.473
71 0 66.074 12.819 847 86.6505 911.705 496.028
72 0 68.0506 13.2548 902 85.4978 911.619 494.436
73 0 71.0768 13.2533 942 85.9745 911.784 493.046
74 0 73.0758 12.7949 935 87.8438 911.787 491.867
75 0 74.0751 11.8798 880 90.5023 911.918 491.124
76 0 77.1157 12.9546 999 87.6216 911.815 489.504
77 0 77.1354 12.0956 933 92.299 911.271 488.046
78 0 82.069 12.6113 1035 89.3324 911.654 487.272
79 0 84.089 12.9387 1088 89.9246 910.951 486.317
80 0 85.0994 12.315 1048 91.5248 912.144 485.198
81 0 87.0719 12.2198 1064 91.5602 912.516 484.231
82 0 92.056 12.2643 1129 90.0195 912.335 481.909
83 0 93.0513 11.8752 1105 90.1656 912.243 480.776
84 0 95.1194 11.3436 1079 91.0473 912.423 478.194
85 0 100.119 10.967 1098 90.0956 912.329 475.184
86 1 54.1136 10.7367 581 79.5628 912.367 500.207
87 0 56.0736 10.4149 584 76.6216 912.997 499.382
88 0 57.0682 11.5125 657 74.0152 912.846 498.708
89 0 59.1442 11.2268 664 74.3434 912.557 497.47
90 0 60.1086 10.6474 640 70.7156 912.377 497.194
91 0 60.0702 10.7208 644 72.4239 911.877 496.438
92 0 61.0773 10.7405 656 73.904 911.543 494.009
93 0 62.0452 10.0088 621 74.6522 910.997 494.672
94 0 67.0767 10.6743 716 73.0642 911.798 494.27
95 0 68.0948 11.7043 797 71.9724 910.817 491.64
96 0 70.1716 10.5741 742 73.8248 911.074 490.387
97 0 74.1636 11.5825 859 72.5949 910.279 490.987
98 0 75.1218 10.5429 792 73.6856 911.177 489.528
99 0 79.1491 11.1309 881 72.8172 910.563 487.544
100 0 80.0921 10.3006 825 75.08 910.944 487.664
101 0 84.132 10.5073 884 77.3552 911.251 483.663
102 0 88.1163 10.8379 955 75.8754 910.59 483.29
103 0 90.1477 10.8932 982 75.5438 910.647 482.411
104 0 92.1638 10.4596 964 76.0042 911.275 480.293
105 1 49.1466 9.94982 489 71.4315 912.149 501.294
106 0 51.0806 10.2583 524 66.5553 912.578 501.685
107 0 52.1051 9.99902 521 67.4779 911.695 500.372
108 0 54.0974 9.79714 530 67.8283 911.73 499.421
109 0 54.1516 10.0459 544 69.6636 912.156 499.919
110 0 56.1877 10.5895 595 69.6017 912.266 499.353
111 0 57.08 9.96847 569 71.3251 913.13 498.042
112 0 58.0873 9.46851 550 72.2491 912.48 497.28
113 0 60.107 9.78255 588 71.9116 912.284 495.095
114 0 63.1358 10.7704 680 70.5118 912.175 493.879
115 0 64.0798 10.3465 663 71.8205 912.29 495.965
116 0 68.0745 10.9292 744 71.328 912.358 493.906
117 0 69.0864 10.6099 733 70.5498 911.971 494.469
118 0 72.0347 11.1058 800 72.61 911.318 491.536
119 0 74.0909 11.4049 845 72.497 912.143 491.041
120 0 77.0849 11.4679 884 73.345 911.24 489.494
121 0 79.1852 11.6183 920 73.9815 911.033 488.478
122 0 82.1042 11.9482 981 72.9337 911.591 486.871
123 0 84.1017 11.4623 964 76.0332 911.537 485.612
124 0 86.0882 11.0236 949 79.0759 912.157 485.146
125 0 88.0665 11.866 1045 79.3713 911.841 482.474
126 0 91.1225 11.4242 1041 82.5399 911.332 480.676
127 0 97.1061 12.821 1245 87.5462 911.093 478.294
128 0 99.1197 11.9048 1180 88.9254 911.703 476.777
129 0 102.092 12.1263 1238 89.6696 910.948 475.243
130 1 52.1287 10.5892 552 83.8134 911.44 501.299
131 0 54.0546 10.9149 590 80.039 911.288 499.83
132 0 57.0317 11.8706 677 77.1772 911.369 497.923
133 0 57.0476 11.8498 676 72.6095 910.858 499.765
134 0 59.043 11.7372 693 73.0447 911.111 498.867
135 0 63.06 12.8608 811 68.4612 911.178 497.716
136 0 66.0847 13.2708 877 67.0034 911.48 495.911
137 0 67.0913 12.5352 841 68.0048 911.138 494.787
138 0 68.1446 12.18 830 68.3458 910.624 494.798
139 0 69.155 11.5538 799 70.8373 910.922 493.727
140 0 74.0551 11.8155 875 68.936 910.066 492.424
141 0 75.1097 11.9026 894 68.7405 909.311 491.386
142 0 78.0437 11.7755 919 68.7682 909.807 490.642
143 0 80.0335 11.1328 891 69.4186 909.638 488.19
144 0 83.0874 11.2051 931 69.638 910.025 487.787
145 0 84.0635 10.9322 919 70.4962 910.13 485.845
146 0 88.1133 11.0653 975 69.7497 911.237 486.291
147 0 90.0579 10.4155 938 70.3454 910.563 483.954
148 1 47.0272 10.6534 501 69.481 910.521 505.449
149 0 49.0112 11.6096 569 67.5975 910.25 502.459
150 0 49.087 11.1027 545 71.4073 910.09 501.822
151 0 47.0291 10.0576 473 69.6025 909.96 503.907
152 0 50.0154 10.6967 535 69.1477 909.516 502.884
153 0 51.0552 10.5768 540 68.9852 909.394 502.687
154 0 54.0714 10.1162 547 68.4552 908.856 500.437
155 0 54.0211 10.3848 561 68.5722 909.647 498.677
156 0 56.0737 10.5397 591 70.3536 909.474 499
157 0 58.0305 10.0292 582 70.1512 909.77 497.567
158 0 59.0224 10.2334 604 70.5464 909.985 497.641
159 0 62.2627 10.5199 655 70.2794 909.426 495.678
160 0 66.0357 10.6306 702 70.5242 909.601 494.886
161 0 67.0427 9.78481 656 71.9512 909.643 492.252
162 0 70.0392 10.5227 737 70.7476 909.678 492.802
163 0 71.0931 10.3948 739 70.8214 909.947 492.813
164 0 73.0776 9.53781 697 73.109 910.356 492.181
165 0 76.0553 10.9 829 71.6936 910.427 488.726
166 0 79.0636 9.95401 787 74.1665 909.94 488.478
167 0 82.0837 10.8182 888 73.9043 909.888 485.801
168 0 85.1237 10.1147 861 76.7282 910.797 482.93
169 1 46.0634 10.1599 468 75.1859 911.498 503.374
170 0 47.0697 10.4738 493 73.146 911.832 502.252
171 0 50.0922 10.5406 528 73.9678 911.938 502.261
172 0 52.0825 11.1746 582 69.6289 911.866 500.125
173 0 54.1074 11.6066 628 71.0987 912.502 498.537
174 0 55.043 12.4811 687 70.2955 911.606 499.568
175 0 58.0326 12.1656 706 71.2323 910.742 498.387
176 0 56.1906 11.194 629 75.1002 911.824 500.801
177 0 59.0645 11.8514 700 74.0586 910.94 498.653
178 0 58.0748 11.0375 641 75.4337 911.214 497.061
179 0 61.1591 11.5437 706 72.9065 911.595 497.534
180 0 64.1809 12.309 790 71.4114 912.094 495.849
181 0 65.2015 11.5488 753 72.8473 912.279 495.785
182 0 67.0772 12.2247 820 74.2098 912.083 492.812
183 0 69.0895 11.9845 828 75.3551 911.374 492.422
184 0 70.1025 11.583 812 76.4076 911.326 491.952
185 0 73.0885 11.7118 856 77.4813 910.55 488.801
186 0 76.1161 12.0999 921 76.8882 911.407 489.74
187 0 79.1356 12.4723 987 75.8024 911.277 489.255
188 0 82.1492 12.4286 1021 77.4065 911.452 486.932
189 0 85.1691 11.941 1017 78.4228 911.727 485.028
190 1 46.2559 10.5068 486 76.8066 912.329 502.858
191 0 45.2548 10.7613 487 74.0164 911.485 500.429
192 0 46.2681 10.8714 503 70.503 910.962 499.753
193 0 49.165 12.4479 612 77.9869 910.111 502.415
194 0 50.2155 12.2074 613 77.9755 910.37 500.977
195 0 52.1432 12.3506 644 77.9193 910.533 500.801
196 0 52.2308 12.4639 651 78.1429 910.246 499.948
197 0 55.2239 12.2773 678 76.7965 910.224 499.652
198 0 58.0359 12.4578 723 75.621 911.246 498.158
199 0 58.0683 12.4164 721 75.9404 910.656 498.413
200 0 61.0571 12.5784 768 74.793 910.667 497.483
201 0 63.0485 12.7045 801 74.4632 910.854 496.142
202 0 65.0331 12.5013 813 94.2349 910.814 494.322
203 0 68.0717 12.3105 838 94.4547 910.32 494.412
204 0 69.0559 12.1206 837 95.2401 910.148 492.502
205 0 70.1569 12.9139 906 94.6711 910.458 491.461
206 0 70.1369 13.0031 912 141.575 910.416 491.45
207 0 75.1223 12.0071 902 95.1441 910.243 489.529
208 0 77.114 11.9434 921 93.6222 910.796 489.06
209 0 79.0958 11.897 941 93.9756 909.38 488.295
210 0 81.101 11.7631 954 94.2306 910.202 486.051
211 0 83.1198 11.1405 926 86.6652 908.855 481.053
212 0 86.1053 11.2188 966 88.8727 909.269 484.762
213 0 88.111 11.1904 986 88.9777 909.322 483.336
214 1 46.0931 10.5222 485 84.5258 909.53 504.81
215 0 46.0147 10.4966 483 83.3954 909.925 504.493
216 0 47.0174 9.97503 469 84.6269 909.891 504.386
217 0 51.0128 10.5464 538 81.5911 909.779 503.335
218 0 51.1164 10.7598 550 82.0564 909.611 501.682
219 0 50.1055 10.9369 548 81.7865 908.834 500.958
220 0 55.1023 11.5603 637 80.336 908.278 500.327
221 0 56.1473 12.111 680 82.7529 908.54 497.272
222 0 58.0561 11.7128 680 89.9221 908.974 496.682
223 0 59.0511 12.5823 743 89.105 909.297 496.05
224 0 63.0276 12.2645 773 90.1009 909.516 494.524
225 0 62.0516 12.5057 776 92.4588 908.96 494.168
226 0 65.0564 12.005 781 93.5967 908.566 491.99
227 0 68.0747 12.4569 848 92.4469 908.888 491.561
228 0 70.0388 12.593 882 92.7302 908.65 490.508
229 0 73.0947 12.2991 899 94.8198 908.512 489.974
230 0 74.0472 12.7351 943 95.5292 909.162 488.127
231 0 79.0558 12.5228 990 96.3192 908.219 487.377
232 0 82.166 13.0589 1073 95.7279 908.549 487.092
233 0 82.1002 12.5335 1029 99.4888 908.534 486.055
234 0 85.0947 12.398 1055 99.4028 908.734 482.465
235 0 88.1336 12.4016 1093 98.6395 909.019 480.857
236 0 90.1277 12.8373 1157 97.713 908.769 479.945
237 0 93.1816 12.1161 1129 97.0957 908.32 477.734
238 0 95.1255 11.7003 1113 90.2255 908.739 479.001
239 1 49.0232 11.158 547 88.4644 909.784 500.068
240 0 51.0535 11.6544 595 87.5076 908.477 499.227
241 0 54.0576 11.7837 637 85.4192 908.316 498.852
242 0 58.0833 12.5337 728 87.4038 908.014 498.271
243 0 59.0494 12.2948 726 87.8168 907.868 498.632
244 0 60.0518 11.923 716 89.2947 908.087 498.302
245 0 63.1113 11.7253 740 89.6405 908.354 497.369
246 0 65.1016 12.4575 811 88.4834 908.387 496.533
247 0 65.1506 12.4327 810 139.905 908.404 496.609
248 0 69.1484 13.1601 910 87.4824 908.379 494.034
249 0 68.1245 12.4478 848 91.1804 908.304 493.064
250 0 73.1393 12.6334 924 89.869 908.953 491.839
251 0 74.1231 13.0863 970 90.8175 909.339 490.933
252 0 76.1087 12.6004 959 91.2972 909.193 490.318
253 0 79.1399 12.9138 1022 88.3552 908.134 488.855
254 0 81.0714 12.5445 1017 90.8564 908.723 485.974
255 0 85.1358 12.8031 1090 91.1046 909.006 485.378
256 0 87.2396 12.8841 1124 91.6076 908.666 484.043
257 1 45.0346 10.8805 490 86.4326 908.955 507.608
258 0 46.0573 11.616 535 81.8467 909.417 506.95
259 0 47.0715 11.5994 546 82.0788 909.423 506.581
260 0 49.0456 11.7238 575 84.1322 909.183 504.473
261 0 50.0391 11.7908 590 83.4136 909.605 503.275
262 0 51.0752 12.0802 617 83.3468 910.063 502.084
263 0 52.0566 11.5067 599 85.1987 909.611 502.145
264 0 54.0977 11.7565 636 84.684 909.486 500.766
265 0 56.0417 12.5264 702 83.0157 909.725 500.694
266 0 57.0283 11.8011 673 84.7207 909.407 500.071
267 0 58.0262 12.5116 726 83.624 909.241 498.726
268 0 62.0546 12.4084 770 82.9935 909.486 498.321
269 0 62.0471 12.1359 753 85.834 908.619 497.737
270 0 63.1018 12.4719 787 85.8768 908.768 497.174
271 0 66.1384 12.8518 850 85.06 908.644 496.595
272 0 68.0748 12.8094 872 83.5917 908.881 495.399
273 0 70.0736 12.5154 877 85.4584 908.896 494.518
274 0 73.0459 12.9781 948 83.711 908.949 491.925
275 0 75.0788 12.7732 959 84.3608 908.923 490.626
276 0 77.069 13.2608 1022 84.8601 908.773 490.12
277 0 78.0513 12.6327 986 86.9077 908.967 489.08
278 0 83.0733 12.5552 1043 86.7306 909.279 487.048
279 1 41.0189 10.166 417 87.3142 909.902 507.52
280 0 43.0462 10.9417 471 85.7919 910.473 507.622
281 0 45.0376 11.4127 514 84.642 910.399 505.893
282 0 45.0317 11.1477 502 85.3028 910.01 507.434
283 0 46.1301 11.4892 530 85.4094 910.281 504.925
284 0 48.1782 11.9141 574 89.9286 909.603 503.549
285 0 50.1046 11.1966 561 91.8877 908.824 504.009
286 0 52.1103 11.7827 614 90.7899 908.919 502.941
287 0 51.1247 11.7164 599 93.3723 908.798 502.513
288 0 54.0981 11.2573 609 93.2939 907.928 503.182
289 0 56.0763 11.6983 656 92.5564 908.034 501.384
290 0 56.0906 11.4279 641 95.3604 908.412 499.39
291 0 58.1774 11.5681 673 94.9792 908.428 498.961
292 0 59.123 11.6029 686 93.8251 908.236 498.334
293 0 64.1429 11.7394 753 92.1567 908.908 498.27
294 0 65.1418 12.2195 796 91.5729 908.407 496.662
295 0 66.1072 12.1016 800 92.2838 907.912 497.186
296 0 68.1398 12.2542 835 93.0742 907.853 495.819
297 0 70.1335 12.6331 886 92.9752 907.475 493.632
298 0 71.1343 12.3007 875 93.8583 908.664 492.569
299 0 75.0312 12.2882 922 93.8612 908.973 492.742
300 0 79.0724 12.3558 977 92.9079 908.193 490.744
301 0 80.0767 12.6129 1010 94.0347 908.691 488.158
302 0 84.068 12.6921 1067 93.1425 908.995 487.936
303 0 87.1288 12.6135 1099 93.0491 909.03 486.132
304 0 89.1104 13.1186 1169 92.2549 909.497 483.926
305 1 44.0612 10.2584 452 89.6549 909.792 506.991
306 0 46.0296 11.0147 507 88.0178 909.728 505.467
307 0 46.0358 11.0132 507 88.7081 909.558 505.594
308 0 50.0642 11.8448 593 80.1922 909.28 505.369
309 0 48.0658 12.2124 587 74.1124 908.194 507.138
310 0 50.0145 12.1165 606 74.6205 908.629 506.526
311 0 52.0218 12.0526 627 76.244 909.376 506.083
312 0 53.0384 11.9724 635 77.2236 908.51 505.945
313 0 53.065 12.2303 649 78.2111 908.455 504.946
314 0 55.0123 12.8698 708 77.1596 908.773 504.614
315 0 58.0529 12.8159 744 77.4395 908.395 503.001
316 0 60.0218 12.6287 758 77.9894 908.611 502.096
317 0 63.0226 12.3765 780 78.5167 908.612 501.674
318 0 62.0527 12.2154 758 79.3865 908.22 501.181
319 0 66.0506 12.7175 840 78.3583 908.029 501.808
320 0 68.0477 12.5353 853 79.3763 908.475 500.321
321 0 70.0503 12.6909 889 79.0472 908.867 499.73
322 0 70.0456 12.3206 863 81.6199 908.273 498.098
323 0 73.0599 12.4008 906 82.8852 908.264 496.586
324 0 76.0787 12.8945 981 81.8043 907.914 496.6
325 0 78.1435 13.0657 1021 82.5877 907.909 495.879
326 0 80.1225 12.4934 1001 85.041 907.931 494.004
327 0 81.0396 13.0554 1058 85.5614 907.957 492.718
328 0 84.0616 12.8953 1084 86.5304 907.578 491.741
329 0 86.0912 12.6261 1087 88.7875 907.698 492.648
330 0 88.0354 12.7222 1120 89.9446 907.821 491.958
331 0 89.0399 12.2979 1095 93.053 907.774 489.416
332 0 93.0603 12.7659 1188 91.0118 907.171 486.915
333 0 98.0807 12.9893 1274 90.7567 907.396 485.63
334 1 50.029 11.3934 570 92.121 907.774 508.502
335 0 52.0287 11.7435 611 92.8036 907.517 508.19
336 0 53.0524 12.4217 659 92.4476 908.003 506.675
337 0 54.0342 12.3995 670 91.9731 907.204 504.913
338 0 54.0258 12.1608 657 86.2253 907.368 505.018
339 0 56.0809 11.84 664 87.1687 906.703 504.384
340 0 57.0938 12.5933 719 85.299 906.801 503.819
341 0 61.065 12.9534 791 84.0657 906.75 502.547
342 0 64.0705 13.0481 836 83.9474 906.724 502.006
343 0 63.0471 12.8 807 86.6022 906.188 500.882
344 0 66.0447 12.3856 818 87.9609 905.854 499.764
345 0 68.0584 12.6509 861 87.1185 905.704 499.038
346 0 70.0326 12.5227 877 88.3774 905.569 497.818
347 0 71.0815 12.8022 910 89.4055 905.706 496.566
348 0 72.0256 12.0652 869 91.6582 904.18 495.306
349 0 75.0586 12.2837 922 90.8167 904.503 494.951
350 0 77.056 12.2249 942 89.9809 905.042 493.402
351 0 81.0804 12.4814 1012 88.7717 904.478 491.493
352 0 82.0328 11.8245 970 89.2722 904.141 491.311
353 0 86.1118 11.4154 983 86.4171 904.935 490.345
354 0 90.0641 11.403 1027 86.076 904.698 486.998
355 1 47.0679 11.2816 531 82.3277 905.2 507.766
356 0 48.013 11.7052 562 80.8096 905.123 507.418
357 0 49.0217 11.2603 552 87.3678 905.859 504.697
358 0 50.0168 11.796 590 88.8136 906.986 505.134
359 0 54.0044 11.5361 623 87.7207 906.624 503.913
360 0 56.0285 12.1902 683 86.1157 905.136 502.146
361 0 55.0364 10.5021 578 90.3633 904.984 502.029
362 0 59.034 11.3325 669 87.0269 904.803 500.842
363 0 60.022 11.779 707 84.6888 905.612 499.818
364 0 62.0643 11.6975 726 85.5331 905.613 499.855
365 0 64.0303 11.8538 759 84.7273 905.701 497.971
366 0 67.0669 11.7047 785 85.0369 904.856 498.008
367 0 68.0599 11.4752 781 85.831 905.858 496.835
368 0 70.0926 11.2137 786 85.4555 905.651 494.168
369 0 73.0927 11.7385 858 84.69 906.399 494.261
370 0 75.0682 11.6561 875 84.48 906.289 491.93
371 0 77.1053 11.2573 868 84.9147 906.619 492.522
372 0 79.1483 11.0552 875 87.208 906.031 488.719
373 0 83.0825 10.4836 871 87.3157 905.83 490.251
374 1 42.0182 9.61489 404 83.1262 906.918 508.577
375 0 46.0289 10.0372 462 81.0931 907.182 508.037
376 0 45.0239 9.5727 431 78.2204 906.856 508.824
377 0 46.0244 10.69 492 76.8841 907.193 507.754
378 0 47.0141 10.5075 494 77.6559 906.945 508.285
379 0 46.0472 10.4892 483 78.2132 906.93 506.992
380 0 50.0365 11.3717 569 75.7487 906.536 505.167
381 0 51.018 11.1921 571 75.2312 906.245 504.594
382 0 51.1044 10.2144 522 76.5939 906.402 505.412
383 0 52.0756 10.1967 531 77.0904 906.363 503.079
384 0 56.0948 10.4109 584 74.9846 906.57 502.565
385 0 57.1002 10.9982 628 73.6083 906.803 502.739
386 0 56.0882 9.30677 522 77.1475 907.119 501.205
387 0 59.1068 10.2865 608 74.903 907.658 500.299
388 0 62.1162 10.0779 626 75.8786 907.829 499.938
389 1 125.216 10.1105 1266 97.6611 906.997 465.656
390 0 124.202 9.13032 1134 99.2346 906.668 465.074
391 0 124.148 6.70972 833 98.8836 906.522 473.084
392 1 37.0592 7.82532 290 83.0414 906.645 508.024
393 0 35.0681 7.95596 279 82.8961 907.373 508.283
394 0 34.0878 7.27534 248 81.5766 907.242 508.315
395 0 36.036 8.43601 304 78.7171 907.424 507.431
396 0 37.0241 8.69704 322 75.9193 907.556 508.863
397 0 44.019 9.58678 422 73.2275 907.637 504.72
398 0 44.0876 8.43775 372 73.2124 907.917 507.688
399 0 46.0808 9.11443 420 72.3405 908.388 504.871
400 0 47.0668 8.41358 396 72.6263 908.24 504.576
401 0 50.069 9.50689 476 71.8908 908.233 502.567
402 0 50.1665 9.08973 456 73.4934 907.2 502.678
403 0 50.0259 9.17525 459 75.0588 907.453 499.782
