time division length width area intensity CMx CMy
0 0 61.0153 13.3573 815 119.096 702.663 510.523
1 0 62.0306 14.251 884 114.926 701.744 508.514
2 0 63.0634 13.4626 849 122.25 702.031 508.875
3 0 65.0342 13.0239 847 116.013 701.655 511.047
4 0 65.0621 13.6792 890 114.466 701.812 510.36
5 0 68.0847 12.6754 863 114.269 701.779 509.147
6 0 72.0347 13.3408 961 110.204 702.136 507.938
7 0 72.0751 13.4998 973 108.683 702.012 507.257
8 0 77.0716 13.455 1037 106.62 701.453 504.399
9 0 78.0969 13.3424 1042 106.842 702.131 505.082
10 1 42.0168 12.1618 511 112.114 702.09 521.616
11 0 46.0293 12.6876 584 108.437 701.897 520.144
12 0 46.0229 12.2765 565 107.763 702.308 520.05
13 0 49.0178 13.4849 661 103.136 701.463 518.222
14 0 47.0196 12.5054 588 98.8418 700.531 519.466
15 0 48.0129 12.2675 589 98.9949 700.55 519.908
16 0 50.077 12.5607 629 97.9332 700.93 518.94
17 0 50.0197 12.2752 614 98.8974 700.555 515.48
18 0 52.0817 12.5188 652 95.4862 700.523 516.633
19 0 56.0319 12.7427 714 93.0728 700.13 513.699
20 0 56.0788 12.5181 702 93.6595 700.319 513.823
21 0 61.0208 13.2578 809 89.7417 700.012 514.049
22 0 62.0384 13.7657 854 89.4239 699.995 512.383
23 0 63.0631 13.3517 842 89.9204 700.418 512.158
24 0 62.0582 12.875 799 142.791 701.471 511.181
25 0 69.1769 13.7763 953 88.5362 700.003 509.738
26 0 71.0552 13.581 965 89.2508 699.92 509.558
27 0 75.0687 13.6408 1024 89.1104 699.931 508.076
28 0 75.1124 13.3666 1004 91.0876 700.056 507.453
29 0 79.0747 13.9109 1100 88.95 699.283 505.53
30 0 82.145 13.5979 1117 89.8424 699.227 505.903
31 0 85.1149 14.0398 1195 91.0711 699.807 503.519
32 0 90.1053 14.3943 1297 89.4518 699.749 502.965
33 0 90.1116 13.9605 1258 91.9587 699.315 500.661
34 0 96.0936 14.028 1348 89.2685 699.055 498.842
35 0 98.0565 13.9103 1364 89.3343 699.021 498.059
36 0 101.065 13.892 1404 89.0406 699.749 494.471
37 0 106.13 13.8132 1466 89.4741 698.754 491.497
38 0 107.133 13.8052 1479 88.9087 698.654 489.274
39 0 113.221 14.4761 1639 86.6565 698.405 486.221
40 1 59.105 10.9297 646 86.904 700.393 515.424
41 0 60.0769 11.4187 686 84.898 700.185 513.152
42 0 62.048 11.4589 711 84.4205 700.122 515.093
43 0 64.0851 11.9841 768 83.1823 698.298 513.493
44 0 68.041 10.9052 742 84.4528 698.26 512.422
45 0 68.0852 10.6778 727 85.4704 697.937 510.242
46 0 68.0746 12.075 822 84.3589 698.268 508.54
47 0 72.0721 12.3626 891 83.422 698.798 509.072
48 0 75.0986 12.7299 956 83.7856 698.999 505.933
49 0 78.0911 12.447 972 82.1698 698.63 506.767
50 0 77.0344 11.3586 875 85.8057 698.688 506.287
51 0 81.0504 12.0666 978 84.3476 699.213 504.996
52 0 84.0689 11.5976 975 84.1231 699.246 503.282
53 0 87.071 11.3471 988 84.3694 699.027 501.755
54 0 91.0697 12.3312 1123 82.8833 698.685 499.675
55 0 94.0869 12.1696 1145 81.6122 698.819 499.449
56 0 96.0931 12.3526 1187 82.4035 698.939 496.612
57 0 99.1202 11.8139 1171 82.4842 699.043 497.736
58 0 101.05 12.3503 1248 87.5321 698.424 493.555
59 0 106.056 12.5123 1327 81.9932 699.133 492.892
60 0 109.073 12.0745 1317 82.9939 698.162 489.643
61 0 113.162 12.0093 1359 83.0508 698.453 487.763
62 1 61.1597 10.7914 660 80.7455 698.303 513.965
63 0 62.0412 11.5246 715 82.1385 699.067 512.443
64 0 67.0296 12.3677 829 79.6345 698.327 511.585
65 0 67.094 12.4899 838 80.7208 698.56 510.915
66 0 69.0759 12.4356 859 82.0664 697.799 509.985
67 0 71.0757 12.4797 887 81.4915 697.459 508.229
68 0 74.0865 12.8499 952 81.2962 697.693 506.933
69 0 77.0787 12.9348 997 82.4935 697.462 505.802
70 0 80.1164 13.3805 1072 84.2929 697.425 504.543
71 0 85.0578 12.6502 1076 93.9823 698.642 504.302
72 0 87.0672 12.3468 1075 96.0353 698.346 501.931
73 0 91.0655 12.815 1167 94.8852 698.783 499.819
74 0 92.1194 12.5272 1154 96.9263 698.373 498.535
75 0 96.0877 12.9049 1240 87.9484 698.136 498.191
76 0 99.0656 12.5876 1247 96.0537 698.35 495.696
77 0 101.065 12.7839 1292 94.8336 697.79 494.257
78 0 105.026 13.3777 1405 93.0641 697.771 493.137
79 0 108.062 13.6866 1479 92.3807 697.245 492.078
80 0 109.066 12.6713 1382 94.0825 697.41 491.475
81 0 111.108 12.1774 1353 94.1382 698.061 488.602
82 0 115.295 12.1167 1397 93.4517 698.117 487.812
83 0 119.21 12.0124 1432 93.9204 697.33 482.774
84 0 125.275 11.6783 1463 94.2071 697.63 482.4
85 1 68.1042 11.2621 767 89.6806 697.437 510.776
86 0 71.1639 11.7897 839 88.3945 698.39 509.743
87 0 72.0862 11.5417 832 90.8245 697.79 507.071
88 0 76.1623 12.8541 979 87.381 698.685 506.97
89 0 77.067 12.6124 972 89.8405 698.935 505.775
90 0 80.0903 12.9479 1037 95.4831 700.38 504.098
91 0 81.0848 12.5424 1017 99.4199 699.37 503.583
92 0 84.0872 12.3681 1040 99.5183 698.373 501.666
93 0 86.0926 12.6259 1087 99.6771 698.443 499.426
94 0 88.0982 13.0877 1153 100.337 698.2 497.457
95 0 90.0967 12.8973 1162 101.698 698.597 496.254
96 0 93.133 13.0351 1214 99.7982 698.228 496.502
97 0 98.1305 12.626 1239 98.6949 697.887 495.828
98 0 99.1142 13.2272 1311 97.6453 698.227 496.207
99 0 102.181 12.8595 1314 98.535 698.596 493.558
100 0 105.088 12.2469 1287 97.1251 698.03 491.678
101 0 110.051 12.0853 1330 95.5429 697.933 491.513
102 0 112.103 11.7838 1321 93.3664 697.835 489.618
103 0 116.129 11.9436 1387 95.6193 697.534 487.134
104 1 64.081 10.9393 701 91.9872 696.872 514.638
105 0 65.0295 11.3948 741 91.3374 697.587 513.265
106 0 68.1211 12.3897 844 89.7464 697.995 510.284
107 0 70.0863 11.7855 826 78.454 698.322 510.192
108 0 71.0589 11.8634 843 77.8648 698.518 508.81
109 0 72.0774 11.9732 863 79.2074 697.818 507.955
110 0 76.1002 11.314 861 79.7387 699.159 506.275
111 0 79.1195 11.7038 926 79.3207 698.022 503.823
112 0 81.0667 11.8668 962 90.6123 698.634 502.819
113 0 86.1463 12.4904 1076 88.0465 697.69 502.406
114 0 87.164 12.5625 1095 89.6502 697.46 500.811
115 0 89.2294 12.2717 1095 90.3342 697.818 500.843
116 0 94.155 12.8193 1207 88.8774 697.572 500.047
117 0 95.1126 11.7124 1114 90.4372 697.592 498.949
118 0 101.15 12.1701 1231 88.5638 697.12 496.022
119 0 104.172 12.8346 1337 88.1077 697.61 493.935
120 1 52.0677 10.5824 551 86.4283 697.537 519.245
121 0 55.1389 11.6977 645 82.3271 698.513 518.62
122 0 54.0508 11.6927 632 78.1123 698.241 519.134
123 0 56.0598 11.5412 647 78.6167 699.427 517.734
124 0 58.0687 10.8148 628 91.0207 699.455 516.619
125 0 61.0326 11.5512 705 86.7688 699.885 514.709
126 0 61.0443 11.6637 712 87.1025 699.445 513.496
127 0 63.0266 11.2334 708 87.5847 698.99 513.031
128 0 65.0818 11.9542 778 86.5784 699.389 512.085
129 0 67.0395 11.62 779 87.543 700.402 511.426
130 0 67.038 11.8291 793 86.8802 699.919 509.516
131 0 71.0823 12.1549 864 86.5347 699.089 509.428
132 0 71.0349 11.6281 826 88.6562 698.528 509.099
133 0 75.0637 12.8691 966 84.6967 698.671 507.514
134 0 79.0317 12.5013 988 86.4545 698.892 506.142
135 0 79.0292 12.5017 988 140.45 698.905 506.02
136 0 81.0969 12.2816 996 87.7781 698.331 503.604
137 0 84.1183 12.5775 1058 87.7807 698.876 501.304
138 0 87.1309 12.5329 1092 87.5788 698.962 500.655
139 0 92.1755 12.5196 1154 87.864 698.053 499.696
140 0 92.1234 11.9079 1097 90.5889 698.339 496.812
141 0 96.1644 13.009 1251 88.0847 697.386 495.765
142 1 49.052 10.5806 519 84.8536 698.301 519.719
143 0 50.0362 10.6523 533 85.2702 698.841 518.246
144 0 50.0836 11.2013 561 82.3226 698.216 516.925
145 0 52.2641 11.1166 581 82.5129 698.253 514.286
146 0 53.0558 11.7424 623 81.2809 698.411 515.339
147 0 56.053 12.7736 716 78.102 698.015 518.807
148 0 57.013 12.5059 713 78.6241 699.309 517.425
149 0 56.0543 12.1846 683 81.3294 696.657 517.234
150 0 59.0282 12.7227 751 79.5846 696.699 515.806
151 0 61.0386 13.3686 816 79.6654 696.839 515.658
152 0 65.029 13.7016 891 79.0572 696.782 514.187
153 0 66.065 13.6684 903 81.6002 696.729 512.967
154 0 66.0527 13.792 911 83.202 696.682 511.996
155 0 69.0167 12.9099 891 85.7744 696.883 511.104
156 0 70.0338 13.4935 945 85.7926 696.911 509.447
157 0 73.0249 13.8035 1008 84.7014 697.659 509.625
158 0 75.0498 13.8708 1041 85.5187 697.252 507.636
159 0 76.0996 14.4285 1098 85.4745 697.271 506.845
160 0 77.0867 13.7118 1057 88.7077 696.587 505.409
161 0 80.066 13.8885 1112 87.2743 697.585 502.492
162 0 81.0207 13.6879 1109 88.6835 697.194 503.311
163 0 82.0586 13.0395 1070 92.5346 696.974 502.483
164 0 85.099 13.3962 1140 91.0044 696.981 500.584
165 0 86.1423 13.4893 1162 90.2952 697.392 500.194
166 0 89.0239 13.1088 1167 92.3436 697.259 498.949
167 0 95.0706 13.6846 1301 90.2091 697.884 496.318
168 0 96.0564 13.2318 1271 91.7939 697.43 494.356
169 0 97.0775 13.0514 1267 93.2904 698.118 494.021
170 0 102.151 13.2842 1357 91.3758 697.194 490.889
171 1 53.0324 10.9179 579 91.1416 698.535 515.136
172 0 55.0326 11.2115 617 90.4522 697.588 514.31
173 0 57.0326 12.4315 709 92.2906 697.47 514.223
174 0 60.0408 12.3916 744 91.8562 697.093 513.235
175 0 59.0391 12.1953 720 85.4 697.575 514.44
176 0 60.0521 12.0395 723 86.6805 696.71 514.941
177 0 62.0301 11.7846 731 86.9193 696.703 513.077
178 0 65.0845 12.3993 807 84.9195 696.757 511.134
179 0 66.0737 12.0169 794 86.7935 696.186 509.96
180 0 68.1799 12.2323 834 85.452 696.614 509.977
181 0 73.0992 12.7498 932 84.5461 696.443 510.838
182 0 74.08 12.8375 951 85.0557 696.532 508.403
183 0 80.1038 12.9332 1036 81.6747 697.209 506.909
184 0 80.0575 13.0656 1046 82.9187 696.328 503.692
185 0 83.0183 13.5512 1125 82.4622 697.141 504.559
186 0 86.0485 13.1554 1132 82.7703 697.509 503.178
187 0 88.0724 12.7395 1122 83.8093 696.913 502.055
188 0 90.0599 12.6805 1142 83.2662 696.806 500.634
189 0 95.0396 13.2997 1264 81.5245 696.653 496.725
190 1 48.0359 11.1792 537 84.9981 697.179 519.963
191 0 51.0303 11.7185 598 83.5401 697.124 520.589
192 0 52.0431 11.721 610 87.2918 697.093 519.875
193 0 54.024 12.6425 683 83.0059 696.526 519.49
194 0 55.0459 12.0082 661 88.761 696.743 517.589
195 0 57.0427 13.0078 742 77.9286 696.535 517.802
196 0 58.0619 12.9173 750 78.3693 696.68 516.145
197 0 59.0159 12.9626 765 77.7542 695.693 515.448
198 0 60.0924 12.7304 765 78.7255 696.752 514.546
199 0 64.1178 12.7266 816 77.2328 697.229 513.471
200 0 66.1163 13.1586 870 76.5713 696.262 513.008
201 0 69.0706 13.3487 922 75.8612 696.354 511.361
202 0 69.0696 12.5815 869 99.6191 696.43 511.221
203 0 72.0555 12.7402 918 99.6928 696.321 510.471
204 0 76.0527 13.1619 1001 97.3337 696.042 508.178
205 0 77.1169 13.11 1011 97.5717 696.37 507.547
206 0 81.0694 12.8285 1040 98.2202 695.742 506.169
207 0 81.068 12.7301 1032 100.025 696.177 503.459
208 0 84.0502 12.8971 1084 98.4216 695.828 504.165
209 0 88.0972 12.8948 1136 96.8706 696.029 502.152
210 0 91.0461 12.9165 1176 96.2874 695.543 500.174
211 0 93.0642 12.6042 1173 96.8542 695.672 499.484
212 0 94.0815 12.3829 1165 106.89 695.941 498.693
213 0 98.0679 12.4506 1221 105.111 695.888 498.096
214 0 102.116 12.2409 1250 103.694 695.952 496.646
215 0 104.083 12.4132 1292 97.2307 695.116 495.657
216 0 107.16 12.0567 1292 103.231 695.881 494.323
217 1 54.0298 10.7718 582 98.4072 695.663 518.665
218 0 56.0445 12.383 694 99.6297 695.896 516.617
219 0 56.1169 11.0662 621 97.4831 696.372 514.262
220 0 57.0484 12.3579 705 90.9574 697.13 516.126
221 0 58.1112 11.7017 680 97.0265 695.412 516.672
222 0 59.1147 11.8752 702 95.3647 695.557 516.547
223 0 63.0198 12.4405 784 95.0268 695.651 514.128
224 0 64.0613 12.1602 779 97.81 695.988 514.181
225 0 65.0437 11.5153 749 101.75 695.275 511.441
226 0 69.0651 11.8584 819 101.346 695.888 510.024
227 0 70.0902 11.8276 829 102.92 695.727 510.979
228 0 75.0763 12.7204 955 103.408 695.31 509.119
229 0 76.0999 12.8515 978 107.224 695.482 507.127
230 0 79.0885 12.9475 1024 107.482 695.422 507.697
231 0 82.0879 13.047 1071 107.981 695.608 506.573
232 0 85.1235 13.4041 1141 108.68 694.836 505.974
233 0 87.1291 12.8774 1122 111.278 695.755 504.078
234 0 90.2162 13.5009 1218 108.892 695.457 502.237
235 0 93.1254 12.9932 1210 110.434 695.238 501.664
236 1 51.0601 11.3788 581 112.337 695.095 521.351
237 0 53.0239 12.6924 673 106.944 694.728 520.434
238 0 55.0592 12.2414 674 108.411 694.871 520.448
239 0 56.113 12.9204 725 106.327 694.732 518.716
240 0 58.1078 12.7694 742 105.858 695.009 517.852
241 0 58.0344 13.2163 767 103.545 694.596 517.815
242 0 60.0775 12.9832 780 102.372 695.34 517.477
243 0 62.0763 12.9196 802 101.557 695.419 516.04
244 0 64.0602 12.7692 818 102.485 695.112 514.312
245 0 65.0961 12.4431 810 103.456 695.973 514.875
246 0 68.0289 13.1856 897 102.045 696.031 512.405
247 0 69.026 12.9516 894 102.661 695.702 512.46
248 0 71.0531 12.9762 922 102.296 695.964 511.271
249 0 73.0651 13.0021 950 103.196 695.726 511.114
250 0 75.0768 13.1599 988 101.944 696.514 510.303
251 0 78.0701 12.7706 997 102.974 697.412 507.615
252 0 80.0414 12.8558 1029 101.15 697.263 506.839
253 0 83.0587 12.7139 1056 100.102 697.12 505.698
254 0 85.1185 12.3592 1052 100.573 696.65 504.274
255 0 87.162 12.4251 1083 101.539 696.669 503.038
256 0 90.1853 12.3191 1111 101.241 696.025 501.05
257 0 93.0499 12.8963 1200 97.5833 696.582 500.513
258 0 95.0705 12.7695 1214 97.5881 696.232 498.036
259 0 97.0622 12.7135 1234 97.1143 696.26 497.365
260 1 50.0142 11.3968 570 89.7596 695.354 520.268
261 0 50.0419 11.0507 553 87.6926 695.105 520.423
262 0 50.0419 10.9908 550 125.867 694.096 520.516
263 0 54.0811 12.7216 688 83.2703 695.568 519.84
264 0 57.077 11.8787 678 83.9705 695.577 518.23
265 0 57.0332 11.9404 681 84.9192 696.611 517.549
266 0 59.0477 12.5322 740 85.1541 695.789 516.427
267 0 62.0636 12.3261 765 84.8654 695.742 515.286
268 0 64.0563 12.8637 824 85.0583 695.354 513.29
269 0 65.0629 12.6032 820 87.6256 695.632 513.343
270 0 67.0426 12.052 808 89.4332 695.653 513.068
271 0 68.0269 12.4804 849 91.2285 695.449 512.223
272 0 72.0682 12.7241 917 90.5583 695.207 510.944
273 0 74.1094 12.6705 939 90.312 695.54 509.626
274 0 75.0641 12.3095 924 91.5855 695.527 509.43
275 0 78.0255 12.8676 1004 90.6205 696.472 507.872
276 0 80.0424 12.3435 988 92.3553 695.979 507.157
277 0 83.0836 12.6258 1049 93.001 695.795 505.379
278 0 87.072 12.4839 1087 103.359 696.127 503.72
279 0 90.073 12.4011 1117 103.722 695.538 501.876
280 0 91.092 12.1525 1107 105.313 696.304 501.642
281 0 95.091 12.3776 1177 100.678 695.952 499.884
282 0 99.1182 12.5204 1241 101.052 696.529 497.165
283 0 102.093 12.2438 1250 102.764 695.777 496.88
284 0 102.099 12.243 1250 136.032 694.767 496.842
285 1 57.105 10.8572 620 96.2419 696.039 517.669
286 0 60.0572 11.8054 709 93.4386 696.457 515.975
287 0 61.1829 11.8007 722 95.2341 696.711 516.348
288 0 62.1066 11.6413 723 94.7012 695.527 516.477
289 0 64.0709 11.5809 742 94.1563 695.872 513.249
290 0 67.1308 12.5129 840 91.0357 695.363 514.082
291 0 67.1518 11.7048 786 90.6858 695.87 513.557
292 0 69.0441 11.9778 827 89.7352 694.845 511.985
293 0 73.1265 11.9382 873 88.1569 694.745 511.047
294 0 75.1031 12.0235 903 87.4961 694.239 508.928
295 0 77.0515 12.602 971 86.6313 694.27 506.977
296 0 81.0505 12.2023 989 86.8817 694.408 505.66
297 0 81.1006 12.2934 997 87.327 694.276 505.072
298 0 84.0466 12.3979 1042 86.4367 694.686 502.387
299 0 88.0384 12.6422 1113 86.4124 694.35 501.983
300 0 92.066 12.9907 1196 84.3905 694.059 499.487
301 0 95.0473 12.6463 1202 85.6073 693.981 497.778
302 0 98.1122 12.8017 1256 85.008 693.24 498.348
303 0 101.092 13.087 1323 84.4082 693.762 495.504
304 0 105.161 12.5807 1323 85.8813 694.899 495.193
305 0 103.162 11.7582 1213 134.289 696.791 493.351
306 1 49.0632 10.2725 504 88.1885 694.758 523.081
307 0 48.0929 10.0846 485 82.3567 693.967 522.573
308 0 52.0624 9.66149 503 82.7674 693.936 521.867
309 0 52.0569 11.4106 594 87.4343 694.855 521.406
310 0 54.0534 11.9881 648 83.7145 694.614 520.864
311 0 57.0486 12.1475 693 81.3838 693.887 521.746
312 0 57.0439 12.1836 695 82.1712 694.035 521.604
313 0 57.0587 11.7949 673 84.74 694.178 519.752
314 0 60.1262 11.8917 715 84.2755 693.887 518.576
315 0 62.0472 12.2971 763 82.6855 694.464 519.156
316 0 64.1053 11.9959 769 83.6151 694.061 518.118
317 0 67.1142 12.2031 819 81.7985 694.306 518.243
318 0 68.0713 12.6338 860 80.6709 694.377 517.353
319 0 70.1133 11.838 830 82.4446 693.706 516.769
320 0 72.044 12.0898 871 81.0333 693.859 515.414
321 0 73.1811 12.7492 933 82.7363 694.533 514.436
322 0 77.1498 13.0784 1009 82.0258 694.389 512.861
323 0 77.1067 12.5151 965 83.7938 693.893 512.311
324 0 79.1456 12.4581 986 84.4645 693.967 511.386
325 0 81.1435 12.4841 1013 83.9269 694.547 509.475
326 0 86.1923 12.7854 1102 82.9719 693.886 508.794
327 0 87.1876 11.8824 1036 85.3977 694.032 508.238
328 0 90.2387 12.8991 1164 83.6005 693.637 505.76
329 0 91.2516 12.471 1138 83.9772 694.236 504.581
330 0 95.2073 12.4465 1185 84.4996 693.275 503.714
331 0 98.1368 12.1973 1197 86.2331 694.344 504.109
332 1 57.0647 10.3391 590 87.5322 694.031 521.89
333 0 58.2759 10.9651 639 87.8075 694.484 521.563
334 0 61.2962 11.6157 712 86.6601 694.192 517.84
335 0 62.3142 11.8753 740 86.827 694.541 517.816
336 0 63.3466 11.6976 741 87.8232 694.804 516.483
337 0 65.2975 11.8075 771 87.4475 694.42 514.869
338 0 67.1624 12.2986 826 83.1416 692.619 514.264
339 0 71.1943 13.0348 928 80.9774 692.699 513.968
340 0 72.1214 12.3264 889 82.1204 692.304 515.427
341 0 75.1325 13.0969 984 82.2683 691.851 511.759
342 0 76.2222 12.7391 971 84.1988 692.73 513.225
343 0 78.141 12.503 977 85.0522 693.238 511.763
344 0 81.1381 12.756 1035 87.5517 692.492 509.889
345 0 82.0998 12.7406 1046 87.8136 692.132 510.966
346 0 86.1519 12.9306 1114 88.4605 692.346 508.468
347 0 88.152 12.728 1122 88.6925 691.739 506.659
348 0 90.1093 12.7623 1150 88.6591 692.039 506.02
349 0 93.0827 12.7414 1186 89.8651 692.034 502.079
350 0 96.1385 12.6172 1213 89.8566 692.823 500.646
351 0 99.1283 12.4485 1234 91.1548 691.308 500.459
352 0 102.167 12.5873 1286 90.9666 690.781 498.885
353 0 106.129 13.0313 1383 91.1142 691.709 498.717
354 0 108.275 12.6807 1373 99.3656 691.257 497.315
355 0 112.221 12.2258 1372 93.6983 691.321 493.863
356 0 117.21 12.6952 1488 93.5524 690.749 494.091
357 0 119.176 12.2088 1455 95.446 691.655 491.206
358 0 122.152 12.6891 1550 96.1652 690.631 489.157
359 1 66.0924 11.4839 759 100.192 691.175 517.656
360 0 66.0758 11.4868 759 148.563 692.175 517.656
361 0 68.0873 11.7643 801 106.087 691.027 513.11
362 0 71.053 12.357 878 104.13 691.058 512.827
363 0 72.0205 12.5659 905 104.962 690.42 511.474
364 0 76.0451 13.2027 1004 102.978 691.633 511.443
365 0 75.0497 12.2719 921 108.914 691.451 509.712
366 0 77.0537 12.8352 989 109.624 691.494 509.804
367 0 79.0829 12.3541 977 110.901 690.92 510.691
368 0 81.0459 13.079 1060 109.048 690.733 507.384
369 0 83.1698 13.0696 1087 105.839 691.231 509.708
370 0 86.0272 13.0656 1124 106.114 691.322 506.44
371 0 87.1123 12.5241 1091 98.8863 692.236 508.028
372 0 89.1239 12.5107 1115 100.027 692.026 504.205
373 0 92.1397 12.7741 1177 99.3246 692.684 505.606
374 0 94.2248 12.5763 1185 100.239 692.017 502.978
375 0 96.1296 12.067 1160 100.326 692.578 502.247
376 0 99.1656 13.0287 1292 98.031 692.371 500.532
377 0 104.143 12.7613 1329 98.0301 692.381 498.974
378 1 59.1036 12.1651 719 100.045 692.873 520.008
379 0 59.0692 11.6304 687 101.237 691.946 520.215
380 0 61.0681 11.8229 722 99.0582 692.238 518.202
381 0 62.0797 12.3712 768 102.452 691.664 516.87
382 0 65.0738 12.432 809 102.527 693.529 514.981
383 0 67.0847 12.6407 848 101.517 693.979 515.166
384 0 71.0431 12.4854 887 101.523 693.865 513.846
385 0 72.0754 12.2927 886 101.021 692.281 512.718
386 0 75.0672 12.3623 928 101.161 692.69 510.386
387 0 75.0507 12.6981 953 100.948 692.17 509.039
388 0 78.0341 12.5202 977 99.8547 692.902 508.251
389 0 80.097 12.8095 1026 99.3957 693.545 506.384
390 0 80.1166 12.4943 1001 100.386 693.552 504.415
391 0 83.1522 12.5553 1044 99.7423 693.677 503.992
392 0 85.1644 12.3995 1056 100.421 693.616 502.622
393 0 84.1268 11.8155 994 97.8048 693.108 503.427
394 0 87.1301 12.0854 1053 96.6078 693.576 502.328
395 0 90.1342 12.204 1100 95.4682 693.872 500.155
396 0 93.1643 12.1506 1132 94.9505 693.788 496.447
397 0 95.2314 12.6324 1203 93.0407 693.347 494.596
398 0 96.1432 11.9301 1147 94.6609 693.484 494.174
399 0 95.2417 10.8566 1034 97.9942 693.543 493.308
400 0 100.218 11.6746 1170 96.1906 693.694 491.532
