time division length width area intensity CMx CMy
0 0 75.0809 14.6509 1100 118.004 926.736 498.944
1 0 75.1579 14.7689 1110 117.919 925.874 497.127
2 0 77.1525 14.8537 1146 117.581 926.072 496.629
3 0 81.1036 14.389 1167 116.798 925.762 495.282
4 0 85.1896 15.0136 1279 114.64 925.843 498.16
5 0 86.1952 14.734 1270 112.884 925.875 497.375
6 0 89.109 14.5552 1297 111.524 926.184 494.88
7 0 93.0962 14.1681 1319 109.285 925.967 494.133
8 0 95.0686 14.074 1338 107.96 925.484 492.496
9 1 48.0893 12.4352 598 103.328 926.328 516.018
10 0 48.0425 12.0727 580 103.967 926.095 515.816
11 0 50.0455 13.0481 653 101.07 925.815 514.345
12 0 52.0197 13.1489 684 97.3333 926.273 513.637
13 0 52.0167 12.8997 671 97.5022 925.289 516.234
14 0 53.0338 13.2745 704 95.5852 924.811 513.857
15 0 56.0794 12.8746 722 95.5817 924.801 512.247
16 0 59.0446 13.566 801 93.0749 925.198 512.939
17 0 60.026 13.7107 823 92.373 924.854 510.034
18 0 63.0564 13.7972 870 91.508 924.607 510.105
19 0 64.0461 13.8182 885 91.5571 924.758 507.612
20 0 65.0713 13.3546 869 92.9896 924.483 506.959
21 0 67.0442 13.4836 904 92.0642 924.73 507.632
22 0 68.0519 13.5779 924 92.7392 924.723 506.525
23 0 72.0549 13.2399 954 91.6887 925.139 504.528
24 0 72.0549 13.2121 952 137.162 925.14 504.526
25 0 77.1033 13.3457 1029 90.5326 924.612 503.827
26 0 79.0976 13.5655 1073 89.2815 924.511 501.555
27 0 80.1738 13.4333 1077 89.7521 924.434 500.388
28 0 84.1798 13.0435 1098 89.0911 924.491 498.671
29 0 86.0898 13.3581 1150 87.3617 924.095 498.217
30 0 90.1412 13.3679 1205 86.8954 923.965 496.838
31 0 93.1116 13.0703 1217 86.8422 924.22 493.488
32 0 95.1414 13.0227 1239 86.7417 924.18 493.532
33 0 97.1729 13.1209 1275 87.7874 923.721 490.587
34 0 102.136 13.0708 1335 87.6884 923.441 489.121
35 0 105.124 12.9752 1364 87.4707 923.279 487.672
36 0 108.154 13.2403 1432 86.9756 923.926 482.537
37 0 111.112 13.0229 1447 88.0138 922.867 481.625
38 0 119.137 13.6062 1621 85.8865 922.793 480.375
39 0 123.075 12.724 1566 87.067 922.028 476.557
40 0 128.116 13.6751 1752 86.3636 923.083 476.795
41 0 134.175 13.6613 1833 85.5674 923.019 474.781
42 0 140.222 13.9564 1957 86.2698 923.265 473.676
43 0 144.215 13.6393 1967 87.9176 922.602 469.496
44 1 73.1598 12.0148 879 84.1888 922.846 504.761
45 0 77.1066 12.0353 928 83.944 922.518 503.231
46 0 80.1207 12.7058 1018 86.775 922.886 499.859
47 0 83.0691 12.6762 1053 87.0171 923.34 500.064
48 0 84.0862 12.5585 1056 88.0284 922.747 497.989
49 0 87.0611 12.5774 1095 84.7616 922.875 497.248
50 0 90.0951 11.954 1077 87.9322 922.785 494.184
51 0 92.0801 12.5217 1153 87.6713 923.434 493.256
52 0 98.053 12.3403 1210 87.8198 923.358 491.305
53 0 102.058 12.5713 1283 86.9657 922.832 488.007
54 0 106.125 13.2768 1409 85.2349 922.764 487.762
55 0 112.09 13.4892 1512 83.9702 923.05 486.657
56 0 115.119 12.9432 1490 85.1866 922.768 483.799
57 0 120.248 12.8069 1540 86.824 923.041 478.123
58 0 124.149 13.3388 1656 90.5205 922.62 477.609
59 1 68.1755 10.6783 728 77.3352 923.794 508.815
60 0 69.0589 11.0775 765 77.1817 923.438 507.285
61 0 71.0803 11.2127 797 76.1782 924.01 507.045
62 0 74.0613 11.774 872 73.3601 923.046 506.771
63 0 77.0554 11.5372 889 74.0945 923.751 505.849
64 0 77.0399 11.9419 920 74.7424 922.909 504.079
65 0 80.0437 11.4313 915 76.7322 923.182 502.078
66 0 84.0803 12.3691 1040 74.3817 922.514 502.295
67 0 86.037 11.774 1013 76.9408 922.05 500.681
68 0 88.0929 11.1473 982 79.8299 922.273 498.483
69 0 93.1088 11.9108 1109 80.3526 922.189 497.841
70 0 97.129 12.1385 1179 79.1781 921.956 495.258
71 0 98.1187 11.5269 1131 80.9443 922.722 494.56
72 0 101.083 12.0594 1219 78.2609 922.34 492.079
73 0 105.114 11.6635 1226 78.8524 922.789 489.395
74 0 109.11 11.4747 1252 78.2979 922.564 487.739
75 1 56.1033 10.2846 577 61.5719 922.78 517.133
76 0 58.075 10.6414 618 67.0712 923.249 515.832
77 0 59.0812 10.9172 645 67.1612 923.036 513.426
78 0 62.0644 11.8425 735 65.5034 923.165 513.193
79 0 63.2141 12.6079 797 76.1581 922.806 512.035
80 0 67.2193 12.1542 817 75.3978 922.952 511.459
81 0 68.124 11.9928 817 75.9437 923.59 510.77
82 0 70.1919 11.9245 837 76.2246 923.951 510.308
83 0 73.1102 11.9546 874 75.9314 923.223 507.654
84 0 74.1538 12.3797 918 75.451 923.422 507.207
85 0 77.2288 12.7673 986 73.9118 923.169 505.817
86 0 77.1598 12.1436 937 74.7663 924.014 504.828
87 0 81.1627 12.0745 980 73.7337 923.233 502.378
88 0 84.1745 12.2602 1032 73.6793 924.077 501.654
89 0 87.1715 12.4926 1089 70.9734 923.528 500.629
90 0 89.1494 12.1481 1083 71.675 924.089 499.957
91 0 89.1162 11.3223 1009 74.2805 923.856 497.741
92 0 91.0222 11.5906 1055 73.7005 923.315 494.516
93 0 94.0738 11.9268 1122 72.2513 923.33 494.028
94 0 99.0619 11.6998 1159 72.7731 923.006 492.399
95 0 101.165 12.2078 1235 72.7061 923.353 491.242
96 0 102.127 12.2298 1249 72.711 923.21 489.92
97 0 105.153 11.7448 1235 72.6097 922.757 490.029
98 0 107.203 11.8001 1265 73.7866 922.996 489.255
99 0 111.197 12.2665 1364 73.393 923.138 485.494
100 0 114.125 12.7842 1459 72.8403 923.388 484.472
101 0 119.169 12.134 1446 75.1888 923.631 481.145
102 0 124.248 12.6682 1574 74.3926 922.921 482.044
103 0 126.174 11.9597 1509 75.9854 922.463 479.482
104 0 130.149 12.7469 1659 74.8216 922.555 475.999
105 0 134.163 12.4178 1666 74.8806 923.234 475.115
106 0 139.184 12.6667 1763 74.6103 923.21 473.817
107 0 143.273 13.5336 1939 72.9618 922.99 470.575
108 0 147.19 13.2753 1954 73.4463 923.32 468.576
109 0 152.179 13.7339 2090 73.7306 922.862 463.639
110 0 159.243 13.6646 2176 74.8263 923.204 459.292
111 0 164.191 13.5695 2228 74.8972 922.483 457.325
112 0 169.259 14.0377 2376 75.7912 922.744 454.111
113 0 176.234 13.7487 2423 76.9872 922.013 450.339
114 0 183.25 13.3697 2450 78.7339 921.921 449.086
115 0 187.223 14.0848 2637 79.6007 922.104 441.747
116 0 194.346 14.361 2791 79.4317 921.764 442.387
117 0 199.215 14.1355 2816 81.1161 921.918 437.401
118 0 205.261 13.7045 2813 82.8926 921.535 437.507
119 0 213.32 13.9649 2979 82.2833 922.156 431.922
120 0 219.279 14.4336 3165 82.8243 922.251 427.884
121 1 163.227 11.5912 1892 85.2849 922.83 460.122
122 0 168.329 12.5587 2114 83.2053 922.391 455.334
123 0 171.354 12.6172 2162 84.6471 922.014 450.647
124 0 179.277 12.846 2303 83.0578 922.214 448.352
125 0 179.277 12.8851 2310 157.003 922.221 448.351
126 1 190.17 13.0094 2474 82.1148 922.046 441.057
127 0 198.411 13.2352 2626 81.6272 921.834 439.814
128 0 203.317 12.5715 2556 85.0121 922.272 438.226
129 0 210.347 12.9785 2730 84.7919 923.182 424.803
130 0 218.342 13.1262 2866 84.0789 922.682 422.37
131 0 225.308 13.5281 3048 84.0003 921.977 418.284
132 0 231.292 12.9793 3002 86.6399 921.215 411.849
133 0 239.247 13.6971 3277 85.0519 921.517 409.49
134 0 250.28 13.8285 3461 85.1124 921.921 409.498
135 0 248.282 12.9208 3208 166.857 922.864 404.833
136 1 287.246 8.74859 2513 91.4357 920.999 413.619
137 0 290.462 10.1941 2961 90.5778 921.45 403.586
138 1 64.1932 10.6398 683 66.7174 922.117 507.038
139 0 68.2439 11.2244 766 70.1462 921.926 507.33
140 0 68.2484 11.2823 770 69.1714 921.51 507.165
141 0 69.0998 10.9696 758 70.3602 920.574 506.901
142 0 69.1365 11.7015 809 70.6279 920.602 506.26
143 0 75.0842 11.84 889 69.7852 921.282 506.173
144 0 76.0947 11.8537 902 70.3891 920.65 503.381
145 0 78.1523 11.4904 898 71.8708 921.415 501.274
146 0 80.1255 12.1934 977 71.2323 921.132 500.389
147 0 83.1787 11.3731 946 73.5021 921.255 500.128
148 0 84.2557 11.5957 977 74.0706 921.844 498.297
149 1 46.1228 10.1251 467 74.5803 920.717 515.687
150 0 47.1568 10.8574 512 72.7871 920.85 513.049
151 0 50.2191 11.7087 588 76.7772 922.77 519.9
152 0 49.1093 11.2402 552 75.712 922.893 521.4
153 0 50.1086 10.9362 548 77.7883 922.704 520.995
154 0 51.1633 11.0822 567 78.1146 922.573 520.995
155 0 54.0895 11.9062 644 77.2516 923.017 519.123
156 0 55.2402 11.5496 638 78.8354 923.105 518.086
157 0 56.1408 11.9699 672 78.0997 923.618 517.269
158 0 57.094 11.3847 650 79.2585 923.188 516.64
159 0 59.181 11.4564 678 79.556 923.358 514.13
160 0 61.1019 13.3875 818 75.4034 922.37 513.001
161 0 66.1085 13.2207 874 74.5664 923.255 511.645
162 0 66.0736 13.152 869 74.7825 923.182 509.321
163 0 67.2347 12.4638 838 78.4594 922.749 511.945
164 0 69.1376 12.4679 862 78.1775 922.736 510.451
165 0 70.1065 12.3241 864 79.2697 923.207 508.426
166 0 72.0983 12.5523 905 79.453 922.93 507.442
167 0 74.0826 12.3241 913 80.0646 923.407 503.537
168 0 77.2745 12.1644 940 79.7085 922.703 501.954
169 0 81.1049 11.5529 937 80.8388 923.298 501.299
170 1 40.0288 9.84292 394 76.3756 923.008 515.2
171 0 40.0522 10.6611 427 74.534 922.991 512.424
172 0 43.1835 10.8375 468 72.5897 923.393 511.97
173 0 44.0487 11.3965 502 75.763 921.536 521.41
174 0 46.0701 11.2003 516 76.4457 921.275 520.632
175 0 45.0454 11.3663 512 78.5644 921.658 521.004
176 0 47.014 11.7624 553 78.4702 920.664 519.913
177 0 51.0452 11.911 608 76.579 921.599 519.38
178 0 52.0614 12.6389 658 74.8997 921.827 517.746
179 0 54.0876 12.2394 662 72.997 921.609 517.417
180 0 55.1431 11.7875 650 71.8954 921.791 517.56
181 0 59.0936 12.7594 754 69.6605 921.61 517.057
182 0 58.0756 12.3115 715 71.3874 921.648 515.966
183 0 61.0346 12.7633 779 70.4223 922.213 513.575
184 0 61.0568 12.2345 747 71.996 921.685 513.661
185 0 63.0588 12.4328 784 72.6594 922.562 512.216
186 0 67.0278 13.4869 904 70.3838 922.246 512.827
187 0 68.0474 12.4913 850 73.3224 921.678 510.889
188 0 69.0572 12.772 882 74.0374 921.782 509.151
189 0 72.0268 12.2593 883 74.8029 922.111 507.545
190 0 73.0929 12.4362 909 74.6282 922.292 506.847
191 0 75.058 12.9367 971 75.3666 922.208 506.807
192 0 78.0821 12.9607 1012 80.4802 922.359 505.175
193 0 78.0721 12.2963 960 82.6 921.814 505.591
194 0 80.0822 12.4123 994 83.1932 921.686 502.971
195 0 84.0921 12.2723 1032 81.1134 921.506 500.991
196 0 85.0677 12.4136 1056 81.5928 921.693 499.552
197 0 88.0769 12.6026 1110 81.2099 920.667 497.91
198 0 91.0908 11.9551 1089 81.696 920.86 498.376
199 0 94.0407 11.9523 1124 81.0632 920.937 497.557
200 0 96.0774 12.594 1210 80.5521 921.135 493.498
201 0 100.206 11.9554 1198 81.3088 921.102 492.43
202 0 104.153 13.2785 1383 98.5235 921.14 492.469
203 1 53.0748 10.57 561 100.804 920.988 516.763
204 0 57.0673 11.4251 652 99.385 920.423 515.138
205 0 58.1122 12.0801 702 99.2009 921.533 513.996
206 0 60.0409 12.1417 729 98.7517 921.128 514.628
207 0 61.0824 12.6059 770 97.0234 921.199 513.351
208 0 64.1215 12.4607 799 96.2578 920.617 511.971
209 0 66.131 12.6718 838 95.1444 921.007 510.505
210 0 68.1569 12.75 869 93.8021 920.498 509.586
211 0 70.102 12.4961 876 93.4749 920.527 508.688
212 0 73.1493 12.7547 933 94.3784 920.579 508.516
213 0 74.1014 13.2656 983 93.5921 920.637 506.9
214 0 77.095 12.7894 986 93.0649 920.664 506.479
215 0 77.14 12.3153 950 94.2232 919.913 504.066
216 0 81.0773 12.8149 1039 92.5746 920.732 504.276
217 0 84.0657 12.9779 1091 92.1549 920.19 503.173
218 0 84.1167 12.8393 1080 94.2454 920.492 502.986
219 0 84.047 12.148 1021 91.4946 921.148 503.112
220 0 87.0404 12.3621 1076 89.7928 920.504 502.27
221 0 92.0535 12.8838 1186 87.9983 919.798 499.976
222 0 94.1104 12.6766 1193 86.9371 919.963 498.588
223 0 97.0293 12.9136 1253 86.8915 920.251 497.203
224 0 100.069 12.5014 1251 89.996 920.874 493.654
225 0 104.069 12.2034 1270 90.437 920.243 493.548
226 0 110.119 12.8315 1413 87.4996 920.884 490.183
227 0 114.116 12.7677 1457 88.4207 920.135 488.454
228 0 119.184 14.163 1688 94.872 920.004 484.134
229 0 121.049 13.0773 1583 93.8225 920.234 483.449
230 1 65.1038 12.2113 795 97.1082 920.874 512.465
231 0 69.1349 12.8445 888 92.723 920.777 509.136
232 0 71.0779 13.0139 925 96.5849 919.799 509.154
233 0 74.0679 13.5416 1003 97.2074 919.895 508.144
234 0 79.0271 14.1217 1116 95.0735 919.452 506.059
235 0 81.0146 14.0468 1138 96.5879 919.453 505.537
236 0 84.0232 14.258 1198 96.8948 919.659 503.917
237 0 88.1445 14.0451 1238 95.9491 919.545 502.532
238 0 88.0505 14.1396 1245 97.3558 919.904 501.301
239 0 92.0486 13.9166 1281 91.5972 919.856 500.016
240 0 95.0717 13.7686 1309 93.3552 920.043 497.072
241 0 97.151 14.1944 1379 92.4213 919.869 497.2
242 0 102.192 13.6508 1395 97.8151 920.409 495.368
243 1 51.0223 12.1515 620 96.0064 920.931 517.837
244 0 53.0728 12.53 665 94.1068 920.26 515.71
245 0 55.0466 13.425 739 94.4777 919.514 516.13
246 0 56.0259 12.0301 674 89.6751 919.369 518.731
247 0 56.0926 12.3902 695 89.5698 919.078 519.987
248 0 57.0423 11.9911 684 91.462 919.496 517.811
249 0 59.0332 12.2135 721 90.4938 919.402 518.286
250 0 61.0531 13.0214 795 89.3711 920.122 516.303
251 0 63.052 12.5611 792 91.2689 920.889 514.497
252 0 66.0862 12.6199 834 91.2374 920.649 513.288
253 0 70.0738 13.2717 930 87.9409 920.38 510.906
254 0 72.1384 12.6701 914 92.4125 920.185 510.918
255 0 74.0901 13.0247 965 92.7171 920.312 509.336
256 0 75.0434 12.4061 931 94.565 920.259 507.933
257 0 77.1026 12.9697 1000 92.682 920.219 507.305
258 0 81.0337 13.6857 1109 91.6952 919.929 504.573
259 1 41.0642 11.3968 468 89.3312 919.731 526.43
260 0 40.0509 11.1858 448 91.7679 919.891 525.58
261 0 42.0208 12.2082 513 95.8207 919.314 525.004
262 0 41.0204 12.5303 514 138.547 919.323 524.819
263 0 43.0668 11.9814 516 96.9574 920.442 524.233
264 0 45.0932 13.1505 593 93.747 920.533 522.853
265 0 45.0784 12.5115 564 95.9982 921.631 521.959
266 0 49.0744 13.1433 645 93.355 920.829 520.969
267 0 50.1248 12.9277 648 93.517 920.698 520.16
268 0 51.0326 13.7167 700 91.5143 920.256 519.831
269 0 50.0734 12.6614 634 95.3391 920.58 519.107
270 0 53.044 12.9704 688 93.3052 920.561 518.164
271 0 55.0462 13.3706 736 93.3016 920.312 517.196
272 0 56.0584 12.701 712 93.9494 919.952 516.733
273 0 59.0331 12.637 746 93.3526 920.418 515.489
274 0 59.0321 13.0438 770 92.9377 920.299 515.191
275 0 60.0312 12.7267 764 92.8482 921.275 513.656
276 0 62.0754 12.1626 755 92.9987 920.699 512.951
277 0 64.0191 13.1211 840 91.8119 920.506 509.625
278 0 66.0354 12.7205 840 92.4976 920.81 509.815
279 0 69.0329 13.0807 903 91.8815 920.305 508.297
280 0 71.0494 12.7939 909 92.5534 921 508.138
281 0 72.087 12.1797 878 90.1287 920.308 504.188
282 0 76.0668 13.0017 989 88.8756 921.024 504.821
283 0 78.0544 13.0422 1018 89.7839 920.344 504.439
284 0 78.0544 13.0166 1016 115.53 920.344 504.516
285 0 81.0307 12.304 997 90.7111 920.621 502.011
286 0 84.0341 12.9233 1086 89.9604 920.701 498.97
287 0 87.087 12.654 1102 91.9673 920.818 498.497
288 1 41.0146 12.2883 504 92.3214 919.472 519.873
289 0 45.0298 13.7687 620 87.0419 919.956 519.011
290 0 46.0117 13.8443 637 88.741 919.484 518.939
291 0 48.0478 14.7561 709 85.4189 920.107 518.357
292 0 50.0719 14.1197 707 87.6577 919.197 517.983
293 0 51.0929 14.4051 736 85.928 919.558 516.978
294 0 52.0771 14.1905 739 87.5318 919.223 515.468
295 0 52.0457 14.5449 757 89.2999 919.263 515.942
296 0 55.0426 14.3888 792 90.7121 919.49 516.018
297 0 57.0754 14.2794 815 92.0736 919.261 514.428
298 0 58.066 14.9313 867 91.3564 919.631 514.573
299 0 60.1148 14.2893 859 96.9395 919.605 512.788
300 0 62.0694 14.4516 897 97.097 919.248 511.99
301 0 63.0765 14.4428 911 99.2854 919.045 510.618
302 0 65.1037 14.4846 943 99.3213 918.515 510.364
303 0 67.0376 14.4844 971 98.1308 918.92 509.426
304 0 70.0754 13.9564 978 100.005 919.791 508.571
305 0 72.0945 15.0497 1085 96.7641 919.198 505.908
306 0 73.1107 14.8268 1084 98.155 919.611 506.108
307 0 77.1104 14.3171 1104 98.9601 919.289 506.111
308 0 81.126 14.6932 1192 98.4631 919.091 504.472
309 0 82.0347 14.0063 1149 101.921 919.104 503.941
310 1 37.0577 13.6544 506 106.731 918.379 524.312
311 0 40.0333 13.7136 549 105.654 918.933 524.098
312 0 41.0343 13.9639 573 107.328 918.996 523.611
313 0 42.0633 14.6446 616 107.583 919.205 522.188
314 0 44.035 14.3976 634 109.491 918.746 521.948
315 0 47.0521 15.1109 711 106.8 919.267 520.982
316 0 48.0701 14.9781 720 108.746 918.965 520.526
317 0 48.0791 15.2457 733 109.603 919.126 520.267
318 0 51.0477 14.7509 753 111.094 919.154 519.843
319 0 54.124 15.5938 844 107.441 918.472 519.045
320 0 56.0539 15.0569 844 108.864 918.661 517.267
321 0 59.0847 14.7585 872 110.322 919.251 516.005
322 0 61.0702 15.0155 917 110.686 918.963 515.266
323 0 62.0534 15.3416 952 112.128 918.592 514.769
324 0 65.0687 15.0149 977 113.356 918.494 514.006
325 0 65.0636 14.847 966 115.76 919.063 513.358
326 0 67.0809 14.7434 989 118.033 918.308 512.275
327 0 70.1099 14.9622 1049 116.869 918.5 511.887
328 0 70.0765 14.5698 1021 120.412 918.097 509.667
329 0 72.0757 14.5264 1047 120.017 918.546 509.704
330 0 74.1135 14.7611 1094 119.558 917.494 509.217
331 0 75.087 14.623 1098 122.117 918.431 507.289
332 0 80.1352 14.8749 1192 118.937 918.366 505.18
333 0 83.0938 14.4535 1201 120.62 918.296 503.112
334 0 86.1009 13.9952 1205 121.741 917.684 502.034
335 0 90.1113 13.9716 1259 122.683 918.025 500.072
336 1 38.0639 12.2951 468 130.269 918.162 523.699
337 0 38.0655 12.9514 493 127.481 917.75 523.245
338 0 41.0593 14.3938 591 120.55 917.249 523.115
339 0 45.0635 14.8901 671 118.325 917.376 522.581
340 0 46.0373 15.053 693 118.02 916.76 522.54
341 0 46.0571 14.9814 690 122.336 916.42 520.535
342 0 49.0494 15.148 743 119.68 917.14 520.763
343 0 49.0434 15.211 746 121.294 916.879 519.517
344 0 51.0609 14.8254 757 124.622 916.353 518.081
345 0 53.0325 14.5005 769 124.281 915.968 518.748
346 0 55.0595 14.675 808 124.776 916.214 516.358
347 0 57.0883 14.9593 854 122.923 915.73 515.089
348 0 57.0471 14.8649 848 124.112 915.597 514.671
349 0 61.0652 14.853 907 123.714 915.166 514.598
350 0 63.0524 14.8606 937 122.869 916.047 513.851
351 0 65.1278 15.7229 1024 119.309 915.879 512.881
352 0 68.0854 15.128 1030 119.692 915.605 511.558
353 0 68.1494 15.2019 1036 122.836 916.194 511.114
354 0 68.1612 15.5074 1057 162.889 917.181 510.695
355 0 75.1507 15.103 1135 121.546 916.032 508.369
356 0 77.0672 15.3762 1185 121.926 915.52 506.712
357 0 80.1243 15.451 1238 121.48 916.414 505.75
358 0 84.1248 15.9049 1338 119.82 915.439 503.413
359 0 85.0951 15.1948 1293 124.142 916.116 502.737
360 0 85.1149 15.1325 1288 168.04 917.096 502.735
361 0 90.1402 15.1874 1369 126.889 916.191 499.489
362 0 95.0959 15.6053 1484 122.658 916.29 496.78
363 0 100.174 15.533 1556 122.264 915.706 494.151
364 1 43.0089 12.2068 525 128.57 916.497 521.011
365 0 45.0215 12.4829 562 126.568 916.496 520.797
366 0 45.0197 13.1276 591 129.932 916.531 519.983
367 0 47.0045 13.5519 637 128.961 915.821 519.348
368 0 48.0388 13.2185 635 130.474 915.567 516.696
369 0 52.0886 13.7266 715 126.414 916.122 517.036
370 0 50.0373 13.6898 685 132.305 916.101 513.928
371 0 55.0695 13.6918 754 131.143 916.526 513.402
372 0 54.0478 14.1912 767 132.173 916.326 512.351
373 0 57.0787 13.9281 795 133.244 916.996 512.623
374 0 60.1258 14.0372 844 130.925 916.335 511.327
375 0 60.0821 14.2139 854 130.485 916.821 509.149
376 0 62.1452 14.1282 878 131.132 916.551 509.334
377 0 66.1754 13.4642 891 131.415 916.438 507.743
378 0 65.1985 13.85 903 132.159 917.37 507.3
379 0 71.2833 13.9444 994 128.301 916.688 506.846
380 0 71.3112 13.981 997 130.053 917.271 505.625
381 0 77.2714 14.0932 1089 128.799 916.788 504.462
382 0 78.4366 13.8456 1086 130.861 917.339 504.789
383 0 81.3995 14.0787 1146 130.325 917.755 502.906
384 0 82.4891 14.1837 1170 132.416 917.611 502.438
385 0 83.409 14.279 1191 133.484 917.392 501.941
386 0 88.5012 14.4066 1275 133.468 917.611 500.764
387 0 88.3986 14.3441 1268 135.868 916.916 498.239
388 0 91.5813 14.0968 1291 136.538 917.816 497.569
389 0 93.4448 13.7835 1288 138.228 918.373 494.915
390 0 97.3767 14.829 1444 134.734 918.181 492.902
391 0 99.478 14.3248 1425 138.677 918.21 491.484
392 0 102.47 14.3944 1475 139.65 918.06 489.6
393 0 104.407 14.0795 1470 138.573 917.766 488.693
394 0 107.434 14.2506 1531 136.605 918.096 486.531
395 0 112.62 14.0827 1586 136.327 918.062 483.159
396 0 115.404 14.7742 1705 134.554 918.099 484.516
397 0 118.563 14.1022 1672 136.401 917.693 479.18
398 0 125.557 15.3715 1930 129.894 918.175 483.447
399 0 128.508 14.9018 1915 132.277 918.131 478.638
400 0 130.493 14.9893 1956 131.848 918.186 477.706
401 0 135.418 14.998 2031 132.352 918.489 473.463
