time division length width area intensity CMx CMy
0 0 63.1425 14.1268 892 143.154 103.733 509.284
1 0 66.0668 14.4248 953 138.421 102.906 508.804
2 0 67.0407 14.5583 976 137.327 103.027 508.155
3 0 69.0413 14.3103 988 134.692 102.73 507.872
4 0 72.1024 14.3962 1038 132.439 102.807 507.852
5 0 72.0502 15.0034 1081 128.587 102.836 506.273
6 0 75.0707 14.3998 1081 130.153 103.206 505.853
7 0 77.0542 14.4963 1117 126.355 103.064 504.707
8 0 80.0529 14.0782 1127 125.626 102.512 503.832
9 0 80.142 14.2123 1139 124.608 103.128 502.91
10 0 84.0801 13.9748 1175 122.206 102.776 502.184
11 0 86.1414 14.0234 1208 120.642 102.401 500.214
12 0 87.1572 14.3304 1249 117.452 103.13 497.183
13 0 89.1363 13.6308 1215 118.165 102.106 497.844
14 0 91.14 13.9017 1267 114.886 101.511 493.625
15 0 93.175 13.6088 1268 114.447 101.579 493.838
16 0 96.2121 13.491 1298 113.571 101.888 492.166
17 1 48.1651 11.6267 560 113.68 101.707 513.707
18 0 51.1059 11.4664 586 111.585 101.391 515.841
19 0 52.143 12.2739 640 108.384 101.47 512.953
20 0 54.1652 12.9234 700 107.914 101.143 511.399
21 0 53.1542 13.0375 693 106.587 101.297 509.911
22 0 57.1119 13.4823 770 105.866 101.406 514.438
23 0 57.1056 13.3612 763 106.634 101.794 513.202
24 0 61.1347 13.9364 852 104.603 101.396 513.624
25 0 63.0732 14.285 901 102.661 101.181 512.846
26 0 65.123 13.8661 903 103.85 101.001 511.246
27 0 66.1219 13.7171 907 104.449 100.981 510.305
28 0 66.2091 13.7594 911 104.937 100.953 512.199
29 0 71.1262 13.8486 985 102.611 100.704 510.724
30 0 73.2419 13.8582 1015 103.063 100.668 509.501
31 0 73.0614 13.8103 1009 104.007 100.868 507.218
32 0 77.1066 13.4489 1037 102.872 100.885 507.089
33 0 77.1648 13.3221 1028 104.532 100.486 503.732
34 0 80.1554 13.137 1053 104.097 100.257 502.88
35 0 83.211 13.3516 1111 102.668 100.248 502.63
36 0 84.3006 13.179 1111 102.866 100.825 500.456
37 0 88.1683 13.3268 1175 100.88 99.7574 497.677
38 0 93.2768 13.3688 1247 99.1828 99.664 493.59
39 0 95.106 13.2484 1260 98.4627 98.9817 492.243
40 1 53.1289 11.9332 634 93.1672 100.628 513.975
41 0 56.0557 12.6481 709 92.6643 100.381 514.64
42 0 60.0903 13.8957 835 98.4467 100.492 515.246
43 0 60.1199 13.3733 804 93.4216 99.8968 515.418
44 0 62.0754 13.1775 818 94.9792 99.9719 514.161
45 0 64.0442 13.3033 852 95.757 99.4754 513.151
46 0 66.018 13.0722 863 97.3557 99.8563 513.316
47 0 70.0932 13.5962 953 96.7754 100.297 511.896
48 0 72.0658 13.0853 943 99.4157 99.7041 510.279
49 0 73.1008 13.3925 979 97.9775 99.8876 508.946
50 0 76.0707 13.5663 1032 98.6289 99.7432 508.211
51 0 77.0537 13.4452 1036 99.6236 100.292 507.729
52 0 81.0594 13.3482 1082 99.9104 100.25 505.296
53 0 82.06 13.2098 1084 101.525 100.052 504.233
54 0 85.0462 14.0159 1192 99.1485 99.932 505.063
55 0 86.0165 13.0789 1125 101.723 99.8844 503.22
56 0 88.0392 13.812 1216 100.946 99.926 501.072
57 0 91.0486 13.2676 1208 101.95 100.016 499.173
58 0 95.1053 14.2158 1352 104.712 99.4963 498.09
59 0 97.0383 14.1697 1375 98.5644 100.369 496.735
60 0 100.047 13.7836 1379 99.8818 99.4728 495.276
61 0 104.055 14.3002 1488 98.7258 99.8474 492.7
62 0 108.087 14.6641 1585 98.7066 99.4845 491.22
63 0 112.085 14.4177 1616 100.419 100.207 490.127
64 0 117.067 14.6326 1713 105.431 99.3911 486.528
65 0 120.101 14.5044 1742 107.635 99.6435 485.54
66 0 124.14 14.2259 1766 107.587 98.863 482.222
67 0 128.102 13.6922 1754 107.544 98.3974 481.734
68 1 68.0758 11.6635 794 101.523 98.728 514.678
69 0 68.0613 12.0774 822 102.085 98.4769 512.759
70 0 72.0484 13.0329 939 101.438 98.1576 510.957
71 0 73.0925 13.1614 962 108.549 99.2651 509.167
72 0 75.1005 12.9027 969 112.733 98.999 508.621
73 0 79.1883 13.2848 1052 110.714 99.4544 505.981
74 0 82.1376 13.4774 1107 109.519 99.0696 506.241
75 0 85.2123 13.2375 1128 99.6392 98.6339 504.404
76 0 88.1186 13.618 1200 106.279 99.0417 504.557
77 0 87.1442 13.2424 1154 106.871 98.4003 502.7
78 0 92.1602 13.4114 1236 105.028 98.9418 501.227
79 0 94.1878 13.4519 1267 104.512 98.2541 499.255
80 0 96.1159 12.7971 1230 106.589 98.5748 498.371
81 0 100.144 12.9613 1298 104.255 99.0994 496.963
82 0 102.198 13.0629 1335 102.909 99.4846 495.346
83 0 104.075 12.9042 1343 102.914 98.7305 494.208
84 0 109.262 13.1702 1439 98.4851 99.7116 490.846
85 1 59.2526 11.4257 677 94.5022 100.456 514.334
86 0 62.1821 12.1739 757 93.07 101.05 514.168
87 0 63.1159 12.1839 769 93.2575 99.6476 514.731
88 0 63.0969 12.1242 765 93.7464 100.328 513.639
89 0 68.0252 12.6424 860 89.0651 100.097 512.893
90 0 69.0576 12.743 880 89.1307 100.758 511.884
91 0 72.0481 12.6443 911 89.045 100.423 510.1
92 0 74.0213 12.5099 926 89.622 99.5994 507.244
93 0 77.0372 12.8639 991 89.3098 99.6176 505.479
94 0 78.0827 12.5892 983 90.6521 99.3622 505.437
95 0 80.0501 13.1293 1051 91.1142 99.7821 503.442
96 0 83.0381 12.9218 1073 90.4623 99.1678 503.568
97 0 84.0304 12.674 1065 91.1718 98.7146 503.811
98 0 87.0474 12.9699 1129 90.3614 99.2117 503.784
99 0 89.085 13.1784 1174 89.2802 99.3748 502.961
100 0 89.0711 12.316 1097 92.6654 99.5788 502.529
101 0 94.0348 12.6655 1191 91.8741 99.7154 499.086
102 0 96.0429 12.4007 1191 93 99.0579 499.002
103 0 99.0737 12.7683 1265 91.8743 98.6372 497.028
104 0 102.071 13.471 1375 90.7636 98.9447 495.686
105 0 106.127 13.2671 1408 90.0163 99.647 493.565
106 0 109.118 13.1785 1438 90.6683 99.6871 491.567
107 0 112.136 13.6441 1530 91.6307 99.4876 489.586
108 0 117.174 13.4074 1571 100.041 99.6435 486.021
109 0 122.205 13.9192 1701 97.2951 99.5356 483.877
110 1 66.106 11.0883 733 98.3424 101.576 513.067
111 0 68.022 12.0696 821 93.4653 100.648 510.59
112 0 68.1073 11.8636 808 89.9517 100.978 510.052
113 0 72.0391 12.2017 879 85.5677 99.9226 509.181
114 0 73.0799 12.3153 900 86.5622 98.9433 508.262
115 0 75.0671 11.7895 885 86.6158 99.3232 508.435
116 0 78.0493 12.1974 952 86.813 98.8487 508.873
117 0 77.0377 11.7215 903 89.2614 99.6545 507.815
118 0 81.1074 12.1937 989 88.8898 99.27 506.42
119 0 83.0918 11.2647 936 90.6378 99.813 504.026
120 0 85.1489 11.8851 1012 91.1976 99.7915 503.595
121 0 88.037 11.8927 1047 90.9341 99.9026 502.929
122 0 90.0947 12.1983 1099 90.364 99.3612 501.627
123 0 93.0465 12.4024 1154 90.2452 99.188 500.228
124 0 94.0795 12.5001 1176 90.2662 99.2415 499.785
125 0 99.0766 12.4853 1237 87.8197 99.5982 495.796
126 0 102.043 12.5143 1277 87.3814 99.1237 494.961
127 0 104.057 12.0895 1258 88.4165 98.6025 493.302
128 0 107.078 12.1968 1306 89.843 98.9487 491.924
129 0 111.139 12.2819 1365 89.0689 100.204 489.615
130 1 63.0706 10.6072 669 84.6532 100.904 515.75
131 0 67.0644 11.5262 773 83.7115 100.145 513.731
132 0 69.073 12.798 884 87.655 99.4898 511.33
133 0 70.0609 12.589 882 80.8084 99.3503 512.969
134 0 69.1138 11.0398 763 84.4246 98.2451 511.448
135 0 69.041 11.008 760 82.846 97.8908 510.913
136 0 72.052 10.5757 762 82.8084 97.7703 510.416
137 0 73.046 11.6228 849 81.2945 98.477 507.958
138 0 76.0832 11.2771 858 81.3601 98.7482 508.646
139 0 78.0944 11.1532 871 82.442 98.2801 506.644
140 0 81.1117 11.0465 896 82.6562 98.4464 504.224
141 0 86.0532 11.0745 953 80.5467 98.6474 504.289
142 0 87.0876 11.0119 959 81.2888 97.8029 503.572
143 0 89.0494 10.5447 939 81.6582 98.3248 501.399
144 0 92.0414 10.354 953 81.511 98.0462 499.785
145 0 96.0487 11.0465 1061 80.0697 98.9123 498.442
146 0 98.1494 10.4738 1028 80.5165 98.6926 495.197
147 0 100.147 10.6543 1067 79.6514 99.0647 493.583
148 0 106.096 11.2917 1198 77.5518 99.2229 493.492
149 0 108.098 11.0641 1196 79.4122 98.0752 489.095
150 1 57.0155 10.5761 603 76.9917 98.0647 516.983
151 0 60.0769 10.6197 638 76.8025 98.9154 514.998
152 0 63.0852 11.0961 700 76.2614 98.55 513.753
153 0 64.2338 12.003 771 80.1971 98.1829 510.22
154 0 67.0308 11.532 773 75.533 98.1734 511.348
155 0 68.0329 11.6708 794 76.4647 98.1134 510.884
156 0 70.0576 11.8759 832 76.5276 98.1695 509.502
157 0 73.0322 12.2138 892 74.8868 99.1637 508.748
158 0 76.0695 12.0679 918 75.9444 98.0436 508.014
159 0 76.0691 11.4238 869 80.3222 98.4787 507.632
160 0 80.1738 12.2609 983 79.7274 97.469 507.837
161 0 83.0309 12.7061 1055 77.9896 99.0597 506.869
162 0 84.1125 12.2812 1033 80.4453 98.4995 505.942
163 0 85.0727 12.2954 1046 83.0488 98.2706 503.777
164 0 90.0493 12.3266 1110 81.964 98.3541 503.022
165 0 93.0841 12.3115 1146 82.411 98.8246 501.468
166 0 96.0698 12.4701 1198 84.8815 98.7312 499.658
167 0 97.0728 12.4752 1211 86.4781 99.3542 498.82
168 0 100.042 12.7746 1278 86.043 98.6964 497.082
169 0 105.108 13.3197 1400 85.8471 98.9671 494.946
170 0 108.092 13.063 1412 87.8924 97.5567 492.944
171 0 111.106 13.0416 1449 88.9572 98.3313 491.088
172 0 115.102 13.1883 1518 90.303 98.865 489.717
173 1 61.0429 11.0742 676 86.9541 99.824 515.463
174 0 63.198 10.57 668 88.3353 99.8638 513.964
175 0 64.1676 10.8933 699 87.8512 100.093 514.269
176 0 68.1967 11.5841 790 86.7165 99.0608 512.546
177 0 68.071 10.5625 719 85.0932 98.4395 507.484
178 0 70.0856 10.4016 729 86.3704 98.6145 504.975
179 0 74.0297 10.1716 753 89.2789 98.2125 504.471
180 0 74.0495 10.1824 754 89.1459 98.5557 504.776
181 0 79.0566 10.5874 837 87.7168 98.5221 504.372
182 0 81.0684 11.5335 935 86.0342 98.3048 502.141
183 0 84.0697 10.7173 901 86.3585 99.101 500.715
184 0 85.038 11.1127 945 85.71 98.29 500.511
185 0 87.0776 10.8754 947 87.9546 98.6906 498.468
186 0 90.1038 11.2648 1015 87.0887 98.2335 499.086
187 0 93.0815 11.5383 1074 86.1881 97.6974 499.028
188 0 94.076 11.4376 1076 88.171 97.723 496.856
189 0 96.1346 11.4735 1103 88.8123 97.9619 494.424
190 0 101.19 12.017 1216 87.6053 98.2377 492.79
191 0 103.11 11.7739 1214 88.7372 97.9876 492.218
192 0 108.117 12.3478 1335 86.5895 98.2652 493.69
193 0 110.143 11.6666 1285 88.449 97.6086 492.972
194 0 113.239 11.7893 1335 88.0659 98.0629 488.933
195 1 62.1058 11.094 689 81.3774 97.7475 518.078
196 0 64.084 12.1559 779 78.9936 98.2195 515.864
197 0 66.0605 11.9285 788 78.3287 96.7995 515.043
198 0 67.069 11.6149 779 89.7124 96.1065 514.065
199 0 69.0799 11.9427 825 88.5176 96.3261 512.673
200 0 71.0486 12.1325 862 88.7378 96.7239 510.969
201 0 72.0621 11.7121 844 89.8495 96.8045 511.512
202 0 77.1364 12.1214 935 112.787 98.0781 509.956
203 0 77.1375 12.2508 945 112.631 98.0995 507.892
204 0 81.1464 12.3357 1001 111.041 97.7562 508.471
205 0 82.1633 12.6577 1040 111.654 98.2942 506.47
206 0 83.1726 11.927 992 113.037 97.7692 505.635
207 0 87.1463 11.8422 1032 113.398 97.8837 504.017
208 0 88.1112 12.0189 1059 111.246 97.339 504.612
209 0 93.1407 12.7334 1186 107.131 97.6779 503.111
210 0 94.0845 11.7979 1110 108.286 97.0504 500.537
211 0 97.0895 12.061 1171 106.437 97.1067 500.163
212 0 99.1029 12.0885 1198 108.051 97.0417 497.998
213 1 54.0457 11.0832 599 101.494 97.7696 523.087
214 0 55.0835 10.8018 595 99.9765 97.7832 522.961
215 0 55.0514 10.245 564 102.186 96.9184 521.917
216 0 57.04 10.9572 625 101.803 96.7136 520.739
217 0 61.072 11.7239 716 99.3506 96.3087 519.644
218 0 62.0582 12.3271 765 101.641 96.8431 518.697
219 0 65.1006 12.7341 829 97.0229 97.7708 517.759
220 0 67.1115 12.9486 869 96.4338 97.4396 516.408
221 0 68.1404 12.4596 849 97.4075 96.715 514.842
222 0 71.1706 12.0415 857 96.4749 96.8716 514.051
223 0 72.1348 12.241 883 112.871 96.9932 512.236
224 0 76.193 13.2952 1013 109.207 97.7601 510.924
225 0 78.1714 12.5238 979 111.622 97.141 508.901
226 0 80.1528 12.052 966 109.208 97.325 508.74
227 0 81.0857 11.9873 972 108.591 97.9763 507.612
228 0 84.0781 12.3457 1038 107.764 97.8314 504.59
229 0 88.1304 12.3907 1092 107.083 97.1355 505.466
230 0 89.1247 11.5793 1032 106.911 97.4264 503.575
231 0 92.0905 12.0751 1112 104.087 97.2644 501.644
232 0 93.1936 12.0502 1123 105.429 96.4408 499.837
233 0 96.2285 11.639 1120 106.169 97.317 497.506
234 0 101.32 12.12 1228 104.037 97.101 495.466
235 0 104.296 11.9084 1242 103.851 97.0354 494.771
236 0 107.314 11.9369 1281 104.327 96.9532 493.037
237 1 56.1905 10.767 605 96.2793 97.6876 518.679
238 0 57.1266 11.0456 631 95.5483 97.8415 518.393
239 0 60.1584 12.2344 736 95.6196 97.3587 516.918
240 0 63.1751 12.0459 761 97.8594 97.6097 514.866
241 0 64.1171 12.3368 791 93.8963 96.507 515.752
242 0 66.0671 13.0474 862 93.3016 96.9942 514.487
243 0 67.0896 12.4162 833 96.4934 97.06 512.687
244 0 71.0562 12.9334 919 95.8205 96.8694 513.38
245 0 74.044 13.1003 970 97.1289 96.1856 512.972
246 0 75.0451 12.6457 949 105.628 96.5163 511.474
247 0 77.0719 12.8711 992 103.552 95.9294 509.099
248 0 80.0447 12.8678 1030 105.992 96.4447 508.765
249 0 82.0342 12.8849 1057 104.833 96.4778 508.052
250 0 83.1212 12.7525 1060 106.238 97.0689 506.292
251 0 87.1024 12.4107 1081 107.273 97.8844 505.26
252 0 89.1229 12.5333 1117 105.58 98.291 504.862
253 0 92.1843 12.974 1196 104.054 98.3972 501.204
254 0 91.1578 12.5058 1140 106.589 97.8105 500.417
255 0 95.184 12.4391 1184 106.62 97.8142 499.932
256 0 96.117 12.4536 1197 106.659 97.7686 497.884
257 0 100.123 11.8255 1184 107.157 97.5 497.747
258 0 102.05 11.7883 1203 106.853 97.0574 498.111
259 0 106.093 11.5936 1230 106.85 96.9854 495.52
260 1 57.0715 9.82978 561 101.273 96.2032 519.672
261 0 58.0554 10.335 600 102.495 95.8583 517.23
262 0 58.0438 10.337 600 105.472 96.5433 515.768
263 0 61.037 11.108 678 105.543 96.0487 516.652
264 0 64.054 12.2865 787 103.942 96.1169 514.731
265 0 66.043 12.6584 836 104.178 98.1639 514.274
266 0 69.0556 12.5841 869 105.53 96.4039 513.501
267 0 66.0506 11.4458 756 101.029 96.1971 514.504
268 0 69.0978 11.6646 806 99.3623 96.4007 513.093
269 0 71.0962 11.6884 831 99.5114 96.4657 512.83
270 0 74.1191 11.4141 846 100.888 96.5118 511.768
271 0 76.1217 11.9151 907 102.509 96.2867 510.119
272 0 77.1664 11.391 879 105.042 95.9147 510.196
273 0 80.105 12.2714 983 101.768 96.3276 508.439
274 0 83.1539 11.9537 994 102.327 96.3561 507.954
275 0 86.1868 12.0204 1036 101.558 97.3446 507.404
276 0 86.1083 11.2765 971 104.493 96.9629 507.366
277 0 88.139 11.9017 1049 103.5 96.695 505.631
278 0 92.1406 11.7972 1087 102.881 97.1389 503.877
279 0 96.0953 11.6967 1124 103.114 96.5961 501.076
280 0 97.162 11.5889 1126 103.237 97.5453 501.877
281 0 99.097 11.8873 1178 97.9329 97.011 500.489
282 0 102.144 12.0026 1226 99.9576 97.5294 497.884
283 0 107.153 12.6641 1357 97.8091 96.9978 496.696
284 0 110.175 12.7796 1408 98.6804 96.7791 492.979
285 0 113.215 12.8958 1460 98.839 97.2479 492.382
286 0 118.181 13.0562 1543 98.0324 97.4504 488.528
287 0 123.176 13.3224 1641 98.2986 97.5009 486.823
288 0 126.166 13.0384 1645 99.3921 96.4231 485.318
289 0 132.191 13.7453 1817 103.113 96.689 481.349
290 0 136.157 13.5432 1844 102.625 96.3487 480.373
291 0 139.205 13.2323 1842 99.4902 96.8746 476.771
292 0 144.199 13.3427 1924 99.6835 95.8831 475.275
293 0 147.212 12.6417 1861 101.57 96.324 473.315
294 0 154.227 13.7719 2124 98.6266 96.0005 470.708
295 0 157.224 12.8479 2020 101.847 95.9337 467.874
296 0 163.197 13.3826 2184 101.651 96.1969 466.337
297 0 168.183 13.1642 2214 101.776 96.0099 463.813
298 0 171.19 13.447 2302 102.141 96.3493 460.131
299 0 177.18 13.2916 2355 105.526 96.341 459.301
300 0 184.245 13.2975 2450 104.656 95.9922 456.082
301 0 187.229 13.1924 2470 106.751 95.764 450.738
302 1 48.0896 10.0022 481 100.948 96.973 523.029
303 0 50.0729 10.0054 501 101.818 97.4591 521.667
304 0 48.0167 10.5797 508 100.344 98.0591 518.047
305 0 48.024 10.6197 510 98.6765 97.4078 516.063
306 0 49.0292 10.973 538 101.699 98.0706 517.704
307 0 54.2353 11.9111 646 99.9644 97.322 520.387
308 0 51.0294 10.0922 515 94.035 96.5456 522.262
309 0 53.0553 10.4419 554 92.926 96.6534 522.791
310 0 56.0475 10.4376 585 92.3128 96.0701 521.858
311 0 56.0671 10.6658 598 92.4097 96.8144 522.5
312 0 57.0325 10.5028 599 92.8614 96.8681 522.108
313 0 61.0685 10.8239 661 92.3646 96.8775 519.581
314 0 61.1026 10.3924 635 95.0173 96.5512 519.465
315 0 64.1161 10.8865 698 96.0544 95.3195 518.701
316 0 65.1453 10.7145 698 96.6146 94.9842 518.693
317 0 68.0776 10.6056 722 97.7382 95.1759 517.902
318 0 71.072 11.2421 799 97.005 95.1427 518.539
319 0 74.1589 11.5698 858 97.9615 94.5536 517.161
320 0 74.1252 11.5076 853 97.4338 94.7878 515.505
321 0 75.2343 11.2183 844 98.5036 95.3448 515.71
322 0 78.1694 11.5518 903 99.1805 95.1384 512.107
323 0 80.1739 11.0759 888 101.307 94.7534 512.922
324 0 84.1542 11.3245 953 100.79 94.6558 510.498
325 0 87.0553 10.8322 943 95.2216 95.913 508.142
326 0 89.0577 11.3073 1007 96.5799 95.4608 507.496
327 0 92.0956 11.4012 1050 98.4229 94.7924 506.878
328 0 94.0815 11.7876 1109 98.4094 94.4779 506.876
329 0 96.0957 11.1035 1067 103.329 94.8913 504.244
330 0 97.2396 10.7055 1041 97.3045 94.781 499.213
331 1 58.0289 10.9428 635 103.178 96.1638 525.068
332 0 58.0374 10.3382 600 98.565 95.7983 520.92
333 0 61.0612 11.3984 696 105.447 96.0675 521.052
334 0 61.1268 11.3862 696 93.3865 94.2184 521.066
335 0 61.0477 11.2699 688 94.2849 94.5581 520.711
336 0 64.2175 11.4766 737 91.5346 96.4098 519.072
337 0 66.1627 11.3659 752 90.2593 95.984 517.116
338 0 68.2391 12.0019 819 90.2735 95.4286 517.178
339 0 69.1532 11.1781 773 90.0634 95.2717 514.952
340 0 71.1218 11.3186 805 90.3155 95.0335 514.901
341 0 74.1288 11.8847 881 88.3644 94.7673 515.667
342 0 77.1578 12.7401 983 84.8464 95.4395 514.811
343 0 80.1577 13.3612 1071 82.1793 94.7348 515.217
344 0 79.0843 9.91347 784 94.1582 94.2806 507.911
345 0 80.0547 10.293 824 92.3604 93.8568 506.363
346 0 82.0694 10.6252 872 92.7076 94 502.972
347 0 83.1587 10.4258 867 91.301 93.5294 503.046
348 0 89.0872 11.3148 1008 87.6062 93.3502 503.993
349 0 91.0924 10.7364 978 87.5358 92.8937 502.743
350 0 94.0598 11.1525 1049 87.0105 93.7874 502.67
351 0 95.1123 9.47301 901 90.6226 93.5061 499.976
352 0 98.0701 10.6353 1043 89.6836 93.0623 497.739
353 0 101.122 11.4812 1161 93.0577 93.8286 500.124
354 0 105.048 11.5091 1209 91.0372 92.6328 497.519
355 0 108.152 10.3188 1116 90.9955 93.5421 497.571
356 0 110.166 10.3117 1136 91.9181 92.8838 495.236
357 0 115.181 10.2968 1186 91.2538 93.8322 493.782
358 0 117.297 10.418 1222 92.1849 92.8339 490.359
359 0 118.291 11.328 1340 92.1582 93.5276 490.016
360 0 118.291 11.3618 1344 129.513 93.5402 490.092
361 0 127.403 11.0359 1406 93.7084 93.5683 487.191
362 0 129.286 10.5347 1362 94.0147 93.6968 484.085
363 0 132.281 10.4399 1381 93.8994 92.9906 482.835
364 0 137.273 11.5172 1581 93.4105 94.043 480.794
365 0 140.215 11.1472 1563 94.4606 94.0659 479.562
366 0 143.263 10.8891 1560 97.1397 94.0487 478.31
367 0 147.217 11.9279 1756 97.5273 93.1982 473.418
368 0 155.438 11.8826 1847 96.6156 93.039 472.598
369 0 159.387 12.2344 1950 96.7544 93.4774 471.338
370 0 163.529 12.2241 1999 99.7879 93.3552 465.62
371 0 169.387 12.746 2159 100.423 93.6531 462.954
372 1 81.2472 11.2127 911 101.088 94.3491 507.989
373 0 85.2639 11.2122 956 102.824 94.7333 506.765
374 0 90.282 11.4419 1033 100.386 93.9961 504.692
375 0 91.1691 11.9777 1092 102.807 94.468 502.472
376 0 91.2101 11.9395 1089 100.079 93.9697 500.265
377 0 93.1497 11.8304 1102 93.0626 94.6334 504.183
378 0 95.2108 10.8811 1036 92.139 95.3205 503.155
379 0 99.1861 11.2919 1120 91.2036 94.5393 501.954
380 0 101.164 10.7449 1087 94.0322 95.0092 500.304
381 0 104.124 10.6795 1112 95.688 94.3615 498.511
382 0 110.136 11.5222 1269 94.2837 94.8424 496.638
383 0 114.16 11.2298 1282 96.0562 95.3495 494.315
384 0 117.155 11.7281 1374 96.9061 95.1725 491.357
385 0 121.183 12.0231 1457 96.5573 94.9314 489.352
386 0 125.286 11.789 1477 98.956 95.0535 488.435
387 0 129.087 11.3024 1459 98.6278 93.852 486.842
388 0 134.149 11.204 1503 91.8929 94.8576 484.062
389 0 137.129 10.1511 1392 94.1099 94.8865 480.854
390 0 138.074 11.5011 1588 96.8772 95.1039 479.528
391 0 144.208 11.7262 1691 96.3862 94.8788 474.659
392 1 70.0428 10.0082 701 92.3138 94.5078 512.337
393 0 72.0825 10.155 732 89.4945 95.0287 510.903
394 0 76.069 10.3459 787 88.5337 95.4333 510.226
395 0 79.1042 10.6695 844 87.9953 95.1351 508.697
396 0 78.0254 10.2018 796 90.152 95.4585 507.607
397 0 83.0603 10.6429 884 88.8835 95.1765 505.6
398 0 84.0572 10.1716 855 90.4222 95.6924 504.822
399 0 86.0573 10.6789 919 90.8585 94.9369 503.535
400 0 89.0413 10.2761 915 91.3016 95.2087 501.973
