time division length width area intensity CMx CMy
1078 0 43.0768 11.7232 505 82.7822 1067.71 531.81
1079 0 46.0867 10.567 487 83.6304 1067.83 530.253
1080 0 47.0813 10.896 513 83.1501 1068.01 528.686
1081 0 46.1752 10.2436 473 86.0296 1067.46 527.801
1082 0 49.0778 10.0657 494 86.7733 1068.34 526.876
1083 0 47.0332 10.9922 517 87.8665 1067.66 527.164
1084 0 51.0885 10.4525 534 88.6367 1067.96 525.418
1085 0 56.0907 12.1589 682 82.7801 1067.57 526.191
1086 0 57.0633 12.0918 690 82.4058 1067.57 526.149
1087 0 57.0417 11.8335 675 84.5926 1067.11 526.55
1088 0 58.0562 12.2812 713 85.0575 1066.97 526.585
1089 0 61.0915 12.3258 753 92.429 1066.54 525.011
1090 0 62.1099 12.2847 763 93.135 1067.41 525.497
1091 0 62.109 11.9789 744 96.0995 1066.97 523.075
1092 0 66.2622 12.1638 806 94.7146 1066.84 522.542
1093 0 68.1284 12.4911 851 93.7497 1066.14 521.776
1094 0 68.1684 11.6476 794 93.6385 1066.37 521.135
1095 0 71.1927 12.5575 894 91.5872 1066.33 520.883
1096 0 73.1166 11.9672 875 90.4171 1065.89 518.768
1097 0 74.1514 12.7847 948 88.4452 1065.79 517.065
1098 0 78.1023 12.0483 941 89.5717 1066.14 515.468
1099 0 79.2575 12.2386 970 88.2062 1067.93 519.8
1100 0 79.2568 12.1504 963 126.852 1069.94 519.802
1101 0 85.1226 12.4291 1058 86.2335 1067.22 515.957
1102 0 86.1492 11.8864 1024 86.9648 1067.09 514.23
1103 0 89.155 11.9006 1061 86.8219 1066.96 512.477
1104 0 92.2141 12.1782 1123 87.6011 1066.88 511.585
1105 0 93.1395 12.1109 1128 88.6285 1066.42 508.231
1106 0 96.3049 11.0898 1068 96.8586 1066.03 509.758
1107 0 100.261 11.6895 1172 96.099 1065.69 506.805
1108 0 101.277 11.513 1166 96.6595 1065.95 506.194
1109 0 103.173 11.0591 1141 95.9334 1065.67 502.661
1110 0 105.195 10.9321 1150 92.2278 1065.87 503.186
1111 0 105.195 10.837 1140 139.149 1065.89 503.139
1112 0 109.086 12.1739 1328 89.067 1065.33 501.544
1113 0 113.159 12.6283 1429 87.8174 1065.71 500.456
1114 0 115.084 11.9478 1375 88.0662 1065.95 499.525
1115 0 118.103 11.8964 1405 88.7103 1064.69 496.336
1116 0 122.173 11.7784 1439 88.4753 1065.56 495.255
1117 0 124.281 12.3188 1531 86.9477 1066.03 493.253
1118 0 129.118 11.8031 1524 89.4049 1065.82 491.526
1119 0 135.151 11.7942 1594 89.5684 1065.96 489.998
1120 0 139.142 11.3266 1576 88.6942 1065.7 488.307
1121 0 142.183 11.5415 1641 88.5655 1064.87 483.331
1122 0 146.209 11.723 1714 87.5403 1065.66 482.739
1123 1 79.0797 9.77495 773 84.0375 1066.1 518.415
1124 0 80.0763 10.4151 834 86.0348 1065.72 516.542
1125 0 84.0327 11.4241 960 83.1531 1066.05 513.81
1126 0 88.1997 11.3946 1005 84.0159 1066.19 513.077
1127 0 88.202 11.5417 1018 85.72 1065.31 509.572
1128 0 91.2013 12.2915 1121 90.5825 1065.02 506.435
1129 0 95.1087 12.1966 1160 89.1483 1065.38 507.813
1130 0 98.1388 11.3003 1109 96.4031 1064.98 505.935
1131 0 101.18 11.3165 1145 95.1109 1065.98 504.399
1132 0 105.23 12.2968 1294 93.5711 1066.46 499.998
1133 0 107.153 11.6936 1253 93.7119 1066.2 500.036
1134 0 110.214 10.7246 1182 95.2327 1066.19 495.573
1135 0 115.208 10.9194 1258 96.0151 1065.79 494.676
1136 1 55.103 10.0902 556 93.4335 1066.49 528.016
1137 0 56.1084 10.6579 598 97.8846 1066.21 524.468
1138 0 58.0366 10.7863 626 91.9089 1066.17 521.358
1139 0 61.0674 12.0359 735 94.8422 1067.11 521.078
1140 0 62.0225 11.1572 692 92.1893 1066.51 521.874
1141 0 65.0255 11.9953 780 91.3513 1066.33 522.933
1142 0 69.0575 11.5266 796 92.9937 1066.61 522.335
1143 0 72.0349 12.9798 935 92.3326 1066.63 520.178
1144 0 74.0441 12.4655 923 94.0834 1066.95 519.436
1145 0 75.089 12.7582 958 94.3967 1066.22 519.127
1146 0 78.0314 12.1746 950 96.2853 1066.36 518.999
1147 0 81.2124 12.8305 1042 95.3656 1064.48 517.259
1148 0 82.2534 12.729 1047 93.1165 1064.23 513.223
1149 0 85.1463 12.8485 1094 96.0704 1064.94 513.537
1150 0 88.1988 12.812 1130 84.6743 1065.17 511.36
1151 0 91.1942 12.9065 1177 86.8233 1064.69 509.777
1152 0 93.2239 12.6792 1182 83.6557 1064.25 507.966
1153 0 95.2979 12.781 1218 86.2135 1063.84 504.988
1154 0 98.1726 12.9873 1275 88.2141 1064.73 505.889
1155 0 102.214 13.3348 1363 86.573 1064.57 502.579
1156 0 104.208 12.523 1305 89.2467 1064.4 502.239
1157 0 108.181 12.0076 1299 90.3002 1064.38 499.983
1158 0 113.256 12.1936 1381 89.7393 1063.72 495.109
1159 0 113.244 12.292 1392 137.205 1063.72 494.945
1160 1 64.1605 12.0012 770 84.0013 1063.44 516.721
1161 0 67.1598 12.5819 845 83.8462 1063.32 512.924
1162 0 67.2441 13.2502 891 87.9843 1063.89 511.847
1163 0 70.1091 12.3094 863 87.7868 1064.73 519.74
1164 0 72.0714 12.5986 908 88.6156 1064.96 518.836
1165 0 73.0974 12.4355 909 89.2981 1064.12 519.116
1166 0 78.1275 12.518 978 87.5337 1064.34 518.828
1167 0 79.1619 13.2134 1046 85.0985 1064.47 517.819
1168 0 81.1173 12.6483 1026 86.8051 1064.38 516.023
1169 0 84.1381 12.4914 1051 87.491 1064.87 513.606
1170 0 87.1895 13.2355 1154 85.8544 1064.84 512.782
1171 0 89.2726 13.2627 1184 84.9468 1064.61 511.27
1172 0 91.2038 12.7736 1165 85.3227 1064.7 511.139
1173 0 93.2966 12.6586 1181 85.0483 1064.69 510.036
1174 0 98.1382 12.462 1223 87.2159 1064.44 506.711
1175 0 101.234 12.6933 1285 88.7136 1063.86 504.286
1176 0 106.426 12.901 1373 89.8798 1064.28 502.139
1177 1 56.0773 11.6446 653 88.1149 1064.83 526.384
1178 0 56.1477 12.1465 682 86.9633 1064.94 525.204
1179 0 60.0775 12.3674 743 85.8668 1064.49 522.964
1180 0 63.1893 12.9136 816 89.1495 1063.17 521.892
1181 0 64.1044 13.0568 837 86.6308 1062.43 523.519
1182 0 63.1767 11.6815 738 91.9444 1063.11 524.817
1183 0 68.1724 11.7936 804 92.0112 1062.89 523.586
1184 0 69.1121 11.4452 791 93.0417 1062.73 521.446
1185 0 71.0784 12.4792 887 90.9594 1063.12 521.154
1186 0 71.0728 11.6782 830 93.9518 1063.06 518.266
1187 0 73.1232 11.6242 850 94.4835 1063.45 517.555
1188 0 77.1161 12.0597 930 89.743 1063.18 517.48
1189 0 79.0836 11.962 946 91.0465 1064.11 515.4
1190 0 82.0779 11.5135 945 88.1058 1063.34 514.428
1191 0 84.056 11.0165 926 86.0961 1063.33 510.003
1192 0 87.0615 11.624 1012 86.4269 1064.01 509.331
1193 0 90.0776 11.7565 1059 86.1067 1063.69 507.59
1194 0 93.0781 11.6784 1087 87.655 1064.29 504.9
1195 0 97.1411 11.8796 1154 86.8033 1064.03 504.283
1196 0 98.1573 11.4103 1120 89.3366 1065.36 502.38
1197 0 100.159 10.693 1071 92.4715 1065.46 503.686
1198 0 103.138 10.0157 1033 94.6563 1065.79 504.121
1199 1 54.1016 10.4803 567 91.8624 1065.34 526.183
1200 0 56.0521 10.9719 615 93.9089 1065.22 523.725
1201 0 55.0548 9.93556 547 93.4388 1065.54 521.439
1202 0 58.1504 11.1607 649 96.5639 1064.59 522.328
1203 0 61.2814 11.5859 710 96.3648 1065.1 522.33
1204 0 60.212 11.4263 688 97.4666 1064.73 520.584
1205 0 65.2222 12.0358 785 94.2688 1064.93 521.048
1206 0 66.2809 11.8737 787 94.6671 1064.67 520.544
1207 0 67.2473 12.06 811 94.6979 1065.32 519.328
1208 0 70.1888 11.6115 815 94.5681 1064.71 517.694
1209 0 72.2419 12.3336 891 91.6554 1064.92 516.963
1210 0 74.1812 11.6876 867 93.6909 1064.72 515.64
1211 0 75.1878 12.236 920 92.8565 1063.82 515.104
1212 0 77.1406 11.7577 907 95.8578 1063.57 511.453
1213 0 80.1453 11.6289 932 94.7618 1063.97 512.592
1214 0 84.1719 12.0587 1015 94.2916 1064.75 510.112
1215 0 83.0876 10.9403 909 88.8592 1064.83 512.165
1216 0 86.1206 10.555 909 88.8911 1064.64 510.807
1217 1 46.0169 10.344 476 88.7752 1065.22 530.708
1218 0 46.0244 10.6683 491 87.725 1065.06 530.886
1219 0 48.0344 11.4918 552 84.1069 1064.96 529.893
1220 0 50.0138 11.6968 585 84.8974 1064.81 526.911
1221 0 48.0379 11.6991 562 85.9609 1063.98 527.391
1222 0 53.0449 11.5374 612 84.1095 1065.11 527.114
1223 0 54.0784 11.2244 607 84.5124 1065.05 527.977
1224 0 55.0376 11.3741 626 83.5431 1064.9 525.436
1225 0 54.0641 12.2447 662 83.2296 1065.14 525.977
1226 0 59.0322 11.9257 704 82.902 1064.79 524.635
1227 0 60.072 11.969 719 82.2615 1065.62 523.775
1228 0 59.0989 12.4537 736 81.7459 1065.14 522.952
1229 0 64.1277 12.9429 830 78.0916 1065.16 522.817
1230 0 65.0551 12.5739 818 79.0782 1064.63 520.24
1231 0 68.0986 13.084 891 78.6712 1065.24 518.763
1232 0 71.1495 12.9867 924 78.7846 1064.36 517.524
1233 0 69.1307 12.6138 872 80.4977 1064.5 517.107
1234 0 71.073 11.7907 838 82.3401 1064.08 515.535
1235 0 76.0967 12.2739 934 80.5846 1064.58 513.952
1236 0 77.1398 12.6653 977 80.5507 1064.99 511.93
1237 0 82.0866 12.8523 1055 79.2246 1064.93 512.397
1238 0 84.1007 12.9725 1091 80.0559 1065.21 511.52
1239 0 86.1138 12.2628 1056 83.4508 1064.76 509.777
1240 0 87.0671 12.3927 1079 83.8193 1064.77 509.026
1241 1 42.0963 10.9273 460 88.6217 1065.71 532.05
1242 0 43.0283 11.2949 486 88.963 1064.96 530.93
1243 0 45.0666 11.4941 518 89.3166 1064.97 529.29
1244 0 48.0574 11.6736 561 90.5775 1065.37 527.278
1245 0 51.0796 12.4316 635 87.8252 1065.62 526.274
1246 0 50.1271 12.0893 606 91.0082 1065.76 525.614
1247 0 54.1159 12.1037 655 89.6153 1064.77 524.04
1248 0 53.0942 11.715 622 92.9373 1065.46 522.72
1249 0 56.1216 11.8493 665 91.7158 1064.01 523.37
1250 0 57.0563 12.1284 692 91.4769 1064.7 521.666
1251 0 58.0563 12.1951 708 92.5438 1064.66 520.969
1252 0 60.0976 12.1968 733 90.8827 1065.44 521.759
1253 0 62.131 12.4415 773 93.8279 1065.61 519.71
1254 0 66.1844 12.3594 818 92.8374 1065.08 519.729
1255 0 67.0274 12.4427 834 94.7086 1066.25 518.604
1256 0 68.0327 12.7439 867 94.5525 1066.97 517.085
1257 0 70.0363 12.4507 872 92.8624 1067.48 517.439
1258 0 73.0553 12.7301 930 92.4978 1066.76 515.763
1259 0 75.0692 12.655 950 93.2684 1066.05 515.131
1260 0 77.1045 12.8267 989 93.9666 1066.23 513.18
1261 1 40.0715 11.2549 451 99.0843 1065.67 531.217
1262 0 41.0566 10.9118 448 100.02 1065.38 531.016
1263 0 44.086 10.9105 481 99.526 1065.05 530.497
1264 0 45.1284 11.567 522 98.2356 1065.31 530.117
1265 0 46.1128 12.6212 582 97.4691 1064.62 527.44
1266 0 48.1347 13.0467 628 97.844 1065.05 526.895
1267 0 49.0444 12.7843 627 100.445 1065.75 526.944
1268 0 51.0531 12.9669 662 97.4275 1065.32 526.743
1269 0 52.0703 12.8672 670 100.469 1065.07 525.236
1270 0 54.0507 13.4318 726 98.2617 1064.61 526.499
1271 0 56.1458 13.2868 746 97.4008 1065.05 524.693
1272 0 56.0461 13.2926 745 97.5409 1064.74 523.593
1273 0 57.0534 13.2507 756 98.5807 1064.57 522.974
1274 0 60.03 13.0768 785 99.3172 1064.27 520.694
1275 0 62.0324 13.364 829 98.7105 1064.54 521.366
1276 0 64.0522 13.9105 891 97.257 1064.46 520.622
1277 0 65.0357 13.8232 899 97.5072 1064.46 518.917
1278 0 69.0837 13.708 947 94.7022 1064.66 517.854
1279 0 72.0444 13.6999 987 95.0172 1064.16 516.025
1280 0 73.0527 13.853 1012 95.9654 1065.23 516.393
1281 0 73.0392 13.2805 970 104.529 1064.69 514.279
1282 0 77.1299 14.0542 1084 102.351 1064.91 511.876
1283 0 80.0902 13.8594 1110 104.734 1065.08 511.328
1284 0 82.137 13.6845 1124 104.417 1065.09 509.434
1285 0 85.0876 13.7858 1173 103.865 1065.57 507.818
1286 0 89.1609 13.8626 1236 104.604 1065.38 508.369
1287 0 91.1229 14.1238 1287 104.624 1065.42 505.732
1288 0 94.1113 13.3884 1260 108.198 1065.48 504.514
1289 1 49.0362 11.1346 546 113.211 1066.69 526.604
1290 0 51.0351 11.835 604 113.144 1066.91 526.252
1291 0 48.0789 11.1067 534 107.44 1065.96 520.646
1292 0 55.0926 12.7422 702 100.664 1066.3 526.373
1293 0 57.1384 13.1435 751 101.523 1066.23 524.959
1294 0 58.0728 12.7254 739 103.149 1066.24 522.93
1295 0 60.0682 12.9686 779 101.398 1065.91 521.752
1296 0 61.0698 12.543 766 98.8877 1066.21 520.756
1297 0 66.0386 12.8864 851 101.083 1064.33 520.665
1298 0 65.0635 13.141 855 101.395 1064.13 518.117
1299 0 68.0197 13.202 898 100.527 1064.44 517.597
1300 0 71.111 13.1063 932 102.259 1064.98 515.981
1301 0 75.0431 13.6721 1026 99.6628 1064.86 516.05
1302 0 75.0513 12.4315 933 103.512 1065.13 513.486
1303 0 80.0476 12.9673 1038 102.29 1065.23 510.422
1304 0 81.1109 12.7357 1033 103.397 1064.56 509.483
1305 0 86.0825 13.2083 1137 102.434 1064.98 508.5
1306 1 42.0374 10.7523 452 106.405 1064.49 530.754
1307 0 40.0118 10.4969 420 104.255 1064.8 530.862
1308 0 44.0401 11.5349 508 99.6358 1065.18 531.079
1309 0 45.0451 11.6106 523 97.0535 1065.49 530.927
1310 0 46.0587 12.0064 553 97.443 1065.97 529.11
1311 0 46.0174 11.9085 548 96.3011 1065.12 530.414
1312 0 46.15 10.7909 498 103.056 1065.17 531.414
1313 0 46.0371 11.5342 531 101.19 1065.19 529.431
1314 0 48.0691 11.7539 565 99.8354 1066.32 529.066
1315 0 49.0675 11.2294 551 97.6461 1066.45 528.476
1316 0 52.0914 11.1151 579 103.007 1066.81 528.427
1317 0 50.0428 10.8307 542 105.858 1066.56 526.915
1318 0 54.0535 11.3036 611 102.802 1066.47 525.99
1319 0 55.0762 11.9471 658 99.5106 1064.65 526.768
1320 0 55.0604 11.5328 635 101.739 1064.76 526.466
1321 0 59.0646 11.0726 654 101.356 1064.94 525.728
1322 0 60.0504 11.2073 673 101.655 1064.7 524.86
1323 0 62.0478 11.2494 698 100.938 1064.42 523.668
1324 0 63.1615 11.6527 736 99.5761 1064.34 521.963
1325 0 64.1682 11.1426 715 100.895 1065.38 520.821
1326 0 66.0501 10.4466 690 101.165 1066.39 520.887
1327 0 69.0362 10.7914 745 99.8698 1064.7 519.321
1328 0 70.0605 10.5052 736 101.215 1066.85 518.418
1329 0 72.1167 10.5385 760 101.376 1065.48 517.249
1330 0 75.1154 10.0512 755 103.375 1064.6 516.797
1331 1 41.0221 10.409 427 103.405 1065.39 532.817
1332 0 42.027 10.3267 434 102.138 1064.57 532.35
1333 0 41.0216 10.336 424 103.427 1065.35 530.085
1334 0 43.0457 10.8257 466 101.371 1065.64 530.56
1335 0 44.0138 11.1556 491 99.7841 1066.2 529.584
1336 0 46.0376 11.2734 519 98.185 1064.95 528.755
1337 0 47.0357 11.3956 536 98.2593 1065.75 527.565
1338 0 48.0271 11.202 538 95.2937 1065.72 527.814
1339 0 48.0125 10.8722 522 97.6954 1065.48 528.165
1340 0 51.0439 11.2844 576 95.8646 1065.25 527.661
1341 0 52.045 11.3748 592 93.3024 1065.4 525.28
1342 0 54.0624 10.6913 578 95.1021 1063.91 526.299
1343 0 56.0517 11.0255 618 95.2767 1063.82 524.307
1344 0 58.0209 10.9616 636 94.9984 1063.84 524.25
1345 0 59.1208 10.6731 631 95.6862 1064 524.162
1346 0 57.1059 10.9271 624 94.1651 1064.08 522.907
1347 0 61.1558 10.7267 656 92.6524 1063.39 520.863
1348 0 62.1292 10.5908 658 92.2857 1063.76 519.316
1349 0 63.1297 10.8665 686 92.5087 1063.15 519.566
1350 0 64.0877 9.53381 611 95.1817 1062.9 518.581
1351 0 63.1229 7.88937 498 99.6124 1063.42 520.285
1352 0 63.1413 8.77398 554 98.4657 1063.05 519.276
1353 0 71.2289 10.2767 732 129.328 1063 448.19
1354 1 39.0371 6.6091 258 104.403 1062.64 531.454
1355 0 39.092 7.08584 277 103.282 1063.04 533.249
1356 0 37.0457 6.18156 229 105.105 1063.09 531.218
1357 0 39.0368 7.94122 310 101.258 1064.06 531.858
1358 0 40.1721 6.42236 258 103.132 1063.67 530.578
1359 0 44.1429 7.54368 333 100.246 1063.78 527.793
1360 1 81.3594 11.271 917 133.518 1062.89 424.878
1361 0 81.3594 11.271 917 129.678 1061.89 424.706
1362 0 88.175 9.90076 873 105.202 1063.69 504.691
1363 0 89.2681 8.34565 745 108.447 1063.72 504.336
1364 0 92.1852 8.62394 795 108.044 1063.93 502.595
1365 0 94.1727 7.94286 748 106.663 1063.7 502.309
1366 0 97.1531 8.4197 818 106.499 1064.22 499.282
1367 0 100.146 8.89701 891 103.971 1063.69 499.47
1368 0 99.1684 7.38138 732 108.031 1063.77 493.27
1369 0 105.209 8.67793 913 107.102 1063.26 493.68
1370 0 105.3 8.11018 854 108.67 1063.46 489.176
1371 0 105.309 8.09044 852 104.027 1063.45 489.257
1372 1 59.203 8.88468 526 94.5171 1064.17 519.264
1373 0 60.2535 8.94554 539 95.1429 1064.34 520.622
1374 0 61.2661 9.02619 553 93.9005 1063.95 518.978
1375 0 65.1329 10.302 671 90.0656 1063.26 517.377
1376 0 66.1864 9.82075 650 92.7738 1063.32 514.346
1377 0 69.1174 10.4315 721 86.3176 1063.59 517.064
1378 0 70.1686 10.603 744 88.6331 1063.04 517.484
1379 0 70.2071 9.85655 692 89.8902 1063.75 518.116
1380 0 70.0195 10.4971 735 94.1537 1064.7 518.77
1381 0 71.1243 10.1653 723 97.6418 1063.65 519.492
1382 0 72.121 10.2883 742 97.9299 1063.75 518.628
1383 0 74.0773 10.2056 756 97.6746 1063.45 517.073
1384 0 75.1292 10.1026 759 95.7246 1063.33 516.763
1385 0 77.0617 10.1607 783 94.2746 1062.78 514.78
1386 0 80.1872 10.3009 826 92.3947 1063.2 512.927
1387 0 82.1334 10.6656 876 91.3174 1063.37 511.879
1388 0 84.1081 9.78503 823 92.4933 1063.05 510.124
1389 0 85.0566 9.89929 842 91.9252 1063.4 508.533
1390 0 87.1828 10.3231 900 90.1556 1063.29 507.284
1391 0 88.1013 10.0339 884 90.2172 1062.95 507.345
1392 0 90.0768 10.4688 943 88.3955 1063.62 506.234
1393 0 91.058 9.19194 837 91.1625 1064.26 502.951
1394 0 94.1033 9.74461 917 90.6314 1063.59 502.629
1395 0 96.1456 10.2241 983 90.237 1063.49 501.469
1396 0 101.143 10.6977 1082 90.8974 1063.5 498.578
1397 0 103.155 9.96558 1028 93.2617 1062.66 497.146
1398 0 106.195 10.5467 1120 93.2116 1062.77 495.738
1399 0 107.135 10.3327 1107 96.3026 1062.53 491.011
1400 0 111.183 10.712 1191 95.9908 1063.33 491.621
1401 0 111.186 10.7118 1191 101.275 1064.33 491.621
1402 0 118.177 10.4335 1233 99.0162 1063.17 488.957
1403 0 121.157 11.2994 1369 98.8459 1063.4 487.395
1404 0 125.136 10.9641 1372 100.741 1063.64 485.555
1405 0 126.164 10.8034 1363 102.115 1063.62 480.373
1406 0 131.186 11.2283 1473 102.413 1062.89 479.974
1407 0 134.213 11.1837 1501 103.855 1063.19 478.262
1408 0 137.168 10.9865 1507 106.185 1063.24 477.994
1409 0 143.153 11.4353 1637 104.739 1063.45 478.587
1410 0 144.171 11.0702 1596 107.979 1062.95 473.299
1411 0 150.23 11.955 1796 105.004 1062.78 473.835
1412 0 155.159 11.3561 1762 107.779 1062.51 471.527
1413 0 160.194 11.8419 1897 107.371 1063.3 468.926
1414 0 163.239 11.6026 1894 107.861 1063.45 467.739
1415 0 170.177 12.3754 2106 105.33 1063.6 465.945
1416 0 177.235 13.1069 2323 103.527 1063.69 464.994
1417 0 181.19 12.6331 2289 104.98 1064 464.138
1418 0 188.206 12.8955 2427 104.101 1064.4 457.481
1419 0 192.229 13.1197 2522 103.989 1062.75 454.594
1420 0 199.334 13.3144 2654 103.237 1063.4 451.735
1421 0 204.23 13.3771 2732 102.547 1062.98 450.84
1422 1 52.019 10.6884 556 105.736 1064.75 526.102
1423 0 51.0068 11.6847 596 99.5738 1064.69 523.215
1424 0 56.0383 11.4208 640 103.43 1064.62 527.433
1425 0 51.0739 11.1799 571 101.492 1065.5 526.807
1426 0 54.0674 10.2835 556 102.601 1063.97 527.155
1427 0 55.0113 11.0704 609 101.44 1064.43 526.534
1428 0 57.072 10.8284 618 102.466 1064.87 525.463
1429 0 59.0513 11.4985 679 100.944 1064.69 523.557
1430 0 62.0744 10.9224 678 100.519 1064.88 523.593
1431 0 64.107 11.122 713 98.4741 1064.83 522.337
1432 0 64.0735 11.4244 732 96.7746 1065.34 520.981
1433 0 66.1323 11.0536 731 95.855 1065.07 520.869
1434 0 68.124 10.7892 735 95.3143 1065.78 519.974
1435 0 72.1172 10.58 763 96.9161 1065.71 518.995
1436 0 75.1289 11.447 860 91.9279 1065.25 516.102
1437 0 78.1321 11.2374 878 91.3519 1065.94 513.109
1438 1 43.0249 10.2266 440 90.0364 1064.63 531.623
1439 0 44.021 10.495 462 88.0758 1063.74 531.593
1440 0 47.1267 11.3524 535 84.9551 1063.72 530.49
1441 0 45.0211 11.1726 503 85.2068 1062.88 529.509
1442 0 46.0882 10.8271 499 80.1222 1062.87 528.689
1443 0 46.1063 11.2566 519 110.565 1062.86 528.356
1444 0 50.034 11.4922 575 76.44 1064.18 526.009
1445 0 51.034 9.87577 504 79.0972 1064.89 522.073
1446 0 53.0742 11.4933 610 76.5688 1065.4 523.292
1447 0 56.0366 11.8672 665 74.3955 1065.04 523.069
1448 0 55.0495 11.5169 634 76.0678 1065.68 521.579
1449 0 57.0914 11.4203 652 76.9555 1064.56 520.771
1450 0 59.0734 11.6465 688 76.6163 1064.75 520.468
1451 0 60.0497 11.1907 672 78.5238 1065.11 518.522
1452 0 61.0961 11.7192 716 79.155 1064.44 518.124
1453 0 63.1002 11.2044 707 80.5615 1065.15 516.885
1454 0 65.096 11.6136 756 81.1151 1065.13 516.692
1455 0 66.0491 12.1122 800 80.895 1065.2 516.686
1456 0 68.0955 12.2769 836 80.0981 1064.42 514.328
1457 0 68.0888 11.999 817 81.6181 1064.72 513.576
1458 0 69.0783 11.943 825 82.3297 1065.34 514.048
1459 0 73.0992 12.271 897 81.6845 1064.95 512.703
1460 0 75.1278 12.0328 904 82.0996 1064.59 511.868
1461 1 37.0134 10.0774 373 87.0724 1066.14 530.324
1462 0 40.0162 10.1959 408 87.3039 1065.65 529.194
1463 0 41.012 10.8749 446 86.2175 1065.71 528.787
1464 0 43.0735 10.8884 469 85.4307 1065.19 528.827
1465 0 38.0214 9.91547 377 72.1751 1064.42 525.045
1466 0 39.0539 9.09001 355 73.1887 1064.03 524.341
1467 0 42.0422 9.46668 398 71.7387 1063.6 525.085
1468 0 42.0117 9.0213 379 71.8786 1063.45 522.185
1469 0 42.022 9.44743 397 72.0202 1063.96 523.217
1470 0 45.0136 10.2414 461 74.1085 1063.86 523.62
