time division length width area intensity CMx CMy
0 0 47.0095 13.6355 641 93.2543 1330.92 497.209
1 0 47.0347 13.9472 656 92.5869 1330.14 497.046
2 0 48.09 13.8282 665 91.3564 1329.97 496.863
3 0 49.0193 14.6269 717 88.3138 1329.87 497.43
4 0 50.0282 14.5318 727 88.1554 1329.74 497.303
5 0 50.0109 14.1369 707 90.4045 1330.17 496.44
6 0 53.0286 14.1999 753 89.1859 1331.39 494.923
7 0 53.0286 14.2753 757 156.775 1332.38 494.852
8 0 54.0702 13.8339 748 89.6858 1331.12 493.73
9 0 55.0621 14.4019 793 88.111 1330.5 494.509
10 0 56.0238 14.244 798 88.7469 1330.56 493.698
11 0 60.0393 14.6071 877 85.9772 1329.6 491.746
12 0 59.0234 14.13 834 88.2782 1330.13 492.499
13 0 62.0771 14.4498 897 87.388 1329.6 491.152
14 0 64.0618 14.8138 949 86.6333 1329.68 490.844
15 0 64.0618 14.7826 947 153.886 1329.7 490.835
16 0 68.0305 14.8757 1012 84.9219 1329.54 489.858
17 0 70.0741 14.9984 1051 83.4377 1329.61 488.611
18 0 71.0644 14.4095 1024 85.4824 1329.31 489.02
19 0 72.0464 14.4351 1040 86.4981 1329.57 487.63
20 0 77.0633 14.8579 1145 85.6524 1329.03 487.16
21 0 81.0574 14.6563 1188 87.0934 1328.89 485.758
22 1 142.114 14.4321 2051 85.1307 1328.09 457.173
23 0 145.163 13.1852 1914 88.6562 1328.27 453.514
24 0 148.435 14.2285 2112 86.2794 1328.95 453.903
25 0 152.409 14.2249 2168 86.7509 1328.77 450.44
26 0 156.369 14.3634 2246 86.6607 1329.22 450.463
27 0 161.433 14.0864 2274 87.8602 1329.21 448.723
28 0 165.395 13.7973 2282 89.7174 1328.66 443.711
29 0 169.204 13.8472 2343 89.7145 1329.34 442.582
30 0 169.204 13.8768 2348 160.845 1330.35 442.503
31 0 181.488 13.7971 2504 91.5328 1328.97 435.863
32 0 187.342 14.4709 2711 90.087 1327.81 433.48
33 0 193.23 14.6768 2836 89.4006 1327.93 431.072
34 0 197.352 15.1202 2984 89.3468 1327.86 429.055
35 0 204.394 14.3155 2926 94.1302 1327.96 425.059
36 0 209.436 14.5295 3043 94.4545 1328.48 421.745
37 0 216.319 14.6451 3168 93.4224 1328.18 420.565
38 0 216.319 14.6081 3160 151.64 1327.18 420.594
39 1 275.189 9.75691 2685 103.564 1328.04 417.844
40 0 275.174 9.96822 2743 103.968 1328.08 415.849
41 0 273.167 9.70104 2650 105.184 1328.07 416.29
42 0 274.189 9.23449 2532 107.094 1328.15 420.924
43 0 276.423 21.3369 5898 78.0353 1327.6 378.622
44 0 282.636 22.5307 6368 75.8248 1327.98 371.137
45 0 285.487 21.4196 6115 78.4468 1327.85 366.996
46 0 289.496 20.743 6005 81.3097 1328.37 372.437
47 1 81.0822 13.0855 1061 93.6296 1327.26 482.604
48 0 86.0492 13.7712 1185 91.8928 1327.76 479.804
49 0 89.0884 13.4473 1198 92.914 1327.32 478.108
50 0 92.0587 13.4588 1239 92.3438 1328.05 476.642
51 0 93.1709 13.3947 1248 93.343 1327.96 476.586
52 0 97.1129 13.8602 1346 91.7348 1327.37 474.422
53 0 102.042 13.4651 1374 92.2089 1326.49 471.344
54 0 106.061 13.8033 1464 91.8347 1327.27 469.224
55 0 110.08 13.9354 1534 91.633 1327.38 467.038
56 0 111.079 13.6569 1517 92.8069 1328.4 463.796
57 0 117.049 14.0197 1641 92.8074 1327.52 462.078
58 0 121.062 13.9846 1693 94.2912 1327.54 460.601
59 0 124.084 14.1114 1751 94.9886 1326.9 458.919
60 0 129.103 14.2909 1845 94.4997 1328.28 455.601
61 0 133.065 14.5568 1937 94.5622 1328.3 455.042
62 0 139.099 15.1116 2102 93.696 1327.45 451.334
63 0 145.142 15.6123 2266 92.4201 1327 450.778
64 0 149.194 15.014 2240 94.8304 1327.07 446.672
65 0 153.231 14.5271 2226 96.9434 1327.51 443.776
66 0 159.174 14.3742 2288 97.9969 1327.33 443.133
67 1 89.0939 12.268 1093 94.021 1326.83 478.151
68 0 92.1319 12.4712 1149 93.9104 1327.31 477.182
69 0 94.0856 12.6374 1189 94.8251 1327.87 474.313
70 0 100.108 13.4455 1346 92.4681 1327.26 474.214
71 0 103.065 13.9136 1434 91.0425 1328.16 473.28
72 0 108.059 13.4648 1455 91.0247 1327.69 471.293
73 0 110.073 13.9452 1535 90.3088 1327.94 468.352
74 0 112.074 13.723 1538 91.4896 1327.79 466.753
75 0 116.09 13.3689 1552 91.6997 1328.08 465.425
76 0 121.103 13.6082 1648 91.8428 1327.27 462.753
77 0 125.104 13.8365 1731 90.7337 1327.34 459.802
78 0 128.056 13.2285 1694 91.4345 1327.52 457.699
79 0 132.079 13.6055 1797 90.2782 1327.8 456.456
80 0 136.171 13.2994 1811 90.5925 1328.02 454.195
81 0 142.064 13.8881 1973 88.2671 1327.95 451.922
82 0 147.084 13.2034 1942 89.1045 1327.75 448.782
83 0 152.138 13.5601 2063 89.8842 1328.17 443.704
84 0 156.102 13.3567 2085 90.3012 1328.31 442.523
85 0 162.195 13.5331 2195 90.7367 1327.93 438.246
86 0 166.125 13.1347 2182 91.7227 1328.47 436.678
87 0 172.177 13.097 2255 89.5202 1327.83 432.09
88 0 172.177 13.1493 2264 144.435 1327.83 432.087
89 0 180.175 13.387 2412 86.3943 1328.25 422.644
90 0 186.238 12.9189 2406 88.1164 1328.15 416.483
91 0 194.316 13.4317 2610 87.3138 1328.36 415.188
92 0 199.279 13.4134 2673 88.5305 1328.26 410.993
93 0 204.271 12.4002 2533 91.424 1328.22 407.381
94 0 214.271 13.609 2916 89.2733 1327.99 404.144
95 0 219.242 13.1818 2890 91.1308 1328.18 397.116
96 1 255.362 19.1767 4897 74.3894 1327.47 384.127
97 1 48.0847 9.75362 469 74.4947 1328.32 495.667
98 0 51.044 11.0689 565 77.1876 1328.22 496.455
99 0 51.1463 11.0076 563 67.8206 1327.29 498.993
100 0 50.0935 9.78171 490 70.9469 1327.09 499.084
101 0 54.0686 10.2832 556 70.7212 1327.27 498.104
102 0 55.1863 10.2924 568 71.8099 1327.17 498.424
103 0 56.116 9.76548 548 72.7865 1327.79 496.038
104 0 58.1428 9.23587 537 72.9311 1328 495.196
105 0 58.0548 9.37045 544 72.6673 1328.13 494.84
106 0 63.1539 10.039 634 71.8092 1327.52 492.789
107 0 64.1708 9.8643 633 71.3349 1327.84 492.523
108 0 68.1197 10.3641 706 71.3229 1327.5 490.147
109 0 69.1445 10.5721 731 70.3994 1327.72 489.302
110 0 72.1928 10.3196 745 71.1758 1327.35 487.458
111 0 74.2403 11.2069 832 70.4087 1327.46 486.643
112 0 76.1413 10.8614 827 72.994 1327.59 487.339
113 0 79.413 11.2702 895 72.4346 1327.95 484.328
114 0 82.2775 11.4612 943 72.4719 1327.54 484.098
115 0 85.1009 11.0575 941 71.0499 1327.6 482.349
116 1 44.1012 10.1584 448 68.7545 1328.4 501.719
117 0 45.1383 10.4568 472 66.4449 1327.91 502.288
118 0 47.1556 11.0697 522 65.7663 1328.24 500.86
119 0 49.1536 10.9453 538 65.0836 1327.7 499.591
120 0 50.0154 10.3568 518 66.8668 1327.78 499.444
121 0 50.0775 10.5836 530 66.8472 1327.68 498.547
122 0 52.0391 11.9333 621 64.2448 1327.99 497.929
123 0 56.1644 12.3566 694 63.317 1328.05 498.313
124 0 57.0915 11.2451 642 65.9548 1328.43 496.657
125 0 59.1288 12.1261 717 65.4338 1328.48 494.908
126 0 61.0685 11.921 728 76.8874 1328.55 493.157
127 0 61.142 11.7268 717 77.4923 1327.9 493.865
128 0 65.0696 11.4954 748 77.9545 1327.88 492.31
129 0 66.0951 12.6484 836 76.2368 1328.1 491.233
130 0 69.1252 12.7595 882 75.0737 1328.02 491.514
131 0 68.1479 11.6218 792 78.2942 1328.07 489.872
132 0 71.2091 12.0069 855 77.0363 1328.07 487.639
133 0 73.2412 12.4793 914 75.3567 1327.68 486.836
134 0 74.1433 11.9364 885 75.8237 1327.78 487.342
135 0 77.1441 12.7554 984 73.9858 1328.33 485.705
136 0 80.1095 11.9337 956 74.363 1328.53 484.185
137 1 42.1999 10.6635 450 69.5667 1328.06 503.073
138 0 41.0546 10.8149 444 70.2996 1328.73 501.446
139 0 42.0334 11.3719 478 68.8431 1327.63 501.546
140 0 45.0634 11.5615 521 65.1497 1328 501.768
141 0 46.057 11.8332 545 66.2881 1327.57 500.881
142 0 46.0466 11.8141 544 66.9357 1327.68 501.958
143 0 50.0164 11.3963 570 66.3018 1327.88 500.274
144 0 50.0268 11.6338 582 66.0808 1327.77 498.9
145 0 52.0065 12.3831 644 66.7593 1328.65 497.696
146 0 53.0968 12.6185 670 68.1716 1328.53 496.787
147 0 57.0807 13.0167 743 75.0942 1327.75 496.202
148 0 58.123 12.4391 723 76.686 1327.74 496.383
149 0 60.04 12.1919 732 77.7199 1327.63 494.66
150 0 58.0508 12.5235 727 83.9491 1327.25 494.272
151 0 63.1402 12.9553 818 76.5342 1327.04 494.63
152 0 63.0442 13.0543 823 77.2053 1328.02 491.917
153 0 65.0805 13.0915 852 77.831 1327.45 491.739
154 0 67.0508 13.6613 916 76.4858 1328.01 490.643
155 0 70.0816 13.4985 946 77.7442 1327.48 489.936
156 0 71.0267 13.0655 928 79.6562 1327.52 489.496
157 0 72.1154 13.2565 956 80.2971 1327.09 488.578
158 0 74.047 13.3969 992 81.629 1327.4 485.949
159 0 77.132 13.1593 1015 82.0236 1327.34 483.531
160 0 79.2287 13.4421 1065 82.5371 1327.43 481.937
161 0 81.1442 13.285 1078 82.9471 1327.22 481.367
162 0 84.2324 13.5221 1139 82.935 1327.09 480.323
163 0 88.2287 13.431 1185 84.0456 1327.05 478.035
164 0 89.0857 13.8743 1236 85.0971 1327 476.842
165 1 46.0567 11.5293 531 82.6045 1326.87 498.507
166 0 48.0417 11.8647 570 81.6246 1326.76 497.296
167 0 50.0927 12.377 620 80.3581 1326.92 496.729
168 0 48.1164 12.3035 592 80.7483 1326.9 494.53
169 0 48.0406 12.1772 585 74.7829 1327.38 492.708
170 0 48.0508 11.1965 538 79.2937 1327.35 490.978
171 0 51.0417 12.1861 622 77.1961 1327.41 491.119
172 0 53.0285 11.9747 635 79.0457 1327.44 497.334
173 0 55.0119 12.4519 685 78.5328 1327.56 495.564
174 0 57.0307 11.7481 670 80.7522 1327.09 494.949
175 0 60.048 11.8738 713 79.5189 1327.36 494.562
176 0 60.0356 12.2927 738 81.0678 1326.53 493.358
177 0 63.0617 12.7811 806 78.4392 1326.23 492.323
178 0 64.0215 12.5895 806 78.7742 1326.56 491.865
179 0 67.0299 12.9793 870 77.0299 1327.24 488.943
180 0 70.0352 13.1362 920 76.6087 1326.73 488.582
181 0 72.0496 13.0743 942 76.9469 1326.74 487.585
182 0 73.09 12.6146 922 77.9642 1326.61 486.731
183 0 76.135 13.1083 998 77.7876 1326.85 486.801
184 0 80.1092 13.3318 1068 78.2678 1326.62 484.551
185 0 82.0577 13.1249 1077 80.2572 1326.9 482.735
186 0 84.1153 12.8276 1079 80.7581 1327.04 481.317
187 0 86.0696 13.4891 1161 80.5159 1327.24 480.971
188 0 90.0461 13.3265 1200 83.605 1327.41 475.797
189 0 93.0972 13.3624 1244 81.2902 1327.02 477.088
190 0 96.0708 13.6358 1310 81.9198 1327.09 475.756
191 1 50.0108 12.2574 613 79.3654 1327.19 498.078
192 0 51.0976 11.7422 600 78.4067 1325.25 496.927
193 0 53.1391 12.8719 684 77.9328 1325.67 495.548
194 0 53.0448 12.2349 649 76.9353 1327.12 497.302
195 0 54.0614 12.0974 654 77.9755 1326.37 496.972
196 0 57.0148 12.26 699 76.6724 1326.44 496.694
197 0 57.0832 12.2453 699 76.9571 1325.7 495.492
198 0 61.096 12.1121 740 77.1838 1326.05 494.235
199 0 64.0325 12.3843 793 75.5788 1325.55 493.193
200 0 65.1139 11.8408 771 76.1025 1325.89 492.706
201 0 68.0628 12.0036 817 76.1004 1325.38 490.13
202 0 68.0422 11.9779 815 98.2172 1325.62 488.865
203 0 73.052 12.2652 896 95.8337 1325.98 489.074
204 0 75.0531 12.0981 908 95.4747 1325.67 487.626
205 0 77.0461 12.486 962 95.7297 1325.97 487.224
206 0 80.1091 11.7215 939 97.6901 1325.52 485.628
207 0 84.1167 12.9344 1088 96.1489 1325.29 484.307
208 0 86.0618 12.3284 1061 96.4524 1325.79 483.741
209 0 89.1182 12.388 1104 97.8714 1326.54 480.86
210 1 50.0819 10.7224 537 97.9386 1325.64 500.741
211 0 49.0577 11.2928 554 97.9621 1326.5 499.505
212 0 51.1281 12.1851 623 94.6116 1326.18 499.687
213 0 54.0922 12.719 688 98.3227 1325.89 496.278
214 0 54.0474 12.7851 691 97.8538 1325.91 497.531
215 0 52.0551 11.6223 605 95.4926 1325.62 499.557
216 0 55.0551 11.6429 641 95.9938 1325.8 498.997
217 0 57.0896 12.0512 688 95.0029 1325.7 496.856
218 0 59.1156 12.1288 717 93.9024 1325.42 497.307
219 0 61.0531 12.1861 744 94.9691 1325.06 495.485
220 0 61.0868 12.2285 747 95.2289 1325.07 494.6
221 0 64.0461 12.5066 801 94.5044 1325.11 493.578
222 0 66.0627 11.9735 791 95.7611 1325.53 492.585
223 0 69.0339 12.5591 867 95.2364 1325.81 490.4
224 0 71.068 12.284 873 95.8706 1325.74 490.117
225 0 74.0711 12.6365 936 94.859 1325.48 488.44
226 0 77.0435 12.4735 961 94.2154 1325.53 485.635
227 0 79.0796 12.342 976 93.8781 1325.82 485.887
228 0 82.1281 12.6631 1040 93.7375 1325.48 484.42
229 0 85.0568 12.6739 1078 92.8163 1325 483.728
230 0 89.045 13.2517 1180 90.6 1325.75 481.496
231 0 89.0657 12.6536 1127 91.9388 1325.44 479.455
232 1 49.0812 11.2467 552 92.2754 1325.85 498.585
233 0 50.1186 11.9716 600 90.0517 1325.98 497.52
234 0 51.0565 13.1619 672 91.1949 1325.52 497.728
235 0 51.0192 11.5447 589 85.2666 1325.7 492.603
236 0 53.0748 11.8512 629 84.5962 1325.54 492.604
237 0 56.0813 12.2857 689 81.8592 1326.31 493.054
238 0 57.1065 11.6799 667 84.5982 1326.07 491.952
239 0 58.0607 12.263 712 83.3399 1326.19 492.41
240 0 62.1133 11.6239 722 84.5305 1326 489.747
241 0 64.0656 11.8784 761 84.1813 1325.56 490.17
242 0 65.0539 13.5887 884 90.4683 1325.55 491.986
243 0 69.1481 13.2469 916 88.6223 1325.11 490.015
244 0 71.1355 13.5797 966 88.5621 1325.54 488.664
245 0 72.1093 13.5905 980 89.5143 1325.72 488.86
246 0 75.1137 13.0336 979 88.9642 1325.39 487.21
247 0 77.0742 13.4675 1038 86.4538 1324.8 487.965
248 0 80.0925 13.01 1042 86.4962 1325.69 487.338
249 0 81.1059 12.6871 1029 88.0671 1325.43 485.491
250 0 84.0446 12.2435 1029 90.2604 1325.69 483.187
251 0 86.1206 12.436 1071 89.3959 1325.2 482.522
252 0 89.1111 13.0511 1163 86.9243 1325.75 481.336
253 0 93.2724 12.8548 1199 86.5646 1325.67 479.292
254 1 48.0812 11.1686 537 78.3966 1325.58 502.49
255 0 48.0446 12.1346 583 78.3636 1325.46 500.732
256 0 50.0589 11.8261 592 76.3362 1325.78 501.088
257 0 52.0595 12.5049 651 76.8679 1325.74 498.806
258 0 54.0223 12.1061 654 76.367 1325.64 499.225
259 0 54.0134 11.7378 634 77.9117 1325.7 499.117
260 0 54.0315 11.6969 632 78.2532 1326.27 497.718
261 0 56.0185 11.1927 627 81.0861 1325.74 497.592
262 0 56.0433 11.7231 657 80.4079 1325.5 496.728
263 0 59.061 12.885 761 77.7122 1325.49 496.627
264 0 60.0662 11.9535 718 80.9889 1326 494.485
265 0 63.0374 11.8184 745 80.5799 1326.02 494.15
266 0 65.0426 11.8538 771 81.2231 1325.68 493.333
267 0 66.111 11.6017 767 82.5319 1325.17 490.567
268 0 69.0669 11.916 823 82.9356 1325.33 491.578
269 0 72.0402 12.3126 887 82.9673 1325.46 489.43
270 0 74.0334 12.5754 931 83.2019 1325.47 488.435
271 0 75.0561 12.7238 955 84.3717 1325.41 487.978
272 0 77.114 12.4491 960 85.8438 1325.73 486.76
273 0 80.0716 12.7886 1024 85.1738 1325.94 484.797
274 0 82.1077 12.6541 1039 86.2175 1325.23 485.217
275 0 83.0429 12.9451 1075 88.4223 1325.3 482.97
276 0 85.045 12.511 1064 89.5611 1325.38 481.907
277 0 89.0671 12.9902 1157 88.1703 1325.78 480.685
278 0 90.0866 12.4436 1121 89.876 1324.8 479.393
279 0 91.0824 12.5491 1143 90.0709 1325.83 477.314
280 0 93.0951 12.4711 1161 90.1585 1325.42 476.875
281 0 95.0838 12.4627 1185 90.7629 1325.43 475.624
282 0 98.0919 12.6718 1243 90.5028 1325.27 473.785
283 1 52.0946 10.3658 540 89.5074 1327.41 496.47
284 0 56.0439 10.4918 588 85.8163 1326.36 497.952
285 0 56.0863 10.0381 563 86.5009 1325.71 491.357
286 0 56.0614 10.9879 616 88.0081 1326.28 485.536
287 0 60.0938 11.2158 674 86.3561 1325.96 488.438
288 0 62.0816 11.7587 730 86.3658 1325.35 493.67
289 0 63.0779 11.9852 756 86.4537 1324.48 491.911
290 0 67.1473 12.5843 845 86.587 1324.91 492.057
291 0 67.0974 12.4893 838 87.8795 1324.44 491.153
292 0 70.1157 12.7789 896 87.7321 1324.84 490.09
293 0 72.1087 12.5782 907 88.8942 1325 489.306
294 0 74.0571 12.2338 906 91.2064 1325.26 488.54
295 0 77.1661 12.6869 979 91.2738 1325.1 486.853
296 0 78.2004 12.9283 1011 92.3867 1324.82 485.552
297 0 82.251 13.0211 1071 100.92 1325.08 484.037
298 0 84.2669 12.8046 1079 102.358 1325.16 481.076
299 0 86.3488 12.6116 1089 102.339 1325.74 480.112
300 0 86.3328 12.2086 1054 104.746 1325.22 479.02
301 0 91.4198 12.7981 1170 102.215 1325.6 477.082
302 0 94.3683 12.1969 1151 102.368 1325.29 476.348
303 0 96.2265 12.0341 1158 101.519 1325.68 476.604
304 1 49.11 10.9957 540 97.3722 1324.76 498.013
305 0 50.1375 10.7106 537 95.8715 1326.2 495.912
306 0 54.1476 11.7457 636 89.6226 1325.03 497.615
307 0 53.1743 11.8478 630 93.8064 1324.43 497.425
309 0 52.0154 9.84324 512 82.3691 1325.52 500.326
310 0 53.0155 10.9779 582 81.9055 1324.69 499.448
311 0 54.0159 9.86746 533 81.9475 1325.04 500.445
312 0 56.0489 9.97344 559 83.8533 1325.77 498.043
313 0 56.0881 10.2339 574 81.1707 1326.01 500.134
314 0 59.0358 10.807 638 79.058 1326.7 496.762
315 0 63.1194 11.0742 699 80.6552 1326.39 495.614
316 0 66.1013 11.2706 745 79.5624 1326.11 494.936
317 0 66.0766 10.8964 720 80.5278 1326.31 494.231
318 0 69.0694 10.2506 708 80.4025 1325.9 493.523
319 0 71.0639 10.5398 749 82.5354 1325.93 492.044
320 0 73.0759 10.0444 734 82.0627 1325.73 490.662
321 0 77.112 10.167 784 80.1212 1325.83 489.566
322 0 78.0594 10.3511 808 79.8948 1326.1 488.361
323 0 81.1392 10.254 832 79.3786 1325.47 486.008
324 1 43.0969 10.1167 436 77.6491 1325.25 506.369
325 0 44.0439 10.376 457 76.8468 1325.37 506.048
326 0 44.1392 10.0364 443 75.4537 1325.52 506.023
327 0 47.0653 9.90114 466 74.7768 1325.07 505.573
328 0 45.0553 9.81017 442 72.2466 1324.59 502.584
329 0 49.0645 10.5372 517 71.559 1323.03 502.814
330 0 49.124 10.4837 515 74.8757 1323.02 503.278
331 0 46.0709 9.20321 424 77.6604 1322.78 503.55
332 0 50.0585 8.98948 450 75.5933 1322.75 502.876
333 0 51.1288 10.0139 512 75.6191 1322.92 501.166
334 0 52.0668 9.91034 516 74.4089 1322.96 501.859
335 0 54.0349 9.71594 525 76.2362 1322.58 501.714
336 0 54.062 9.97004 539 76.8349 1322.35 500.147
337 0 57.1066 10.4892 599 81.0167 1324.17 498.886
338 0 59.0872 10.493 620 79.8064 1324 497.171
339 0 60.0506 9.99157 600 80.5033 1323.7 498.388
340 0 63.0891 9.90662 625 80.4784 1324 498.629
341 0 66.0158 10.4217 688 82.5262 1324.3 495.792
342 0 66.0557 10.5214 695 81.8921 1323.88 494.498
343 0 69.0614 10.7585 743 83.3594 1323.86 492.273
344 0 70.0384 11.2081 785 83.6191 1323.09 491.288
345 0 71.0786 10.7768 766 85.3042 1323.02 491.236
346 0 74.0208 10.9294 809 84.3325 1322.48 490.97
347 0 78.0326 10.8801 849 83.4016 1321.83 490.888
348 0 79.0438 10.5511 834 87.2266 1322.16 488.517
349 0 81.0557 10.6593 864 86.7442 1321.61 490.201
350 1 45.0608 10.1862 459 87.6318 1322.44 505.688
351 0 46.0513 10.358 477 87.3899 1322.66 505.614
352 0 48.0538 10.6131 510 85.4922 1323.02 504.924
353 0 49.0413 11.2354 551 89.6461 1322.83 502.73
354 0 46.0161 9.75746 449 82.4388 1321.63 506.891
355 0 45.0593 10.009 451 83.7295 1321.66 505.344
356 0 49.0239 10.1583 498 84.0542 1322.22 504.327
357 0 49.045 9.74614 478 84.5941 1323.96 505.142
358 0 51.0356 10.091 515 85.3243 1323.4 503.159
359 0 52.0485 9.85619 513 85.998 1323.38 503.22
360 0 54.0288 10.4759 566 84.8763 1323.13 502.019
361 0 53.0293 10.0322 532 88.5 1323.1 501.194
362 0 54.0197 10.4591 565 89.862 1323.02 499.129
363 0 58.017 11.1174 645 87.5535 1323.12 498.388
364 0 58.0328 10.787 626 89.2045 1323.33 498.649
365 0 61.0422 11.0088 672 87.9762 1323.4 498.981
366 0 63.0857 11.6191 733 88.1323 1323.58 496.995
367 0 63.0559 10.7841 680 91.0912 1324.07 495.532
368 0 67.0746 11.2114 752 89.3936 1323.73 493.331
369 0 68.0247 11.1724 760 89.2171 1323.73 496.032
370 0 71.0768 11.6634 829 89.7431 1323.51 490.615
371 0 73.0756 11.2486 822 91.5146 1323.08 490.898
372 0 73.0728 10.8111 790 94.4139 1323.43 491.097
373 0 77.1302 11.0592 853 93.6659 1323.92 490.98
374 0 78.1253 11.392 890 94.6214 1323.53 487.56
375 0 80.1468 10.7303 860 96.6535 1323.78 488.487
376 0 84.0804 11.3225 952 95.7563 1323.83 487.478
377 0 86.1545 10.899 939 95.3866 1324 485.509
378 1 49.0531 10.5804 519 93.0308 1325.04 503.299
379 0 51.017 10.8199 552 92.9149 1325.1 503.328
380 0 51.0388 10.9329 558 93.0412 1325.04 500.866
381 0 51.0637 11.7109 598 93.2358 1324.35 500.41
382 0 53.0115 11.8653 629 92.8601 1324.87 499.812
383 0 55.0201 11.5776 637 93.5416 1325.35 499.878
384 0 56.0249 11.9233 668 94.6871 1325.2 497.846
385 0 56.0229 11.9416 669 94.3827 1325.37 498.004
386 0 59.0204 12.2669 724 92.5276 1325.28 496.885
387 0 59.0169 11.556 682 96.1774 1325.88 496.169
388 0 60.0248 12.095 726 93.7342 1325.58 495.829
389 0 61.0542 12.1204 740 95.0041 1325.38 494.832
390 0 64.0535 12.2866 787 93.6214 1325.78 492.872
391 0 67.019 12.3547 828 93.7899 1325.17 492.55
392 0 69.0404 12.5434 866 94.7644 1326.19 491.59
393 0 72.0167 12.9692 934 93.6649 1325.01 490.73
394 0 73.0273 13.0088 950 95.1674 1325.39 488.912
395 0 74.0556 12.7067 941 97.4952 1325.43 488.584
396 0 76.0668 13.3435 1015 97.667 1325.82 487.28
397 0 76.0357 11.8628 902 91.0554 1325.61 488.973
398 0 76.0734 11.7781 896 93.5915 1324.46 489.11
399 0 80.1118 12.0706 967 94.6556 1323.56 487.288
400 0 83.0785 12.2414 1017 96.3451 1323.82 484.801
401 0 84.1265 12.1008 1018 99.1464 1323.3 483.776
402 0 88.0941 12.691 1118 99.1825 1324.13 480.529
403 0 91.1004 11.888 1083 101.004 1323.27 481.042
