time division length width area intensity CMx CMy
0 0 43.0088 13.0439 561 84.4777 1181.43 500.578
1 0 41.0052 12.1936 500 87.246 1180.63 501.53
2 0 42.0262 13.4202 564 85.4025 1180.4 501.495
3 0 45.0287 13.3693 602 82.6512 1180.3 501.641
4 0 42.081 13.1888 555 81.2739 1180.27 502.409
5 0 44.042 12.647 557 82.4973 1180.67 502.251
6 0 43.0196 13.0173 560 80.575 1181.74 502.439
7 0 44.0156 12.8818 567 77.8906 1181.75 503.64
8 0 44.0307 12.673 558 79.3477 1181.38 502.351
9 0 45.0136 12.9294 582 78.4364 1180.96 501.481
10 0 47.0589 13.0262 613 77.0261 1181.11 501.395
11 0 48.055 12.6522 608 77.9951 1179.79 501.048
12 0 49.0187 13.1786 646 78.3111 1180.61 499.537
13 0 52.0276 13.9734 727 78.9794 1179.89 498.116
14 0 52.0636 14.5783 759 79.3557 1179.88 497.751
15 0 52.0636 14.5399 757 171.406 1179.89 497.696
16 0 55.0359 14.1907 781 76.1191 1180.14 497.853
17 0 54.0789 13.7577 744 76.7056 1179.92 496.724
18 0 57.045 13.8312 789 74.73 1179.76 497.409
19 0 55.0875 14.1593 780 75.2526 1179.97 496.963
20 0 56.0525 13.7906 773 76.1242 1179.46 496.778
21 0 57.137 14.894 851 74.9471 1179.21 495.982
22 0 58.1224 14.5211 844 75.301 1178.15 494.051
23 0 59.1906 14.2421 843 75.5623 1178.39 492.044
24 0 60.1859 14.3887 866 72.9977 1178.86 492.5
25 0 62.19 14.713 915 71.5454 1178.72 491.574
26 0 63.28 14.0803 891 72.6577 1179.06 492.282
27 0 64.1379 14.0167 899 72.5795 1179.21 491.427
28 0 65.1418 14.7371 960 70.6729 1178.57 492.182
29 0 68.0949 15.2728 1040 68.5788 1179.31 490.112
30 0 68.165 14.8023 1009 69.1754 1178.57 491.632
31 0 71.1414 14.8156 1054 68.3738 1178.95 490.064
32 0 71.1929 14.4958 1032 68.2771 1177.79 490.173
33 0 72.1844 14.7954 1068 66.6639 1177.93 490.138
34 0 73.2427 14.9503 1095 65.5233 1177.93 489.762
35 0 73.1295 13.9068 1017 68.8722 1178.19 489.466
36 0 76.1312 14.1072 1074 67.9674 1178.64 488.848
37 0 77.0987 13.8653 1069 67.159 1178.4 485.649
38 0 78.0591 14.0406 1096 67.8841 1178.11 484.521
39 0 82.1042 14.2745 1172 65.9855 1178.6 483.459
40 0 82.1618 14.3862 1182 65.9763 1178.58 482.574
41 0 85.1905 15.0134 1279 63.7459 1178.48 480.805
42 0 87.1342 14.5293 1266 65.0766 1178.58 481.217
43 0 88.1399 13.8076 1217 65.7239 1177.59 480.309
44 0 91.1227 14.1019 1285 64.3837 1178.24 477.651
45 0 93.1184 14.6588 1365 62.2908 1177.93 477.771
46 0 95.1452 14.2099 1352 62.4837 1178.48 477.085
47 0 98.2332 15.0255 1476 60.4926 1177.71 475.272
48 0 99.2064 14.1926 1408 62.228 1178.08 473.182
49 0 101.302 14.1656 1435 62.6425 1177.45 472.555
50 0 105.229 14.3402 1509 61.831 1178.25 471.62
51 0 107.241 14.1084 1513 62.6259 1178.28 471.366
52 0 110.229 14.6604 1616 62.4171 1177.68 467.077
53 0 114.367 14.5059 1659 62.7022 1176.79 466.953
54 0 116.205 13.8893 1614 64.8104 1177.46 464.921
55 0 117.153 13.1196 1537 67.2433 1177.63 463.031
56 0 121.251 14.4246 1749 65.247 1178.6 460.812
57 0 125.238 14.0054 1754 66.8164 1177.76 457.234
58 0 129.158 13.7583 1777 68.224 1177.8 458.519
59 0 132.346 13.8652 1835 68.6779 1177.06 457.289
60 0 137.286 14.2986 1963 68.5833 1178.31 453.973
61 0 142.216 14.6678 2086 68.5551 1178.2 454.219
62 0 147.258 15.259 2247 68.3258 1177.49 449.635
63 0 153.209 15.1101 2315 68.9987 1177.07 447.421
64 0 158.275 14.6391 2317 71.0406 1177.18 443.811
65 0 161.24 14.1032 2274 73.4235 1177.57 444.121
66 0 167.233 14.136 2364 74.6743 1177.29 440.646
67 0 172.399 13.8748 2392 75.9933 1176.64 437.855
68 0 175.369 12.6876 2225 78.2742 1177.17 436.925
69 0 183.309 13.7527 2521 75.7322 1177.65 433.248
70 0 191.267 13.5309 2588 75.8864 1177.09 429.814
71 0 198.243 14.0484 2785 74.4707 1178.01 429.755
72 0 202.262 14.3675 2906 74.0544 1177.4 426.206
73 0 209.284 13.981 2926 74.502 1177.7 423.957
74 0 215.274 14.0472 3024 74.7321 1177.65 418.509
75 0 221.385 13.5104 2991 75.7148 1178.08 414.896
76 0 229.374 14.3652 3295 74.6561 1177.48 412.006
77 0 233.526 12.5425 2929 78.8385 1177.66 405.752
78 0 244.511 14.3306 3504 75.0428 1177.72 402.815
79 1 261.541 11.631 3042 78.5099 1177.85 407.474
80 0 260.445 14.8362 3864 75.1403 1178.13 393.026
81 0 268.519 14.8444 3986 76.7265 1177.98 388.407
82 0 276.648 15.4601 4277 76.2294 1177.79 384.102
83 0 287.537 15.8797 4566 75.129 1178.27 377.364
84 0 294.571 16.1964 4771 74.8252 1178.32 373.148
85 0 301.5 16.5207 4981 74.5405 1177.86 373.362
86 0 311.584 16.5573 5159 74.6941 1178.48 365.992
87 0 322.421 17.8338 5750 73.737 1177.99 363.143
88 0 322.421 17.9144 5776 162.744 1178.01 363.185
89 0 343.681 17.1758 5903 76.3292 1178.35 346.108
90 0 356.726 17.5569 6263 76.3977 1178.1 340.57
91 0 368.793 17.7986 6564 76.0748 1178.3 337.205
92 0 383.821 17.7687 6820 76.9284 1178.13 328.426
93 0 396.029 17.072 6761 77.7789 1177.88 323.009
95 0 72.3933 11.5618 837 71.994 1177.72 483.241
96 0 76.3425 13.1775 1006 67.9612 1178.16 480.239
97 0 76.137 11.5187 877 73.4652 1178.3 484.438
98 0 78.0876 10.6803 834 76.9472 1178.71 484.414
99 0 82.11 11.9717 983 75.6195 1178.33 482.343
100 0 96.269 14.2621 1373 64.4851 1178.1 473.292
101 0 96.2828 15.5999 1502 63.757 1178.21 472.77
102 0 90.3015 14.4737 1307 69.6924 1177.86 473.776
103 0 90.267 11.7873 1064 76.61 1178.22 474.052
104 0 93.162 11.2385 1047 77.3286 1178.64 476.244
105 1 106.285 18.7608 1994 58.2849 1178.96 462.848
106 0 108.387 19.6058 2125 58.0174 1178.22 461.194
107 0 106.291 16.3514 1738 66.0972 1178.56 462.288
108 0 107.27 12.1003 1298 78.3475 1177.67 466.79
109 0 111.358 12.177 1356 77.7426 1177.88 465.576
110 0 115.276 12.6219 1455 77.9093 1177.55 464.066
111 0 119.271 12.9788 1548 78.5743 1177.57 462.758
112 0 121.265 13.0541 1583 81.9248 1177.85 462.808
113 0 126.229 13.1032 1654 83.2213 1178.23 459.744
114 0 126.185 12.4183 1567 82.4978 1177.89 454.594
115 0 128.197 12.2624 1572 83.7595 1177.73 452.233
116 0 132.18 12.3014 1626 84.4274 1178.14 448.304
117 0 134.18 11.7603 1578 86.2883 1177.45 443.768
118 0 141.21 12.1875 1721 84.3306 1177.94 444.695
119 0 151.3 13.0866 1980 86.8636 1177.22 446.895
120 0 154.187 12.647 1950 85.142 1177.55 446.678
121 0 159.189 12.9469 2061 84.5735 1177.1 445.062
122 0 163.292 12.4256 2029 86.3248 1177.35 442.757
123 0 169.271 12.6188 2136 87.1943 1177.48 438.934
124 0 173.377 13.0929 2270 86.6242 1177.78 437.597
125 1 76.1332 10.8625 827 74.9988 1177.7 487.467
126 0 77.3338 11.1077 859 75.5774 1177.83 487.913
127 0 81.3158 11.3262 921 77.0478 1177.3 484.666
128 0 83.218 11.9806 997 75.6399 1177.31 482.639
129 0 86.1877 11.9739 1032 74.9758 1177.39 482.909
130 0 88.1799 11.8167 1042 76.857 1177.25 479.952
131 0 92.1115 11.7901 1086 76.628 1177.29 479.253
132 1 49.0819 10.4723 514 77.7918 1176.86 500.177
133 0 51.1296 11.4219 584 76.0873 1176.71 499.094
134 0 51.079 11.5899 592 75.5625 1176.91 498.917
135 0 53.1028 12.1839 647 74.4189 1177.54 498.287
136 0 52.0433 10.5873 551 75.392 1177.5 498.944
137 0 53.0682 10.4394 554 75.5939 1177.1 498.471
138 0 53.0576 11.6289 617 75.3647 1177.79 495.645
139 0 55.216 10.9932 607 75.5717 1176.64 496.59
140 0 57.126 10.6782 610 75.0492 1177.13 495.838
141 0 55.1611 10.5328 581 78.5542 1176.57 495.699
142 0 59.2391 10.753 637 77.6531 1176.6 495.587
143 0 60.1181 10.8453 652 77.4862 1176.57 494.293
144 0 64.1296 11.851 760 73.621 1176.62 491.67
145 0 64.1218 11.2754 723 75.325 1177.45 490.261
146 0 66.0387 11.0693 731 76.0192 1177.6 490.978
147 0 67.1303 11.3064 759 75.9974 1176.6 489.522
148 0 67.1735 11.1651 750 76.5813 1176.85 489.189
149 0 69.0676 11.3657 785 75.8943 1176.76 486.218
150 0 72.0342 10.5505 760 82.7079 1176.41 486.336
151 0 73.0364 11.2136 819 75.8999 1176.24 487.272
152 0 74.0905 11.4725 850 76.2071 1177.26 482.829
153 0 77.084 10.7156 826 77.4758 1176.74 484.548
154 0 81.0859 11.8886 964 74.6743 1177.31 481.441
155 0 82.0404 11.5065 944 76.5752 1176.96 478.648
156 0 86.0418 11.3666 978 76.5 1177.15 479.269
157 0 89.1247 11.108 990 77.099 1176.49 478.762
158 0 91.0923 10.901 993 78.0453 1176.94 475.104
159 0 95.1465 11.0146 1048 77.5172 1176.95 473.377
160 0 100.157 12.1908 1221 75.1212 1177.21 471.521
161 0 102.13 10.9077 1114 76.4093 1176.9 469.425
162 1 52.0861 10.7322 559 77.8855 1176.28 493.501
163 0 52.1371 10.9902 573 78.0192 1176.21 493.361
164 0 55.0601 10.8245 596 78.5117 1176.31 491.592
165 0 55.0314 11.0301 607 75.6507 1175.95 491.367
166 0 56.0791 11.1628 626 74.2923 1176.32 493.712
167 0 56.1294 10.7787 605 75.2678 1176.5 492.893
168 0 60.0952 11.0824 666 74.473 1176.47 490.532
169 0 60.1333 11.0588 665 75.0391 1176.7 491.224
170 0 63.0638 11.7183 739 74.3857 1176.9 489.671
171 0 66.1301 11.6588 771 75.2594 1176.94 488.559
172 0 68.0829 11.6182 791 76.6839 1176.86 486.231
173 0 71.0788 12.4369 884 75.9174 1177.15 486.003
174 0 73.0858 12.5879 920 76.9946 1176.68 484.86
175 0 77.1017 12.4252 958 76.9958 1176.95 485.239
176 0 79.0742 12.4567 985 77.5198 1176.26 484.423
177 0 81.1081 12.4279 1008 78.1667 1175.9 483.556
178 0 83.1249 12.812 1065 78.1728 1176.27 481.809
179 0 86.1685 12.1274 1045 79.399 1176.95 480.059
180 0 88.1143 13.0285 1148 78.6298 1176.51 477.71
181 0 92.1452 12.4369 1146 78.6326 1176.67 478.34
182 0 102.153 15.0754 1540 72.7831 1176.77 469.192
183 0 103.295 15.0443 1554 74.6242 1176.89 470.107
184 1 50.1092 10.5769 530 82.4604 1176.94 496.8
185 0 51.0462 10.5787 540 78.5648 1176.55 494.73
186 0 51.0399 9.56114 488 73.2316 1176.94 491.25
187 0 58.0872 12.8083 744 78.3589 1176.99 496.168
188 0 57.1323 11.4121 652 71.8267 1177.82 497.425
189 0 58.0733 11.5027 668 73.4746 1177.42 495.368
190 0 59.0409 11.3989 673 73.6048 1177.43 494.872
191 0 62.0822 11.6297 722 73.5734 1177.6 495.112
192 0 64.1053 11.5123 738 73.5312 1176.66 494.438
193 0 66.061 12.5793 831 73.6643 1176.98 492.597
194 0 67.0665 12.0925 811 74.4994 1177.25 491.079
195 0 69.0321 11.7916 814 75.2396 1176.83 491.528
196 0 73.0128 12.1349 886 74.6885 1176.93 490.04
197 0 74.0998 12.2133 905 75.7171 1176.46 487.067
198 0 76.0884 12.5643 956 75.318 1176.76 488.111
199 0 79.105 12.1105 958 75.4791 1176.54 487.443
200 0 82.1154 13.0426 1071 74.4771 1176.92 485.663
201 0 83.0964 12.5637 1044 76.4531 1176.51 482.775
202 0 89.0742 12.6524 1127 96.0435 1176.73 481.794
203 0 90.1078 12.8957 1162 97.4165 1177.03 479.736
204 0 93.1546 13.2468 1234 96.5065 1176.65 477.13
205 0 96.0798 13.0412 1253 95.1708 1176.83 476.555
206 0 96.0639 12.3668 1188 98.3022 1176.36 474.311
207 0 100.103 13.0966 1311 97.6331 1176.22 474.08
208 0 103.078 13.4073 1382 97.4211 1176.66 471.876
209 0 106.069 13.067 1386 97.3564 1177.15 469.519
210 0 112.071 13.4647 1509 94.9649 1176.04 467.763
211 0 115.185 13.4393 1548 94.2662 1176.76 465.774
212 0 118.118 12.4028 1465 97.2689 1176.12 465.587
213 0 121.122 12.7062 1539 97.1358 1176.39 461.411
214 0 127.114 13.185 1676 94.5483 1176.41 460.985
215 1 64.0572 11.3336 726 96.7906 1176.9 490.694
216 0 68.0316 11.9503 813 96.508 1177.17 489.089
217 0 65.1097 11.1965 729 92.6255 1176.64 482.582
218 0 72.074 12.4872 900 93.0778 1176.24 486.032
219 0 74.0669 12.9207 957 86.8224 1175.68 489.355
220 0 75.0672 12.4822 937 88.0352 1175.75 487.792
221 0 77.0609 12.1852 939 89.5144 1175.77 485.585
222 0 80.1453 12.6271 1012 88.5128 1176.38 486.099
223 0 85.1683 14.0428 1196 88.2926 1176.97 479.194
224 0 85.178 12.5854 1072 91.5625 1176.58 480.917
225 0 87.1066 13.1219 1143 90.1864 1176.17 480.721
226 0 90.1312 13.1253 1183 92.3702 1176.36 477.598
227 0 92.1782 13.2895 1225 92.1682 1176.32 477.325
228 0 94.0675 13.299 1251 94.4908 1176.21 469.395
229 0 98.1471 14.1013 1384 92.4964 1175.66 474.31
230 0 96.0577 13.8146 1327 94.9797 1176.56 466.197
231 0 102.051 14.1694 1446 94.8326 1175.93 472.208
232 0 104.069 13.9427 1451 98.9001 1176.42 468.571
233 0 108.155 14.7012 1590 96.6717 1176.65 467.557
234 0 109.083 14.3744 1568 97.6384 1175.8 463.15
235 0 111.08 14.5841 1620 97.9012 1176.31 461.296
236 0 115.142 14.4605 1665 96.9273 1176.18 459.23
237 0 118.179 14.4696 1710 96.9766 1176.86 457.472
238 0 124.187 14.9532 1857 96.8454 1176.9 456.2
239 0 127.161 14.3834 1829 98.2559 1176.98 453.867
240 0 132.181 14.8432 1962 97.1911 1176.91 452.507
241 0 135.162 14.7008 1987 98.0297 1176.38 450.566
242 0 139.12 14.4121 2005 99.8115 1176.3 447.809
243 0 144.214 14.9292 2153 99.0841 1176.07 444.426
244 1 85.0779 12.3769 1053 100.844 1176.44 475.782
245 0 86.1152 12.8665 1108 101.808 1176.34 474.955
246 0 89.1109 13.4776 1201 101.298 1176.03 473.656
247 0 92.1518 13.8359 1275 97.4173 1175.49 477.388
248 0 93.0987 12.8251 1194 100.889 1176.36 478.204
249 0 95.2316 13.5879 1294 99.3207 1176.13 477.599
250 0 98.2078 13.726 1348 100.211 1176.31 470.676
251 0 102.214 13.3641 1366 100.673 1175.81 473.323
252 0 103.054 13.5948 1401 99.3583 1176.42 470.229
253 0 108.204 13.8719 1501 97 1176.17 461.847
254 0 109.133 13.1216 1432 98.3855 1176.39 461.959
255 0 113.12 12.9597 1466 98.9604 1176.07 461.952
256 0 115.259 13.3525 1539 98.0812 1176.62 459.246
257 0 121.207 13.9349 1689 95.7211 1176.52 458.793
258 0 125.111 13.6519 1708 95.13 1176.38 457.703
259 0 130.205 14.001 1823 94.6418 1176.41 453.429
260 1 66.1093 10.528 696 87.7012 1176.66 485.832
261 0 68.1612 11.5755 789 93.4474 1175.78 487.269
262 0 72.1179 12.2716 885 91.791 1175.9 486.322
263 0 76.0509 12.6231 960 83.1521 1176.54 488.501
264 0 77.0562 11.9004 917 86.5344 1176.95 487.213
265 0 81.0524 12.165 986 86.4209 1176.93 485.439
266 0 82.0608 11.7474 964 88.0488 1176.62 484.696
267 0 86.0987 12.1953 1050 88.5029 1176.13 482.583
268 0 90.0621 12.3692 1114 90.4829 1176.16 481.448
269 0 92.0682 12.4364 1145 92.8917 1176.45 478.732
270 0 96.131 13.0967 1259 96.2018 1176.43 475.957
271 0 100.128 12.504 1252 96.496 1176.4 475.33
272 0 103.195 12.9173 1333 96.4576 1176.33 473.01
273 0 107.18 13.0995 1404 96.2001 1176.98 472.442
274 0 108.159 12.7498 1379 98.2204 1176.34 470.676
275 0 113.154 13.3977 1516 97.6478 1176.06 469.265
276 0 116.192 12.9699 1507 97.2528 1176.3 468.147
277 0 121.097 13.0804 1584 98.0505 1176.5 466.092
278 1 65.0834 10.3252 672 82.1518 1175.58 493.406
279 0 68.088 11.1327 758 89.3588 1176.22 492.885
280 0 68.0523 12.123 825 81.7964 1176.23 494.298
281 0 67.0503 10.9619 735 84.5116 1176.46 492.672
282 0 70.0466 10.493 735 86.4653 1176.31 491.55
283 0 73.1012 11.4225 835 86.2599 1176.97 491.234
284 0 75.0417 11.6868 877 84.5188 1176.74 489.446
285 0 78.0472 11.7365 916 85.1365 1175.33 486.536
286 0 82.1376 11.6512 957 85.6301 1176.03 484.635
287 0 84.1037 12.4608 1048 84.645 1175.75 482.879
288 0 88.1108 12.1551 1071 85.5275 1176.38 482.814
289 0 90.0501 12.4819 1124 85.3399 1175.35 479.977
290 0 92.124 12.2444 1128 86.2092 1175.71 479.083
291 0 94.1397 12.3646 1164 85.5421 1175.56 477.681
292 0 101.082 12.1485 1228 94.3494 1175.71 474.972
293 1 51.0663 9.92827 507 84.0651 1176.25 500.586
294 0 52.0235 10.1108 526 82.0589 1176.42 499.215
295 0 54.0884 10.5938 573 81.6946 1176.01 499.457
296 0 55.0856 11.2189 618 81.9013 1175.66 498.392
297 0 59.0909 11.4231 675 89.4652 1175.43 496.281
298 0 62.1008 11.4813 713 91.4194 1175.45 495.05
299 0 62.2003 11.5273 717 91.4951 1175.9 494.149
300 0 64.1123 11.2303 720 90.8264 1175.46 491.499
301 0 65.1065 11.6578 759 90.6245 1175.66 493.343
302 0 66.072 11.6842 772 89.8756 1175.56 492.005
303 0 68.0906 11.2791 768 90.1862 1175.93 490.695
304 0 71.1082 11.8692 844 88.3152 1175.41 489.15
305 0 72.1108 12.0232 867 88.4948 1175.82 487.31
306 0 76.1122 11.4436 871 89.8243 1175.87 486.68
307 0 77.0742 11.729 904 90.4635 1175.43 485.736
308 0 80.0715 11.2524 901 91.99 1176.18 485.574
309 0 82.0942 12.108 994 92.2636 1175.41 483.633
310 0 86.1273 11.4017 982 90.5356 1175.55 484.531
311 1 44.0267 10.0166 441 86.4422 1176.21 506.175
312 0 47.0091 10.8064 508 81.3346 1176.15 505.364
313 0 49.0328 10.6052 520 78.6404 1176.37 504.154
314 0 50.0085 11.738 587 77.0971 1175.31 503.799
315 0 51.0259 10.72 547 80.585 1176.18 502.64
316 0 51.048 11.7928 602 78.9103 1175.85 502.306
317 0 52.0269 11.7247 610 78.718 1176 501.92
318 0 55.0383 11.5919 638 77.9812 1175.64 501.799
319 0 56.0446 11.8656 665 79.8677 1175.61 501.305
320 0 57.0102 11.5944 661 80.1377 1175.37 500.058
321 0 57.0285 12.4499 710 78.707 1175.43 500.687
322 0 60.0608 13.1866 792 77.8283 1175.85 498.845
323 0 61.0242 12.536 765 79.3137 1174.83 499.128
324 0 65.079 12.1852 793 80.1589 1175.56 495.667
325 0 66.0389 12.5229 827 91.3882 1174.41 497.276
326 0 67.0382 11.9783 803 93.7148 1174.34 495.963
327 0 70.0441 12.4208 870 92.2575 1174.06 495.472
328 0 71.0517 13.1313 933 90.6002 1173.74 494.122
329 0 76.0242 13.0616 993 89.426 1173.88 493.112
330 0 78.0589 13.5667 1059 88.3333 1173.77 491.74
331 0 77.1443 13.0405 1006 91.8479 1174.05 491.256
332 0 81.07 13.0011 1054 89.8994 1174.15 489.371
333 0 83.0509 13.5459 1125 89.2311 1174.08 487.967
334 0 85.0434 12.7347 1083 90.2982 1173.81 486.878
335 0 87.0687 12.8864 1122 90.9358 1173.5 487.24
336 0 91.0878 12.7679 1163 91.509 1172.65 483.661
337 0 94.0751 12.4794 1174 92.925 1173.09 484.134
338 0 96.0987 13.1948 1268 91.2808 1172.89 481.669
339 0 99.0796 12.8987 1278 91.27 1172.59 480.441
340 0 104.113 13.0435 1358 87.444 1172.84 479.87
341 1 54.0141 10.9231 590 83.4763 1173.17 504.071
342 0 56.015 12.1039 678 80.1519 1172.96 502.221
343 0 58.0412 12.6117 732 80.2609 1173.14 501.031
344 0 59.0863 12.3379 729 78.8971 1172.49 501.278
345 0 59.0539 12.1584 718 80.9652 1172.31 501.721
346 0 59.0292 11.6214 686 82.7566 1171.8 499.659
347 0 63.1001 11.7591 742 81.9515 1171.85 498.077
348 0 64.0304 12.2286 783 81.5645 1171.54 498.411
349 0 67.0322 11.9196 799 83.6796 1171.85 496.646
350 0 68.0739 11.7373 799 84.1139 1172.14 495.378
351 0 71.0288 12.9243 918 81.5305 1172.16 495.261
352 0 74.0404 12.6553 937 81.9424 1172.2 493.711
353 0 76.0735 11.9621 910 84.6297 1171.86 490.958
354 0 80.0976 12.9842 1040 81.4817 1171.75 491.388
355 0 82.0556 12.8084 1051 83.6946 1171.61 489.893
356 0 86.1618 13.6487 1176 82.6735 1171.72 484.951
357 0 88.0508 13.1288 1156 83.6652 1173.06 487.304
358 0 91.1216 12.9936 1184 85.8851 1172.65 484.937
359 0 93.0298 13.3828 1245 84.3478 1172.71 485.648
360 0 96.0417 13.5046 1297 85.3878 1172.31 482.06
361 0 100.025 13.3467 1335 87.3378 1172.34 481.158
362 1 49.0277 11.2589 552 78.4094 1172.23 503.697
363 0 50.0173 11.396 570 79.821 1172.57 503.456
364 0 52.0668 11.6581 607 85.0725 1172.79 503.422
365 0 55.062 12.2771 676 81.9748 1172.82 503.867
366 0 54.031 12.2152 660 83.297 1173.1 502.724
367 0 55.0454 12.0991 666 83.6276 1173.44 502.527
368 0 58.029 12.1319 704 83.3352 1173.32 500.513
369 0 60.0463 11.7076 703 84.404 1173.35 501.33
370 0 61.0384 12.271 749 84.4166 1172.91 497.522
371 0 62.0544 12.344 766 84.8068 1172.73 498.082
372 0 63.0383 12.1831 768 86.0768 1172.87 496.393
373 0 67.056 12.7655 856 84.0759 1173.31 496.845
374 0 67.0509 12.2743 823 85.9234 1173.01 494.509
375 0 69.0574 12.7865 883 85.7282 1173.29 494.422
376 0 71.1787 12.6864 903 86.2248 1173.39 491.876
377 0 74.1367 12.3556 916 87.1365 1173.85 491.285
378 0 76.1763 12.5892 959 85.8759 1173.89 490.892
379 0 78.1372 12.7084 993 87.2266 1174.03 489.474
380 0 79.0473 12.3344 975 89.76 1173.89 487.564
381 0 83.234 12.9755 1080 86.7787 1173.63 487.257
382 0 85.104 12.9959 1106 87.2559 1173.76 485.505
383 0 89.2902 13.2601 1184 87.0997 1174.32 483.354
384 0 89.128 13.3292 1188 89.6599 1174.17 481.556
385 0 91.1143 12.6215 1150 91.0791 1174.37 480.223
386 0 96.1243 12.9728 1247 88.6544 1174.08 479.987
387 0 98.103 12.8131 1257 90.0963 1174.72 476.694
388 0 99.1279 13.1144 1300 88.6038 1174.61 475.165
389 0 103.291 12.944 1337 89.3613 1174.29 473.163
390 1 54.1975 11.3474 615 90.4943 1174.17 496.967
391 0 54.136 10.7138 580 92.5362 1173.63 494.847
392 0 57.1838 11.4193 653 91.0812 1174.74 493.395
393 0 60.23 12.087 728 90.3448 1173.46 493.304
394 0 57.0505 11.8316 675 88.9304 1174.89 495.634
395 0 58.0095 11.2223 651 91.8218 1174.93 493.828
396 0 61.0826 11.4435 699 91.8827 1175.5 493.195
397 0 62.0477 11.8618 736 92.6128 1175.54 492.489
398 0 63.0654 11.4643 723 94.3001 1175.81 492.213
399 0 68.0455 12.0948 823 93.1628 1174.73 490.203
400 0 70.0621 12.1606 852 92.6948 1174.76 490.541
401 0 73.0649 12.5916 920 92.5054 1174.68 489.039
