time division length width area intensity CMx CMy
2958 0 48.0426 12.6138 606 125.972 422.66 458.728
2959 0 49.0128 13.119 643 122.56 422.656 459.314
2960 0 50.0244 12.274 614 127.093 423.173 458.143
2961 0 52.0171 12.9957 676 124.793 423.568 452.185
2962 0 53.0718 12.7186 675 125.652 423.443 451.883
2963 0 55.0236 12.2311 673 126.551 423.802 451.453
2964 0 58.0508 12.713 738 123.152 423.351 448.751
2965 0 57.0107 12.5415 715 126.937 423.629 446.99
2966 0 61.0214 12.848 784 122.594 423.26 445.062
2967 0 62.0141 12.6584 785 123.859 423.357 445.827
2968 0 65.027 13.1484 855 121.813 422.87 440.978
2969 0 65.0912 12.2444 797 125.927 422.754 438.435
2970 0 68.0723 12.5895 857 124.139 422.905 438.06
2971 0 71.045 12.9777 922 121.343 423.149 438.474
2972 0 72.0426 12.9368 932 122.702 422.825 436.262
2973 0 75.0516 12.538 941 123.862 422.676 434.83
2974 0 77.0649 12.9112 995 122.456 423.294 434.538
2975 0 81.0599 13.1508 1066 119.968 423.271 434.717
2976 0 82.0548 13.5763 1114 119.511 423.152 434.021
2977 0 85.0741 12.8946 1097 116.907 423.654 438.56
2978 0 86.0281 12.6122 1085 118.278 423.692 442.457
2979 0 89.0421 12.3649 1101 120.528 423.491 436.85
2980 0 92.0486 12.9062 1188 120.944 423.211 431.792
2981 0 96.0197 12.7161 1221 119.504 423.51 431.847
2982 1 48.0068 9.91527 476 116.235 423.189 454.956
2983 0 50.0255 10.4747 524 113.788 423.601 454.309
2984 0 53.0156 11.2043 594 112.236 424.025 446.658
2985 0 55.0129 11.2519 619 105.876 423.78 451.289
2986 0 57.0231 11.0657 631 106.593 423.764 453.539
2987 0 56.039 11.2779 632 108.983 423.775 455.889
2988 0 59.0656 11.2756 666 105.574 423.492 455.327
2989 0 62.0335 11.2842 700 105.759 423.923 453.07
2990 0 63.0605 11.5445 728 105.842 423.519 452.669
2991 0 67.0154 11.8331 793 103.686 423.448 451.315
2992 0 69.0292 11.6907 807 103.59 423.507 450.537
2993 0 72.049 11.8114 851 104.135 424.273 448.302
2994 0 73.1116 12.0774 883 104.533 423.619 447.505
2995 0 75.0738 11.7484 882 104.782 423.745 446.246
2996 0 78.0817 12.346 964 104.255 422.977 444.351
2997 0 82.0605 12.6614 1039 107.347 423.251 442.082
2998 1 44.0408 10.6719 470 111.991 422.215 460.894
2999 0 45.0336 11.1694 503 109.523 422.845 460.881
3000 0 46.035 11.9257 549 107.288 422.071 459.483
3001 0 49.0138 11.7722 577 105.442 422.695 459.281
3002 0 50.0567 11.5269 577 109.695 422.768 454.754
3003 0 51.0981 12.251 626 105.807 422.927 458.581
3004 0 49.0629 11.9235 585 105.556 423.325 459.362
3005 0 51.0917 11.5283 589 105.278 423.662 449.941
3006 0 53.0709 11.8521 629 103.731 423.526 450.698
3007 0 53.0742 11.6818 620 102.844 423.218 451.556
3008 0 56.0659 11.861 665 100.979 423.227 449.119
3009 0 57.0923 12.6462 722 99.3172 423.339 444.004
3010 0 60.1417 12.7865 769 97.5345 423.746 445.622
3011 0 61.1092 12.6659 774 96.4858 423.782 449.406
3012 0 60.0473 11.7574 706 100.87 423.844 441.157
3013 0 63.0703 12.3196 777 97.8327 423.336 439.52
3014 0 63.0499 12.0381 759 98.1884 423.725 440.368
3015 0 65.0732 11.9711 779 98.3145 423.158 439.173
3016 0 68.0469 12.8294 873 95.3288 423.572 440.436
3017 0 69.0855 12.7957 884 95.9943 423.025 442.219
3018 0 70.0384 11.9934 840 96.7512 423.619 445.749
3019 0 73.0445 12.7046 928 94.7446 423.53 443.38
3020 0 75.0861 12.2126 917 94.3435 423.433 444.067
3021 0 75.0861 12.2126 917 125.383 422.444 444.043
3022 0 77.0974 13.256 1022 90.7417 423.587 439.164
3023 0 79.0401 12.7657 1009 92.6283 423.373 438.052
3024 0 81.0831 11.519 934 95.5557 423.197 431.712
3025 0 82.0427 11.5306 946 97.6564 423.534 422.878
3026 0 83.0554 11.2576 935 99.707 423.367 428.582
3027 0 92.0532 14.0245 1291 89.6243 423.537 424.982
3028 0 90.1588 13.8755 1251 91.1735 423.622 427.042
3029 0 94.1598 13.9231 1311 91.0519 423.183 426.383
3030 0 102.187 14.1407 1445 89.0685 423.792 426.459
3031 0 104.089 15.0449 1566 86.4879 423.492 423.082
3032 0 104.075 14.3838 1497 90.7214 423.395 421.929
3033 0 101.106 11.9973 1213 100.261 423.177 423.175
3034 0 107.102 12.8195 1373 97.9031 423.375 419.945
3035 0 111.072 12.6855 1409 98.3982 423.489 421.192
3036 0 111.109 12.1322 1348 100.405 423.631 415.881
3037 0 117.064 12.1472 1422 99.5654 422.937 413.8
3038 0 121.101 12.4276 1505 97.7781 423.583 413.976
3039 0 124.077 11.8555 1471 101.294 423.775 409.16
3040 0 128.124 12.0586 1545 100.259 423.742 406.181
3041 1 141.089 13.6013 1919 95.3205 423.575 410.108
3042 0 146.144 13.6168 1990 96.6392 423.498 407.356
3043 0 148.113 13.3546 1978 98.6901 423.639 404.745
3044 0 153.215 13.5561 2077 98.9803 423.593 402.182
3045 0 158.084 13.9609 2207 97.5433 424.106 398.272
3046 0 164.118 13.6366 2238 98.8646 423.724 396.126
3047 0 169.162 13.561 2294 99.4821 423.709 394.453
3048 0 175.124 13.7959 2416 99.3994 423.329 392.014
3049 0 181.099 13.8156 2502 98.747 424.077 388.043
3050 0 185.164 13.7176 2540 98.3189 423.744 384.714
3051 0 190.174 13.3825 2545 100.011 423.431 382.545
3052 1 102.065 10.6011 1082 96.8826 424.127 428.071
3053 0 104.061 11.1377 1159 95.8447 423.764 425.598
3054 0 105.132 11.4237 1201 89.1948 423.767 424.927
3055 0 110.098 11.2355 1237 92.2627 423.682 423.397
3056 0 113.104 11.6088 1313 93.2468 423.976 420.561
3057 0 117.115 11.16 1307 94.9801 423.109 420.024
3058 0 120.07 11.7514 1411 93.8051 424.019 417.914
3059 0 126.056 11.6615 1470 93.5299 423.404 414.984
3060 0 135.08 12.6592 1710 89.5719 423.425 415.736
3061 0 140.142 12.3304 1728 90.9311 423.171 415.092
3062 1 79.0339 10.2741 812 91.9581 423.552 443.48
3063 0 82.034 11.4587 940 91.4947 423.297 442.037
3064 0 82.0319 11.6418 955 92.4335 423.251 440.507
3065 0 86.0486 11.7608 1012 92.169 423.485 439.056
3066 0 88.0406 11.0063 969 86.9298 423.535 438.907
3067 0 91.0524 10.7081 975 89.1549 423.66 436.646
3068 0 94.0437 10.8248 1018 90.3841 423.947 435.121
3069 0 95.0734 11.002 1046 90.8891 423.917 433.388
3070 0 97.0416 10.6655 1035 93.7275 423.634 432.563
3071 0 102.068 11.2278 1146 93.9642 423.91 430.829
3072 0 105.079 11.4295 1201 92.9376 423.706 429.785
3073 0 105.094 11.3041 1188 94.4125 423.816 429.319
3074 0 109.095 11.2654 1229 94.0041 424.098 428.249
3075 0 111.166 11.7123 1302 94.7711 424.409 424.706
3076 0 114.061 11.4587 1307 95.8454 423.934 424.262
3077 0 118.077 11.772 1390 96.4058 423.537 420.204
3078 0 122.094 12.3266 1505 97.1754 423.955 417.353
3079 0 127.095 12.0461 1531 97.7505 423.57 416.534
3080 0 130.082 12.6689 1648 97.3495 423.07 414.118
3081 0 135.06 12.5278 1692 98.8972 422.902 412.483
3082 0 137.08 12.314 1688 101.297 423.623 408.288
3083 0 145.112 13.2449 1922 97.308 423.056 407.863
3084 0 152.095 13.9584 2123 95.6227 423.658 404.122
3085 0 158.148 13.9869 2212 94.7911 423.238 402.211
3086 0 162.133 13.8528 2246 96.6768 423.821 398.08
3087 0 168.114 13.9013 2337 95.8721 423.916 396.755
3088 0 171.112 13.2896 2274 100.333 423.952 391.756
3089 0 181.182 13.9031 2519 97.7964 422.979 389.137
3090 1 104.049 10.9083 1135 94.5207 423.725 418.345
3091 0 108.135 11.5134 1245 93.3454 423.63 415.528
3092 0 110.124 10.8878 1199 96.6606 423.319 413.033
3093 0 114.115 10.9013 1244 95.9847 423.265 413.979
3094 0 118.096 11.2704 1331 94.9677 424.179 414.37
3095 0 121.146 11.1519 1351 97.983 423.723 409.336
3096 0 124.113 11.0222 1368 99.3801 423.174 409.743
3097 0 129.074 12.2333 1579 97.304 423.331 409.356
3098 0 134.062 11.987 1607 99.8899 424.476 405.932
3099 0 137.077 12.0808 1656 98.7476 424.155 406.259
3100 0 141.111 11.8063 1666 98.6645 423.646 404.873
3101 1 80.0362 8.85849 709 90.3018 423.614 438.867
3102 0 83.0922 9.78431 813 89.6396 424.32 438.952
3103 0 84.0244 9.90189 832 91.9447 423.924 438.34
3104 0 89.0219 10.6715 950 90.4905 423.851 436.607
3105 0 92.0565 10.6565 981 90.6116 423.295 434.305
3106 0 95.0939 11.0417 1050 91.6248 423.879 431.471
3107 0 96.1134 10.5084 1010 94.0436 423.72 428.612
3108 0 100.097 10.8994 1091 93.5784 423.067 422.962
3109 0 103.114 10.212 1053 86.3428 423.624 426.332
3110 0 106.11 10.0556 1067 86.8875 423.978 424.39
3111 0 112.095 10.3663 1162 86.5138 423.917 419.938
3112 0 109.074 10.6441 1161 89.2928 424.202 419.526
3113 0 118.182 10.6192 1255 85.9394 423.504 413.563
3114 0 120.21 10.4983 1262 86.5729 423.147 413.137
3115 0 126.099 11.5068 1451 87.6892 423.292 411.177
3116 1 70.091 9.67314 678 82.7655 424.004 444.766
3117 0 72.0787 10.5856 763 82.8244 422.211 445.345
3118 0 74.054 11.208 830 82.0892 423.093 443.754
3119 0 77.1071 10.8161 834 83.0911 423.513 443.149
3120 0 80.1135 11.0593 886 80.4447 422.736 433.424
3121 0 82.0752 11.3554 932 80.0365 423.352 440.208
3122 0 84.1571 11.3241 953 80.659 424.056 435.921
3123 0 86.1479 11.0159 949 80.9979 424.078 433.861
3124 0 88.1726 10.3093 909 80.9065 424.015 431.919
3125 0 90.1369 10.4064 938 80.404 423.755 431.728
3126 0 93.1718 10.8616 1012 79.7678 424.138 432.785
3127 0 97.2697 11.6275 1131 77.6481 424.005 432.588
3128 0 98.2425 11.3088 1111 78.9352 423.939 427.498
3129 0 104.27 11.3264 1181 77.392 423.907 430.046
3130 0 107.171 11.4676 1229 79.3767 423.687 424.165
3131 0 111.138 11.2653 1252 77.8858 423.934 429.277
3132 0 113.148 11.1181 1258 78.3728 424.095 426.646
3133 0 117.218 12.1569 1425 76.301 424.331 416.425
3134 0 119.235 11.3305 1351 77.9445 423.873 415.691
3135 0 122.178 11.4177 1395 77.3663 423.373 415.751
3136 0 125.226 11.6669 1461 76.614 423.044 411.909
3137 0 128.177 11.8195 1515 75.6178 423.05 410.865
3138 0 133.318 11.2288 1497 75.3547 423.586 403.8
3139 0 136.216 11.4157 1555 74.9929 423.681 401.892
3140 0 143.239 12.3639 1771 78.4743 423.647 398.552
3141 1 76.2309 9.05145 690 77.6971 423.613 440.674
3142 0 76.1399 9.04913 689 77.447 423.614 443.897
3143 0 79.1948 9.97541 790 75.7633 423.13 439.537
3144 0 80.1451 10.3812 832 75.9099 423.898 436.905
3145 0 84.0289 10.9486 920 72.7989 423.536 438.643
3146 0 86.1598 11.5483 995 72.7668 423.44 436.825
3147 0 91.1852 11.4163 1041 72.6628 423.468 435.249
3148 0 88.1168 9.80517 864 75.2477 423.81 436.698
3149 0 88.108 9.96504 878 77.0535 423.912 435.776
3150 0 95.0438 11.3106 1075 75.4167 423.433 433.674
3151 0 97.0371 10.2847 998 76.5391 424.19 433.688
3152 0 101.037 11.3424 1146 76.5585 424.696 428.099
3153 0 104.104 11.2195 1168 77.0206 424.274 427.9
3154 0 106.058 10.7489 1140 79.0491 424.03 426.245
3155 0 110.086 11.1549 1228 79.0896 423.515 423.725
3156 0 110.056 10.7491 1183 80.8081 423.806 422.695
3157 1 127.141 15.7463 2002 66.3621 423.918 418.771
3158 0 133.201 15.8482 2111 65.7271 424.188 416.867
3159 0 128.176 11.2112 1437 78.2637 424.135 419.442
3160 0 132.126 11.7615 1554 77.0058 423.956 416.345
3161 0 136.128 11.5994 1579 76.7435 423.876 415.078
3162 0 141.137 11.2444 1587 76.3963 424.17 412.556
3163 0 145.177 11.3516 1648 77.6644 423.862 397.902
3164 0 152.22 11.4045 1736 78.3422 423.546 395.986
3165 0 158.224 13.1901 2087 76.3287 423.404 388.312
3166 0 161.257 11.429 1843 81.0781 423.33 383.858
3167 1 90.1547 9.96066 898 77.3953 423.911 421.312
3168 0 93.1943 10.6874 996 76.241 423.67 424.504
3169 0 96.135 9.84032 946 77.1596 423.574 426.317
3170 0 100.177 10.0722 1009 75.7998 423.442 419.834
3171 0 103.16 10.8085 1115 74.7148 423.778 418.451
3172 0 107.148 10.6208 1138 75.9323 423.83 418.453
3173 0 108.139 10.2276 1106 79.3002 423.66 416.489
3174 0 113.111 10.9981 1244 77.6222 423.611 415.264
3175 0 117.169 11.6669 1367 77.5033 423.168 414.684
3176 1 62.1013 9.25906 575 74.9861 424.082 441.833
3177 0 66.137 10.569 699 73.8154 423.382 443.827
3178 0 67.1292 11.1129 746 74.4236 424.145 445.854
3179 0 68.1004 9.53005 649 77.8259 424.018 431.951
3180 0 71.1649 10.0049 712 76.0688 424.897 434.496
3181 0 74.1175 10.0111 742 75.965 423.864 436.112
3182 0 75.1366 11.0598 831 74.793 424.085 434.57
3183 0 78.1639 10.6187 830 75.9458 423.769 435.063
3184 0 78.1639 10.6443 832 152.822 423.769 434.956
3185 0 83.2023 10.5286 876 77.5788 423.841 434.144
3186 0 84.1418 11.0409 929 77.7783 423.918 434.756
3187 0 86.1116 11.1019 956 77.908 424.391 435.282
3188 0 88.1747 10.5586 931 78.8829 423.944 439.38
3189 0 91.162 12.1761 1110 77.4874 424.061 439.055
3190 0 93.1514 11.433 1065 80.2638 423.004 439.62
3191 0 95.122 11.0069 1047 82.2369 422.243 439.085
3192 0 97.2146 11.5003 1118 82.6941 423.191 436.723
3193 0 100.142 11.4538 1147 81.9076 423.529 436.919
3194 0 103.158 11.6424 1201 83.2706 423.774 433.742
3195 0 106.217 11.5707 1229 84.3621 423.893 433.771
3196 0 108.139 11.4667 1240 86.0653 424.108 430.117
3197 0 112.163 12.0182 1348 85.2804 423.812 429.102
3198 0 112.167 11.8305 1327 89.165 423.188 427.301
3199 0 115.203 12.0396 1387 87.411 423.376 427.591
3200 0 117.182 11.6656 1367 89.15 424.154 426.062
3201 0 119.14 11.5998 1382 90.1939 423.551 424.578
3202 0 125.164 12.5196 1567 88.6216 424.179 422.789
3203 0 126.155 11.8505 1495 89.497 423.512 424.858
3204 0 131.204 12.0118 1576 90.356 423.063 424.249
3205 0 132.207 11.3459 1500 93.6573 423.115 422.388
3206 0 140.296 11.9462 1676 91.6235 423.547 424.03
3207 0 143.171 11.4548 1640 93.7823 423.938 423.208
3208 0 147.205 11.1205 1637 94.7666 423.663 424.049
3209 0 150.118 11.5842 1739 101.5 423.494 422.039
3210 0 152.246 11.9938 1826 100.443 423.409 418.211
3211 0 155.34 11.4008 1771 102.292 423.731 418.66
3212 1 80.0237 11.3841 911 95.1339 425.378 453.677
3213 0 84.0413 11.3397 953 95.809 424.656 452.297
3214 0 87.0797 11.5067 1002 95.0838 424.947 452.723
3215 0 88.0156 11.3275 997 95.3992 424.49 451.049
3216 0 91.0406 11.7091 1066 95.0178 424.412 449.884
3217 0 94.1019 11.3069 1064 95.4023 424.531 447.453
3218 0 97.1885 10.9787 1067 94.2062 424.396 447.515
3219 0 97.1632 10.8271 1052 94.5998 424.255 448.678
3220 0 100.12 10.7471 1076 94.8755 424.53 447.774
3221 0 102.124 9.65496 986 95.6511 424.101 445.378
3222 1 211.214 10.558 2230 104.926 424.062 391.69
3223 0 215.216 9.83197 2116 107.766 423.986 385.679
3224 1 228.341 11.0405 2521 103.898 423.59 387.746
3225 1 60.0383 8.64449 519 81.815 424.755 470.31
3226 0 63.012 9.01415 568 86.25 424.653 469.731
3227 0 64.0272 9.44911 605 84.395 424.519 467.954
3228 0 65.038 9.67127 629 84.7218 425.111 467.025
3229 0 68.0556 9.81551 668 83.9431 424.885 465.177
3230 0 69.0124 9.9982 690 83.1594 424.457 462.99
3231 0 70.0506 9.47887 664 84.3253 424.998 461.09
3232 0 77.1127 9.03872 697 84.0115 424.98 457.339
3233 0 75.0991 9.45418 710 83.5916 424.482 456.794
3234 0 76.0722 10.122 770 82.0675 424.571 454.225
3235 0 80.0989 10.15 813 81.7909 424.294 451.893
3236 0 84.1607 9.73138 819 83.8303 423.485 443.547
3237 0 86.0589 10.3766 893 83.5174 423.62 439.972
3238 0 93.0657 11.4005 1061 82.9887 423.481 412.985
3239 0 100.121 12.1254 1214 80.8781 424.094 415.937
3240 0 102.134 11.994 1225 83.2441 423.496 403.364
3241 1 55.0965 10.0914 556 77.8723 422.613 428.775
3242 0 58.2222 10.7347 625 84.0096 423.315 429.054
3243 0 59.1862 11.8778 703 82.7809 422.7 424.523
3244 0 59.2635 12.6553 750 83.0187 423.303 425.197
3245 0 62.0942 11.8852 738 83.9187 422.736 430.243
3246 0 64.211 12.5679 807 83.0087 422.943 435.037
3247 0 66.2419 12.56 832 82.899 422.932 436.548
3248 0 66.2037 12.386 820 84.3439 423.532 435.718
3249 0 68.2854 13.0628 892 82.1648 423.09 439.238
3250 0 70.2897 12.4485 875 83.9223 423.792 437.686
3251 0 71.3123 12.9992 927 82.9579 424.379 439.195
3252 0 75.2952 13.2412 997 82.2187 423.398 436.766
3253 0 76.2187 12.7659 973 83.6115 423.228 434.779
3254 0 79.2304 13.4923 1069 82.9991 423.804 435.19
3255 0 80.2378 12.7621 1024 84.3545 423.781 434.425
3256 0 81.1913 12.526 1017 86.7139 423.175 431.527
3257 0 83.3136 12.3269 1027 86.4528 423.507 426.284
3258 0 87.189 12.8112 1117 87.0483 423.596 418.013
3259 0 87.2196 12.4055 1082 89.1312 423.052 417.4
3260 0 90.1097 12.3516 1113 83.0404 423.157 419.167
3261 0 92.1145 12.6799 1168 83.3339 423.718 420.541
3262 0 95.0801 11.8111 1123 86.3045 424.468 421.667
3263 0 98.0895 12.3153 1208 84.043 424.567 424.822
3264 0 100.1 12.2078 1222 84.1056 424.766 428.414
3265 0 104.138 12.3586 1287 85.8873 424.788 423.613
3266 0 107.065 12.6652 1356 87.2058 424.51 419.516
3267 0 108.111 12.2374 1323 89.5843 423.714 419.694
3268 0 112.181 12.248 1374 90.0604 424.436 418.246
3269 0 114.095 12.3582 1410 90.5383 423.674 416.854
3270 0 117.121 12.3206 1443 91.0735 423.656 415.902
3271 0 120.056 12.0527 1447 91.4713 423.807 413.692
3272 0 123.234 12.6913 1564 89.2513 423.967 414.592
3273 0 127.15 12.67 1611 89.4506 423.692 409.593
3274 0 129.14 12.5987 1627 88.3387 423.073 409.17
3275 0 135.106 12.5013 1689 87.7241 423.922 415.514
3276 0 136.15 11.9868 1632 90.9951 423.888 412.68
3277 0 141.112 12.366 1745 89.7553 423.215 410.539
3278 1 75.1152 10.2376 769 87.7451 423.242 448.39
3279 0 79.078 10.9259 864 85.4201 423.306 451.198
3280 0 80.0733 10.2781 823 87.9077 423.776 444.563
3281 0 82.0605 9.88296 811 84.8311 422.82 432.296
3282 0 84.1079 10.4033 875 86.0537 423.008 428.251
3283 0 84.0379 10.5429 886 87.746 423.467 428.296
3284 0 89.0344 10.7824 960 86.3604 423.809 428.245
3285 0 94.0525 11.0577 1040 86.4346 423.479 428.5
3286 0 96.0323 10.7568 1033 89.4288 423.66 422.506
3287 0 98.1054 10.3154 1012 91.4891 422.731 417.701
3288 0 101.128 10.7389 1086 93.0083 422.993 418.153
3289 0 104.167 10.6559 1110 94.909 423.226 419.549
3290 0 107.094 11.5133 1233 94.0105 423.598 420.803
3291 1 217.202 12.2973 2671 98.3954 422.195 372.271
3292 1 116.197 10.2584 1192 94.198 423.091 424.745
3293 1 54.0739 9.22812 499 82.3968 423.711 451.585
3294 0 56.0647 9.77442 548 80.8741 423.536 451.675
3295 0 57.037 10.3617 591 79.7513 423.127 448.839
3296 0 58.0295 10.9772 637 78.6782 422.798 449.48
3297 0 59.0536 10.9392 646 79.1471 423.139 454.531
3298 0 63.1045 10.6965 675 79.4237 423.255 446.209
3299 0 66.0966 11.3016 747 78.1098 422.89 450.913
3300 0 67.0544 11.4534 768 79.0586 424.026 451.267
3301 0 70.0877 11.3429 795 79.5044 423.753 451.269
3302 0 70.0575 11.2622 789 81.0887 423.749 450.205
3303 0 72.0412 10.8965 785 83.3669 423.482 447.927
3304 0 77.06 11.4586 883 81.1914 423.967 447.59
3305 0 79.0674 12.0909 956 81.5983 423.277 446.045
3306 0 82.0552 11.3948 935 83.707 424.12 443.493
3307 0 84.0491 12.3499 1038 82.9316 423.102 443.802
3308 0 86.0901 12.4521 1072 83.6894 423.224 432.354
3309 0 88.0374 12.0517 1061 85.344 422.842 438.396
3310 0 93.0826 12.2257 1138 83.9736 423.201 441.496
3311 0 94.1423 11.5782 1090 87.7147 422.941 430.341
3312 0 97.1551 12.4234 1207 85.4938 423.411 435.808
3313 0 98.1172 11.792 1157 87.07 422.754 437.954
3314 0 104.117 12.2363 1274 86.7347 423.221 408.672
3315 0 105.088 13.189 1386 85.5556 422.994 409.187
3316 0 107.106 12.8004 1371 87.585 423.141 407.996
3317 0 111.075 13.1983 1466 86.0812 423.517 407.811
3318 0 111.075 13.1442 1460 169.305 424.519 407.762
3319 0 118.204 13.0283 1540 87.7526 422.879 405.555
3320 0 119.14 13.2198 1575 87.3911 422.947 403.732
3321 0 124.157 13.2252 1642 89.5 422.973 400.269
3322 0 127.228 13.181 1677 89.6124 423.173 399.651
3323 0 133.182 13.5153 1800 89.32 423.281 399.478
3324 0 136.178 13.6586 1860 89.0737 422.68 395.61
3325 0 141.231 13.6514 1928 89.9595 423.065 395.126
3326 0 145.184 13.4932 1959 91.3017 423.082 394.418
3327 0 147.159 13.1083 1929 92.9964 422.754 393.202
3328 1 75.1133 11.0367 829 86.918 423.302 433.963
3329 0 77.137 11.3953 879 87.2366 424.141 438.65
3330 0 82.0633 12.2101 1002 86.4621 424.124 438.874
3331 0 82.1179 12.202 1002 88.0918 424.606 438.521
3332 0 86.0971 12.9853 1118 90.9571 423.751 438.353
3333 0 89.1116 12.8491 1145 91.048 423.757 439.117
3334 0 89.1008 13.2547 1181 91.5749 423.467 438.573
3335 0 92.1314 13.1551 1212 91.2863 424.243 435.856
3336 0 93.0963 13.0617 1216 92.3043 423.397 434.504
3337 0 97.105 12.8315 1246 92.1701 423.101 433.852
3338 0 100.094 13.3574 1337 90.9446 423.646 432.543
3339 0 101.146 13.1196 1327 92.147 423.827 433.448
3340 0 106.115 13.4194 1424 89.2388 423.904 435.571
3341 0 109.105 13.0517 1424 90.1306 423.747 434.119
3342 0 112.153 13.7134 1538 88.5663 423.194 431.856
3343 0 114.196 13.2141 1509 89.8675 423.771 432.468
3344 0 117.179 12.9374 1516 90.8727 423.256 430.406
3345 0 120.266 12.6803 1525 91.0249 422.929 428.687
3346 0 124.291 13.6052 1691 88.2626 422.51 427.335
3347 0 129.181 13.8333 1787 87.8635 422.816 423.998
