time division length width area intensity CMx CMy
0 0 56.0604 11.7017 656 130.604 213.38 496.569
1 0 58.033 12.2516 711 126.165 212.383 496.214
2 0 58.029 12.1319 704 123.128 212.2 497.33
3 0 60.0121 12.2475 735 124.007 212.007 496.335
4 0 62.0479 12.587 781 122.376 212.018 495.817
5 0 64.0417 12.3826 793 120.59 212.277 495.884
6 0 67.0667 12.674 850 118.736 213.442 494.144
7 0 70.0989 12.6964 890 117.217 213.574 493.64
8 0 71.0264 12.7558 906 115.974 213.338 494.711
9 0 67.0572 13.6003 912 117.62 212.493 494.9
10 0 70.1094 13.9354 977 114.256 212.572 494.533
11 0 71.0733 14.4358 1026 113.799 211.449 490.095
12 0 72.105 15.3526 1107 111.813 211.925 490.66
13 0 73.0487 14.6751 1072 113.873 211.499 489.649
14 0 77.1318 14.6113 1127 112.237 211.5 489.446
15 0 77.1318 14.6243 1128 176.632 212.492 489.432
16 0 81.073 14.6041 1184 108.024 211.576 487.883
17 0 84.0711 15.3323 1289 104.537 211.629 485.975
18 0 86.1358 14.5584 1254 105.135 211.375 485.951
19 0 91.0776 14.7786 1346 102.831 211.472 483.969
20 0 92.1136 14.6884 1353 104.382 211.084 482.557
21 0 97.1147 14.6425 1422 104.848 211.032 480.976
22 0 98.1449 14.2035 1394 105.568 210.262 480.115
23 0 102.204 14.8819 1521 103.869 210.656 476.357
24 0 106.172 14.4294 1532 102.469 211.147 475.757
25 0 110.115 14.6937 1618 99.8504 210.835 474.36
26 0 114.111 15.0029 1712 98.0245 211.157 473.867
27 0 116.189 14.4506 1679 100.361 211.27 471.794
28 0 121.188 14.6632 1777 99.9285 210.505 469.586
29 1 64.2165 12.4734 801 98.3471 211.9 497.382
30 0 66.1574 12.7575 844 99.6576 211.104 495.104
31 0 69.093 13.1417 908 99.1222 211.063 495.26
32 0 71.0608 13.6925 973 102.252 209.54 494.755
33 0 72.1142 13.4232 968 103.322 209.554 490.965
34 0 77.1161 13.3435 1029 102.556 209.422 490.987
35 0 79.0518 13.5101 1068 101.659 209.671 491.204
36 0 84.1065 14.0536 1182 102.944 210.162 488.681
37 0 85.0792 13.8224 1176 99.4379 210.088 485.209
38 0 89.0624 14.1249 1258 100.926 209.444 483.35
39 0 92.1054 13.5063 1244 102.953 209.953 481.372
40 0 96.0414 13.9211 1337 103.188 209.82 479.938
41 0 96.0763 13.5101 1298 102.802 209.86 479.587
42 0 102.105 13.4372 1372 102.979 210.053 478.582
43 0 103.2 13.9535 1440 102.999 209.17 474.056
44 1 53.0239 11.3911 604 98.8477 209.919 499.747
45 0 55.0193 12.0685 664 92.2259 209.768 499.887
46 0 58.0282 12.6318 733 89.9795 210.262 499.622
47 0 58.0183 12.3926 719 90.0153 209.417 498.192
48 0 59.0301 11.9939 708 92.3037 209.766 498.778
49 0 61.0328 11.7642 718 93.0446 209.398 497.247
50 0 62.0255 11.5598 717 94.0237 210.067 496.123
51 0 67.0147 12.9076 865 89.7584 210.046 497.775
52 0 68.0451 12.6681 862 91.3446 209.437 494.47
53 0 70.0161 12.0258 842 93.1235 208.515 493.589
54 0 74.0167 13.0511 966 90.4296 209.243 492.517
55 0 76.0242 12.2066 928 92.6379 209.274 490.881
56 0 79.0317 12.9189 1021 89.2174 210.337 489.226
57 0 81.154 12.8521 1043 89.6942 209.55 488.125
58 0 82.0622 12.2346 1004 92.1564 209.582 486.584
59 0 85.0812 12.8583 1094 90.9406 208.878 484.704
60 0 90.069 12.6236 1137 89.6271 210.165 484.46
61 0 91.0953 12.6241 1150 89.4044 210.033 482.772
62 0 94.0599 12.2688 1154 90.383 209.349 482.585
63 0 97.0814 12.8037 1243 88.7739 208.822 481.131
64 0 102.13 13.6395 1393 87.9347 208.899 478.523
65 0 106.209 12.9744 1378 89.7438 209.249 476.038
66 1 55.0883 11.6359 641 87.1903 209.126 502.785
67 0 54.0683 11.4115 617 86.9968 208.394 501.285
68 0 56.0282 11.8155 662 84.5891 208.495 500.205
69 0 57.0176 11.8209 674 87.0742 208.945 499.358
70 0 58.017 11.7724 683 85.6398 208.672 500.208
71 0 61.0452 11.7782 719 85.7677 209.662 499.786
72 0 63.0741 11.5737 730 85.6548 209.001 500.244
73 0 64.0698 12.2054 782 85.3274 209.214 497.904
74 0 65.0256 11.2571 732 89.3033 209.051 496.311
75 0 67.0973 11.7292 787 88.3888 209.238 496.376
76 0 70.0163 11.8687 831 88.5042 208.653 495.356
77 0 74.0447 11.7091 867 88.9446 208.803 494.375
78 0 74.0716 11.9479 885 88.8497 208.88 492.544
79 0 79.0486 12.7896 1011 86.7349 209.204 491.623
80 0 80.1229 12.0565 966 89.3426 209.341 490.817
81 0 83.0623 11.6298 966 91.0942 209.108 488.758
82 0 87.1014 12.0549 1050 89.3714 209.184 488.926
83 0 88.0883 12.1015 1066 90.5338 209.501 486.295
84 0 91.0753 12.3305 1123 90.5272 209.684 485.469
85 1 50.0685 11.3045 566 90.2968 209.3 505.846
86 0 51.0822 10.8453 554 91.8971 209.861 504.309
87 0 52.0237 11.3602 591 89.2521 209.494 503.914
88 0 55.0412 12.1182 667 88.5937 209.849 503.495
89 0 54.0301 11.8638 641 87.9501 209.947 501.334
90 0 52.0658 10.5251 548 91.1186 210.237 503.978
91 0 55.1595 11.3852 628 88.3248 211.111 503.17
92 0 56.128 11.5272 647 88.9799 210.567 501.581
93 0 58.0686 11.6758 678 89.4204 210.569 500.236
94 0 60.1058 11.9622 719 88.9597 210.707 498.57
95 0 62.0781 11.55 717 90.5858 210.862 497.99
96 0 64.0559 11.5368 739 90.7348 210.831 497.532
97 0 67.0634 11.5562 775 91.3832 210.6 495.823
98 0 70.0816 11.7435 823 90.226 210.834 496.004
99 0 73.1382 12.1688 890 89.5618 210.326 494.893
100 0 73.1 11.8194 864 90.8877 209.995 494.082
101 0 76.0862 11.303 860 91.2035 210.121 493.757
102 0 79.1722 12.0876 957 89.6917 210.212 492.053
103 0 81.1195 11.896 965 91.3731 210.664 489.723
104 0 84.1363 12.2302 1029 91.4713 210.794 488.828
105 0 86.1501 12.4898 1076 92.1273 211.053 487.433
106 0 87.1335 11.7291 1022 94.5871 210.253 487.007
107 0 93.1062 12.3407 1149 91.9295 210.414 484.378
108 0 92.125 11.7449 1082 95.0721 209.919 482.786
109 1 46.0594 10.3345 476 88.4097 211.092 507.071
110 0 47.0261 10.5048 494 84.4312 210.706 506.233
111 0 49.2148 10.6878 526 82.6806 210.414 504.283
112 0 50.0442 11.1302 557 81.1993 210.731 506.268
113 0 48.0426 10.0952 485 84.3485 211.198 506.19
114 0 49.0813 10.9003 535 83.9477 210.626 505.764
115 0 51.0958 10.6858 546 83.9854 210.363 505.31
116 0 51.0712 10.3777 530 85.1113 210.792 504.975
117 0 55.0494 10.754 592 84.0659 209.981 504.426
118 0 56.0494 10.4551 586 83.5939 210.548 502.633
119 0 57.0586 10.9011 622 83.5466 209.865 501.043
120 0 57.0586 10.9712 626 133.093 208.866 501.091
121 0 63.0436 11.3572 716 81.6425 209.722 499.068
122 0 63.094 10.6349 671 83.0149 209.987 499.086
123 0 65.0512 11.1143 723 82.8036 210.089 497.744
124 0 67.1146 11.4431 768 82.3659 210.346 496.689
125 0 70.072 11.8164 828 83.3128 210.367 494.493
126 0 72.1515 12.0995 873 83.102 210.477 494.133
127 0 73.1008 12.3255 901 83.7492 209.906 492.498
128 0 77.101 12.0102 926 85.2322 209.832 489.894
129 0 77.0793 12.0266 927 87.1618 209.839 489.264
130 0 81.0899 12.0607 978 87.589 209.485 488.31
131 0 82.156 12.2207 1004 88.3765 209.973 486.433
132 0 86.1078 11.8921 1024 88.9014 209.756 485.328
133 0 89.047 12.2295 1089 87.6373 209.608 484.418
134 0 92.1217 12.5161 1153 85.6106 209.547 483.508
135 0 95.0832 12.2209 1162 86.1824 210.162 481.947
136 0 97.0417 12.0567 1170 87.1838 210.257 480.328
137 0 99.0865 12.6758 1256 86.5151 209.82 478.534
138 1 53.2194 10.5789 563 86.2202 209.787 500.265
139 0 55.1154 11.0314 608 85.9046 208.972 499.99
140 0 54.1239 10.7531 582 85.7646 209.567 500.084
141 0 57.1081 10.9442 625 88.2624 209.086 498.536
142 0 57.1625 10.9862 628 90.3869 209.188 499.029
143 0 58.0866 11.5001 668 90.4236 209.192 496.796
144 0 62.1614 12.2745 763 88.2569 209.16 495.775
145 0 64.2228 12.3009 790 91.2392 210.109 495.215
146 0 66.1896 11.9959 794 91.3501 210.685 495.899
147 0 69.1328 12.4543 861 91.0139 209.591 494.12
148 0 71.1337 12.4695 887 91.1454 209.701 493.584
149 0 73.1716 12.1905 892 91.8442 209.606 491.738
150 0 73.0165 11.7097 855 90.3813 208.625 492.185
151 0 75.06 11.7106 879 84.6701 208.8 492.056
152 0 79.0496 11.9672 946 84.0317 209.608 490.244
153 0 81.0586 12.2011 989 85.4075 209.202 489.62
154 0 83.0361 11.8262 982 86.6721 209.742 488.223
155 0 86.0238 12.2873 1057 87.4551 209.393 486.708
156 0 87.0362 12.5695 1094 89.0064 209.463 486.172
157 0 89.0891 12.9309 1152 89.5417 208.831 485.063
158 0 91.0553 12.3551 1125 92.5947 209.257 483.118
159 0 94.083 12.8716 1211 93.3196 209.148 481.476
160 0 98.0773 12.9286 1268 92.9898 209.483 479.957
161 0 102.04 13.0929 1336 92.4057 209.111 478.234
162 0 102.066 12.5605 1282 95.11 209.089 477.236
163 0 108.116 12.8289 1387 95.2105 208.983 475.417
164 0 110.048 13.5032 1486 95.751 208.848 474.351
165 0 114.076 13.114 1496 94.7052 208.965 471.635
166 0 119.167 13.4685 1605 93.8903 208.862 469.102
167 0 120.127 12.9529 1556 96.5495 209 466.207
168 0 125.146 13.0327 1631 95.8345 208.786 464.875
169 0 131.154 13.8615 1818 94.6744 208.928 462.318
170 1 69.0381 11.0953 766 96.8146 209.918 494.813
171 0 68.0633 11.1073 756 99.0529 209.884 493.762
172 0 72.0346 12.1747 877 100.94 209.585 490.486
173 0 74.0435 12.5467 929 102.337 209.51 488.896
174 0 76.0126 12.4716 948 105.135 209.366 488.87
175 0 79.1129 12.3621 978 105.074 209.384 487.372
176 0 81.0891 12.7884 1037 103.683 208.658 487.54
177 0 85.1462 13.0599 1112 102.059 208.32 485.488
178 0 87.0879 13.1017 1141 101.287 208.625 484.767
179 0 86.065 13.2574 1141 93.8273 208.535 484.503
180 0 89.0348 12.5344 1116 94.9436 207.927 485.356
181 0 92.0625 12.9369 1191 92.3946 207.956 483.898
182 0 94.0341 12.4529 1171 93.2143 208.015 481.247
183 0 97.0674 12.1565 1180 92.9805 208.221 479.83
184 0 100.084 11.92 1193 92.4258 208.098 478.101
185 0 102.113 11.7615 1201 92.6536 208.454 476.763
186 0 108.107 12.5154 1353 89.6681 208.669 474.149
187 0 109.135 11.4171 1246 93.203 208.57 474.242
188 0 114.073 12.4833 1424 90.5618 208.782 470.755
189 0 115.14 12.4544 1434 94.5418 208.231 469.26
190 1 63.0827 11.6038 732 93.7787 208.38 497.055
191 0 64.1019 11.8405 759 95.6588 208.539 494.771
192 0 64.0448 12.4444 797 94.8708 208.066 494.772
193 0 66.0661 11.1706 738 89.7154 208.083 495.722
194 0 71.066 12.1718 865 95.985 208.08 491.734
195 0 72.0548 12.657 912 97.1897 207.737 491.225
196 0 74.0796 12.6621 938 98.1333 207.887 489.858
197 0 76.0834 12.2629 933 99.6967 207.456 488.357
198 0 77.0502 12.4854 962 100.831 207.821 487.702
199 0 81.0948 12.7259 1032 99.0707 207.713 487
200 0 82.0574 12.2841 1008 101.652 207.986 485.754
201 0 84.0488 12.7069 1068 100.098 207.631 484.391
202 0 85.0239 12.1495 1033 129.169 207.888 483.244
203 0 90.0801 12.2003 1099 127.298 208.129 482.692
204 0 92.0735 12.1751 1121 125.153 207.615 480.79
205 0 96.067 12.2831 1180 121.769 208.211 480.765
206 1 48.0176 9.20496 442 116.495 208.258 503.919
207 0 50.0315 10.2535 513 110.222 208.197 504.341
208 0 52.0583 11.0645 576 105.486 208.719 503.446
209 0 53.0215 10.5429 559 108.764 209.424 502.17
210 0 55.0445 11.1001 611 107.232 208.092 500.646
211 0 52.0347 10.224 532 112.528 208.81 501.68
212 0 55.0328 10.7572 592 111.123 208.03 501.373
213 0 57.0204 10.4875 598 112.005 208.303 500.354
214 0 58.0213 10.703 621 111.456 208.116 499.845
215 0 59.0295 10.3338 610 112.257 208.416 499.284
216 0 61.0286 10.7654 657 112.137 208.823 499.489
217 0 62.0161 11.11 689 112.309 208.723 497.013
218 0 65.0525 10.7913 702 111.729 208.6 498.229
219 0 65.023 10.9346 711 112.785 208.114 497.152
220 0 68.0315 10.9949 748 112.9 208.213 496.015
221 0 72.0253 11.5098 829 111.908 208.075 494.135
222 0 72.0316 11.37 819 112.933 208.623 493.864
223 0 74.045 11.6821 865 113.655 209.014 491.788
224 0 78.0478 11.4289 892 113.525 209.14 491.083
225 0 79.0758 11.647 921 113.003 208.692 489.347
226 0 82.0977 11.4863 943 114.17 208.8 486.854
227 0 84.097 11.463 964 113.901 208.834 486.689
228 0 87.0948 11.8147 1029 113.272 208.63 485.496
229 1 48.0104 11.4142 548 113.974 208.792 504.588
230 0 50.0249 10.8346 542 115.443 209.044 503.701
231 0 51.0625 11.7307 599 114.018 208.743 502.826
232 0 48.0717 11.3164 544 107.638 208.169 504.754
233 0 51.0281 11.3663 580 107.579 208.248 504.964
234 0 51.0613 10.5363 538 110.957 207.896 503.454
235 0 54.0434 10.0475 543 112.324 208.155 502.959
236 0 54.1827 10.7968 585 110.932 207.872 503.468
237 0 55.0214 11.0139 606 110.795 208.769 502.8
238 0 57.0382 11.1679 637 111.926 208.648 501.972
239 0 56.0385 10.5463 591 116.142 208.733 501.484
240 0 59.0925 11.4397 676 114.849 208.586 499.749
241 0 60.0625 10.3559 622 118.394 208.252 500.047
242 0 62.0856 11.0332 685 116.869 208.172 499.22
243 0 65.0598 11.2358 731 114.624 208 497.871
244 0 66.055 11.6721 771 114.231 208.246 497.46
245 0 67.0578 11.1247 746 117.122 208.395 497.216
246 0 68.0524 10.8593 739 120.206 208.16 496.871
247 0 70.0507 12.3339 864 115.622 207.469 496.127
248 0 72.0635 11.3233 816 118.542 208.441 495.244
249 0 74.0693 11.5837 858 117.786 208.269 494.964
250 0 78.0946 11.2812 881 119.448 208.398 492.671
251 0 78.0838 11.4877 897 119.217 207.978 494.059
252 0 80.086 11.7499 941 117.982 208.542 492.543
253 0 86.1244 12.3542 1064 113.783 208.299 491.124
254 0 86.0869 11.4652 987 116.059 208.604 489.206
255 0 88.0874 11.6135 1023 116.477 208.021 488.589
256 0 91.0696 11.9359 1087 113.92 208.669 486.565
257 0 92.0842 11.7175 1079 113.348 208.626 487.003
258 0 93.0942 11.816 1100 115.109 208.548 485.441
259 0 95.0945 11.8409 1126 115.291 208.554 484.755
260 0 97.1024 11.905 1156 113.241 208.887 484.676
261 0 97.0787 11.7843 1144 117.798 208.457 484.128
262 0 98.1041 12.2217 1199 116.656 208.198 483.317
263 0 98.0917 11.7951 1157 118.069 208.417 484.723
264 0 101.05 12.0436 1217 117.592 208.735 483.287
265 0 103.071 12.147 1252 117.756 208.639 480.906
266 1 53.0199 11.0902 588 120.57 208.988 504.757
267 0 52.0134 11.1702 581 118.27 208.513 505.575
268 0 54.0216 11.5324 623 119.645 208.652 504.393
269 0 55.0286 11.9938 660 117.021 208.902 504.629
270 0 55.0262 11.231 618 121.159 208.919 504.193
271 0 55.0312 11.7206 645 119.978 208.87 503.898
272 0 56.0235 11.4595 642 120.033 208.785 502.983
273 0 58.0218 11.4784 666 116.608 209.183 503.032
274 0 57.0789 11.3352 647 115.037 208.45 503.173
275 1 85.0729 13.8352 1177 115.774 206.223 384.182
276 0 86.0835 13.8238 1190 114.858 206.132 390.319
277 0 90.0721 13.5003 1216 112.72 206.468 395.979
278 0 93.0449 13.9395 1297 113.093 205.759 401.719
279 0 95.1297 13.4343 1278 113.704 206.857 406.182
280 1 52.0507 11.7386 611 110.944 206.604 435.717
281 0 54.0667 12.1517 657 110.697 206.545 439.833
282 0 55.0382 12.7366 701 110.789 206.68 443.695
283 0 55.0755 13.1456 724 115.037 206.977 448.58
284 0 58.137 13.8638 806 110.367 207.012 449.478
285 0 57.0523 12.3045 702 111.396 205.949 453.42
286 0 59.0278 13.0447 770 110.509 206.504 454.677
287 0 60.0564 12.9711 779 110.869 206.384 459.357
288 0 62.1004 13.0756 812 109.547 206.989 465.193
289 0 64.0903 12.8881 826 110.407 206.362 463.805
290 0 66.058 13.2308 874 111.207 206.505 447.775
291 0 70.0675 13.4014 939 109.503 206.247 445.291
292 0 71.077 13.1829 937 110.38 206.518 449.24
293 0 73.069 13.0014 950 111.756 206.711 451.606
294 0 76.028 13.0215 990 112.865 206.899 453.741
295 0 78.0491 13.6068 1062 113.206 206.517 454.23
296 0 80.0815 13.0992 1049 116.112 206.236 454.242
297 0 84.0396 13.8149 1161 114.276 206.077 447.047
298 0 85.036 13.4296 1142 116.711 206.037 446.275
299 0 88.0368 13.3126 1172 118.178 206.375 444.453
300 0 93.0639 13.8614 1290 115.956 205.806 441.878
301 0 93.0478 13.133 1222 120.472 206.144 437.68
302 0 97.0462 13.5915 1319 117.972 206.121 431.031
303 0 101.063 13.6449 1379 116.78 206.885 435.286
304 1 54.0737 12.261 663 121.211 206.861 459.709
305 0 57.0756 13.123 749 116.985 207.001 457.641
306 0 60.1263 13.6047 818 115.479 207.062 456.902
307 0 61.0773 14.1951 867 112.87 206.544 456.397
308 0 63.0732 13.5557 855 113.536 207.249 457.472
309 0 63.021 12.9798 818 112.353 206.639 458.389
310 0 66.0661 12.5178 827 111.768 206.561 458.921
311 0 67.0409 12.8727 863 113.54 206.612 457.124
312 0 70.0957 13.4958 946 109.061 206.674 459.729
313 0 71.1028 13.4735 958 111.406 207.258 454.852
314 0 74.0693 13.1904 977 114.135 206.184 453.304
315 0 76.0727 13.5528 1031 114.53 206.943 452.115
316 0 77.1087 13.241 1021 115.352 206.665 452.558
317 0 80.156 13.6983 1098 114.404 206.812 452.932
318 0 83.0642 14.2059 1180 114.221 206.568 448.395
319 0 85.0939 14.1373 1203 116.49 206.364 448.987
320 0 88.1195 14.1853 1250 116.61 206.227 446.541
321 0 91.0972 14.029 1278 115.564 206.322 446.023
322 0 94.1203 14.2477 1341 115.905 206.741 445.01
323 0 96.1475 13.4689 1295 117.356 206.003 445.754
324 0 98.114 13.9328 1367 115.702 206.019 444.35
325 0 102.16 13.7627 1406 115.908 205.872 440.544
326 0 104.136 13.78 1435 116.587 205.93 438.845
327 0 108.141 13.88 1501 115.528 205.316 439.823
328 1 55.0146 11.0334 607 116.993 204.799 466.199
329 0 58.0635 11.453 665 116.287 204.795 465.427
330 0 60.0224 11.9289 716 113.757 204.564 463.068
331 0 63.0784 13.3326 841 109.367 204.935 459.181
332 0 64.1401 13.0963 840 111.819 205.036 457.901
333 0 65.1169 12.9613 844 113.771 204.686 457.754
334 0 68.1265 13.108 893 112.281 204.802 456.918
335 0 71.074 12.5925 895 114.925 204.616 457.407
336 0 73.1369 12.7979 936 114.624 203.728 454.311
337 0 74.0895 12.5389 929 116.163 204.147 453.131
338 0 77.0953 13.1266 1012 113.028 203.81 451.773
339 0 80.0587 13.0404 1044 113.074 203.628 450.991
340 0 82.0996 12.9477 1063 113.969 203.813 451.102
341 0 86.1904 12.6232 1088 112.972 204.301 450.256
342 0 87.187 12.5936 1098 112.993 203.647 447.018
343 0 90.099 12.4863 1125 112.478 203.586 446.75
344 1 48.05 10.8845 523 112.398 203.008 469.273
345 0 51.0562 11.3992 582 110.198 202.973 468.782
346 0 51.058 11.3988 582 112.294 202.296 468.754
347 0 51.056 11.9281 609 111.741 202.355 467.892
348 0 55.0783 12.1645 670 111.121 202.079 466.504
349 0 56.0918 12.2834 689 112.836 202.448 464.448
350 0 56.111 12.4931 701 112.007 202.723 464.698
351 0 59.0938 12.4209 734 110.595 202.503 463.745
352 0 61.1191 12.402 758 109.756 202.839 462.637
353 0 62.156 12.1951 758 111.781 202.644 462.466
354 0 63.0963 12.1877 769 112.247 202.588 460.521
355 0 68.1146 12.3468 841 109.964 202.417 459.637
356 0 67.1646 12.2386 822 113.032 202.344 457.955
357 0 69.1189 11.7189 810 115.21 203.92 457.059
358 0 73.2713 12.4332 911 113.552 203.593 456.726
359 0 75.2198 13.1481 989 112.816 203.753 455.073
360 0 77.2793 13.0565 1009 113.101 203.46 454.215
361 0 80.185 12.7206 1020 115.585 203.392 452.677
362 0 82.1656 12.7669 1049 114.809 203.258 451.615
363 0 85.1671 13.1506 1120 113.683 203.428 450.231
364 0 86.1731 12.649 1090 116.57 203.629 448.76
365 0 90.179 13.2292 1193 112.497 203.733 447.723
366 1 51.0829 11.6673 596 117.846 204.121 465.549
367 0 53.1606 12.2459 651 117.266 204.662 465.407
368 0 54.1439 12.7438 690 116.055 204.319 463.22
369 0 57.2001 11.8706 679 113.616 203.869 464.409
370 0 57.2043 12.0096 687 113.683 203.549 460.52
371 0 58.1802 11.9457 695 110.236 203.581 461.252
372 0 60.1478 12.0536 725 110.172 203.665 460.43
373 0 62.1926 12.0111 747 108.455 204.175 460.402
374 0 63.1093 11.9 751 107.619 203.86 459.059
375 0 66.1145 11.9792 792 105.904 204.13 457.582
376 0 66.2046 11.6457 771 104.799 204.505 457.769
377 0 69.1086 11.7352 811 102.501 204.92 459.509
378 0 71.1379 11.8362 842 99.5926 205.184 456.341
379 0 72.0899 11.6799 842 101.048 205.097 455.086
380 0 76.1479 11.7797 897 99.631 204.964 452.375
381 0 77.1865 11.7637 908 98.1663 204.801 450.848
382 0 79.1476 12.0408 953 97.1983 204.833 450.168
383 0 81.1265 12.1785 988 96.8785 205.468 448.35
384 0 86.2634 11.8822 1025 98.5707 205.265 447.371
385 0 89.1875 12.2102 1089 96.3554 205.449 445.058
386 0 91.2008 11.3486 1035 100.676 205.043 442.103
387 0 95.1513 11.7917 1122 98.0749 205.652 440.25
388 1 51.0334 12.3448 630 95.4 205.752 461.508
389 0 54.1199 11.5484 625 96.768 205.426 459.227
390 0 54.0112 11.7939 637 97.0832 205.689 459.471
391 0 57.0518 12.3572 705 95.5106 204.973 458.017
392 0 58.0148 12.1693 706 96.9193 205.935 458.129
393 0 58.0276 11.8909 690 98.4058 204.848 457.226
394 0 59.073 12.7469 753 96.1846 205.106 456.989
395 0 63.0797 11.9848 756 98.5013 205.176 456.044
396 0 65.0715 12.494 813 97.7085 205.454 456.037
397 0 66.1005 12.602 833 98.4238 205.665 454.496
398 0 69.052 12.9033 891 97.2323 205.869 454.768
399 0 70.0411 13.3207 933 97.1833 204.83 452.253
400 0 72.0613 12.2535 883 99.9366 205.12 450.555
401 0 74.0763 12.5141 927 99.6645 204.951 449.251
402 0 77.0447 12.9146 995 100.08 205.714 448.217
