time division length width area intensity CMx CMy
0 0 51.0361 13.0104 664 111.11 138.848 500.994
1 0 53.0302 12.6154 669 110.242 138.049 500.83
2 0 54.0257 14.0119 757 105.085 137.807 500.44
3 0 55.0207 13.8493 762 105.182 137.605 500.08
4 0 56.04 13.8116 774 105.196 137.544 499.599
5 0 58.0216 13.8397 803 104.224 137.854 499.326
6 0 60.0978 14.0604 845 102.762 139.14 498.328
7 0 61.0318 14.2221 868 102.308 139.077 497.904
8 0 64.0555 13.9722 895 103.31 138.861 497.102
9 0 66.0371 14.0678 929 105.123 138.127 495.85
10 0 69.0743 15.1576 1047 101.604 138.251 494.414
11 0 71.039 14.7243 1046 104.033 137.175 491.778
12 0 73.0634 14.9322 1091 103.964 137.753 492.608
13 0 75.0679 15.1596 1138 104.687 137.24 489.491
14 0 79.0305 14.6399 1157 105.932 137.126 489.861
15 0 79.0305 14.6779 1160 178.433 137.128 489.747
16 0 84.0434 14.9923 1260 105.882 137.144 486.131
17 0 85.0431 14.7572 1255 106.415 137.116 484.516
18 0 87.0392 15.0162 1307 106.307 136.849 484.461
19 0 92.0484 15.6874 1444 103.303 136.954 483.465
20 0 95.0464 15.6239 1485 103.38 136.377 482.882
21 0 96.0295 15.6931 1507 105.562 136.474 481.183
22 0 100.024 15.4662 1547 104.972 135.471 480.541
23 0 102.122 14.9626 1528 107.152 135.634 477.848
24 0 106.047 15.4554 1639 103.617 136.164 478.078
25 0 108.072 15.2676 1650 103.969 135.922 474.433
26 0 113.106 15.5341 1757 101.82 136.312 473.457
27 1 58.0293 13.0279 756 109.156 136.467 500.915
28 0 61.0501 13.8902 848 105.404 135.767 500.495
29 0 63.017 14.028 884 102.878 136.541 499.432
30 0 66.0448 14.5204 959 99.4494 135.886 498.364
31 0 68.0437 14.5201 988 102.966 136.156 496.982
32 0 70.0346 14.6927 1029 102.412 135.088 496.095
33 0 71.0745 13.9431 991 103.848 135.136 494.262
34 0 74.0431 14.1269 1046 103.713 135.128 493.332
35 0 78.0972 14.0978 1101 104.516 135.279 493.505
36 0 78.0435 14.9532 1167 103.937 135.643 492.014
37 0 82.051 14.1985 1165 103.986 135.433 488.837
38 0 84.049 14.325 1204 105.444 134.943 485.962
39 0 88.0419 14.2546 1255 104.828 135.346 485.534
40 0 90.0955 14.4402 1301 103.885 135.291 484.073
41 0 92.0566 14.5454 1339 103.557 135.243 482.878
42 0 96.056 14.4395 1387 104.11 135.225 481.828
43 0 99.0618 14.072 1394 103.848 134.293 479.335
44 0 103.104 14.0537 1449 102.979 134.776 475.803
45 0 106.091 14.5063 1539 99.9928 134.771 476.043
46 1 55.0475 11.5173 634 97.5978 135.793 502.465
47 0 58.0667 12.4856 725 94.5945 135.029 500.948
48 0 59.0121 12.5567 741 95.8165 135.35 498.876
49 0 62.0149 12.9969 806 96.3598 134.979 497.917
50 0 65.0789 12.7691 831 96.5511 135.693 496.705
51 0 66.0411 12.8556 849 98.7491 135.734 497.697
52 0 69.0451 12.7453 880 99.7716 134.974 493.858
53 0 72.0529 13.4068 966 98.6398 134.186 492.729
54 0 73.0638 13.3719 977 100.6 134.84 491.608
55 0 76.0568 12.8983 981 101.769 134.892 490.22
56 0 77.0791 13.1813 1016 100.474 135.906 488.78
57 0 80.0694 12.4767 999 101.655 135.122 486.215
58 0 82.0622 12.5515 1030 102.602 135.133 486.526
59 0 86.0753 12.7447 1097 102.647 134.376 485.217
60 0 87.0718 13.1156 1142 102.914 135.712 484.062
61 0 89.05 13.0825 1165 103.804 135.7 482.358
62 0 93.0929 13.3737 1245 102.197 134.945 482.254
63 0 96.0984 13.4342 1291 103.393 134.588 479.022
64 0 99.0955 13.3911 1327 103.216 134.644 478.185
65 0 102.091 13.4194 1370 102.48 134.993 477.656
66 1 51.0169 11.9176 608 101.442 135.368 502.63
67 0 52.0291 10.9938 572 102.692 134.79 500.311
68 0 55.0604 11.7689 648 103.639 135.275 500.298
69 0 52.03 11.4934 598 97.6656 135.249 501.365
70 0 55.0565 11.8242 651 96.404 134.333 502.169
71 0 56.099 12.0501 676 97.4438 135.315 500.765
72 0 59.0472 12.4815 737 95.0231 134.742 501.581
73 0 61.0501 11.7936 720 97.8292 134.896 497.894
74 0 62.0909 12.5461 779 97.5443 134.715 497.543
75 0 64.0489 11.8503 759 98.9354 135.075 496.012
76 0 67.0843 11.6272 780 98.5731 134.381 495.673
77 0 69.0725 12.2625 847 97.1405 134.666 495.033
78 0 70.0267 11.6241 814 99.4914 134.785 493.21
79 0 72.0345 12.1747 877 98.8506 135.019 491.861
80 0 75.104 12.4893 938 98.3102 135.387 490.838
81 0 75.0887 11.7195 880 100.631 135.195 490.808
82 0 78.0738 12.3345 963 98.0353 135.222 489.682
83 0 81.0296 12.3412 1000 97.94 135.684 487.537
84 0 83.1083 12.4175 1032 97.9545 135.751 486.391
85 0 85.0891 12.4693 1061 98.2997 135.182 486.093
86 0 88.0565 12.8554 1132 99.0168 136.004 483.517
87 0 92.0575 13.3612 1230 98.7642 135.359 481.667
88 0 94.069 12.5971 1185 102.48 135.843 480.88
89 0 99.0805 13.05 1293 100.619 135.67 478.192
90 0 101.059 12.943 1308 101.404 135.485 476.658
91 1 54.049 11.3601 614 97.6075 136.52 502.466
92 0 56.1461 11.1673 627 102.421 136.351 500.218
93 0 59.0635 11.9363 705 100.338 136.409 498.953
94 0 60.1352 12.2723 738 100.667 135.202 497.375
95 0 61.0707 12.4282 759 101.123 135.606 495.982
96 0 63.0835 11.6037 732 103.919 135.676 495.255
97 0 66.1375 12.5194 828 101.417 135.232 494.911
98 0 66.1549 12.0172 795 103.571 135.291 494.991
99 0 70.0536 12.362 866 101.275 135.286 494.498
100 0 72.0717 11.9603 862 101.848 135.245 492.893
101 0 75.0352 12.3275 925 101.132 135.161 491.942
102 0 76.0879 11.8416 901 103.371 134.899 490.597
103 0 79.1239 12.8659 1018 99.9951 135.388 491.264
104 0 81.0789 12.3953 1005 102.645 135.504 488.532
105 0 83.0668 11.894 988 104.703 135.564 487.692
106 0 87.075 12.5983 1097 102.402 134.9 486.912
107 0 88.079 12.7953 1127 103.714 135.111 484.975
108 1 45.0246 11.3049 509 99.5246 135.138 506.678
109 0 45.0248 10.994 495 87.7374 135.493 507.182
110 0 44.018 11.0864 488 88.7562 135.455 507.068
111 0 46.179 11.4987 531 87.7571 135.488 505.821
112 0 44.0404 10.0362 442 94.3394 135.715 507.143
113 0 46.0391 10.73 494 92.1336 136.049 506.393
114 0 49.0212 11.3012 554 91.0469 135.632 506.108
115 0 51.0253 11.2297 573 91.4311 135.197 505.927
116 0 53.0295 11.5407 612 90.536 135.613 505.448
117 0 54.0233 11.7542 635 90.5181 134.625 504.683
118 0 55.0338 11.7382 646 90.0557 135.074 502.542
119 0 57.0352 11.677 666 91.5991 134.444 500.637
120 0 60.0399 11.8921 714 90.5224 134.766 499.777
121 0 61.0187 11.0622 675 93.0311 134.326 499.274
122 0 64.0212 12.0585 772 90.5453 134.628 499.06
123 0 63.0522 11.4508 722 93.6413 134.891 497.648
124 0 65.082 11.6468 758 94.219 135.011 496.658
125 0 69.0416 11.9059 822 93.7214 135.162 495.445
126 0 72.1322 11.5482 833 95.1645 135.242 494.187
127 0 73.0456 12.3211 900 94.8656 134.747 493.011
128 0 75.0453 12.1926 915 96.9628 134.671 491.099
129 0 79.0902 12.7197 1006 96.7853 134.646 488.861
130 0 81.1504 12.0763 980 97.6898 134.541 488.766
131 0 83.0957 12.275 1020 97.7127 134.663 487.148
132 0 84.0656 12.6449 1063 99.0358 134.389 486.404
133 0 87.0798 12.1727 1060 101.102 134.265 484.905
134 0 90.1091 12.7512 1149 98.4282 134.293 484.272
135 0 94.0943 13.1358 1236 97.2468 134.909 482.425
136 0 96.0853 12.645 1215 99.335 135.03 481.709
137 0 99.1272 12.2973 1219 98.2322 134.747 479.838
138 1 47.013 10.9119 513 93.9006 135.729 505.055
139 0 50.0375 11.0517 553 91.2875 134.653 504.098
140 0 52.1388 11.7954 615 86.7545 135.741 501.489
141 0 51.0201 11.1917 571 92.1524 134.363 504.144
142 0 51.0136 11.0167 562 93.7295 134.482 504.509
143 0 54.0074 11.7021 632 92.144 134.622 503.002
144 0 56.0361 12.2421 686 90.0306 134.515 500.439
145 0 59.0238 12.1476 717 89.6904 135.407 499.605
146 0 61.0194 12.8975 787 89.8602 135.53 498.858
147 0 62.0565 12.1663 755 91.8106 134.46 499.191
148 0 64.0765 12.6411 810 90.8469 134.644 497.574
149 0 66.0197 12.6326 834 92.0468 134.549 495.175
150 0 68.0198 11.8936 809 100.852 133.977 494.213
151 0 70.008 12.2558 858 93.8508 134 495.767
152 0 71.0376 12.4441 884 94.2873 134.772 492.924
153 0 75.0325 12.6345 948 94.2036 134.523 492.55
154 0 78.051 13.094 1022 92.5548 134.966 492.09
155 0 78.0346 12.802 999 95.6917 134.576 489.686
156 0 79.076 12.4311 983 97.997 134.483 489.324
157 0 83.0521 12.4741 1036 97.7037 133.929 488.012
158 0 84.0535 12.3255 1036 99.1207 134.289 486.865
159 0 86.0887 13.4396 1157 97.7182 134.354 485.698
160 0 91.061 12.8156 1167 99.5613 134.123 484.651
161 0 93.0778 13.0536 1215 97.693 133.886 481.872
162 0 96.0981 13.2885 1277 98.621 133.885 481.161
163 0 99.074 12.9701 1285 98.4482 134.044 480.97
164 1 52.0251 10.5718 550 97.7182 133.778 504.095
165 0 53.068 11.1367 591 95.5854 133.941 501.545
166 0 57.0442 11.7803 672 92.7396 133.859 500.382
167 0 57.0249 12.0824 689 93.8911 133.938 499.792
168 0 61.0674 12.1341 741 90.0985 133.769 498.761
169 0 62.0332 12.3321 765 91.4967 133.966 497.609
170 0 63.0584 12.6549 798 92.3434 134.351 497.168
171 0 66.0486 12.9147 853 96.2098 133.931 494.134
172 0 66.0244 12.768 843 96.9798 133.585 493.558
173 0 69.0614 12.3224 851 97.9248 133.852 492.71
174 0 71.1688 12.646 900 97.2456 133.196 492.251
175 0 72.0447 11.5067 829 91.7141 133.796 492.516
176 0 75.0269 11.9291 895 90.276 133.257 492.418
177 0 76.0319 12.0476 916 90.3308 132.93 490.832
178 0 79.1006 11.6181 919 89.7584 133.472 489.65
179 0 81.0816 11.4206 926 89.9114 133.89 488.283
180 0 84.169 12.0828 1017 89.5516 133.314 486.289
181 0 86.0281 11.7055 1007 88.5442 133.289 486.228
182 1 45.0475 10.6332 479 90.309 132.985 505.587
183 0 48.0397 11.4072 548 88.8978 133.288 504.94
184 0 46.0248 10.9941 506 86.5455 134.342 504.008
185 0 48.0448 11.2603 541 81.6802 133.843 504.878
186 0 48.0538 10.5923 509 83.1532 133.721 503.035
187 0 49.0515 11.335 556 82.0971 133.824 503.421
188 0 52.0325 11.0892 577 80.5615 134.163 501.853
189 0 54.0359 11.6219 628 79.7245 133.631 502.134
190 0 53.0135 11.6197 616 80.3052 133.745 501.597
191 0 55.0785 11.4745 632 80.7579 134.065 501.75
192 0 57.0188 11.8557 676 80.4201 133.093 499.238
193 0 54.0333 10.438 564 87.8848 133.491 500.615
194 0 59.0455 10.9915 649 86.6888 133.814 498.966
195 0 59.0499 10.4319 616 89.7386 133.323 498.773
196 0 60.0128 10.9643 658 89.6702 133.503 497.482
197 0 63.024 11.2338 708 88.6017 132.77 495.746
198 0 66.0373 10.6909 706 90.4462 133.092 495.302
199 0 66.0139 10.725 708 90.5452 132.822 494.451
200 0 67.0643 10.8851 730 90.2027 133.218 494.005
201 0 72.0522 10.4508 753 90.1886 132.712 492.404
202 0 72.0486 10.4374 752 114.797 133.024 491.737
203 0 75.0532 10.5125 789 113.054 133.308 491.005
204 1 39.0215 9.61008 375 112.555 132.683 508.416
205 0 40.0714 10.3066 413 110.126 133.075 509.061
206 0 40.0417 10.9636 439 108.845 132.638 508.148
207 0 41.0404 10.5262 432 107.817 132.516 507.748
208 0 42.005 11.0939 466 104.376 133.039 507
209 0 41.0291 10.1635 417 109.067 133.588 506.815
210 0 41.0089 10.4611 429 109.811 132.814 507.282
211 0 43.0377 10.5721 455 108.015 133.578 507.259
212 0 44.0329 11.3097 498 107.369 132.972 506.325
213 0 44.0779 10.368 457 108.026 133.497 505.33
214 0 48.0703 10.9215 525 105.326 133.278 505.03
215 0 49.0116 10.9362 536 104.951 133.653 504.461
216 0 51.0159 11.0946 566 103.91 134.049 504.412
217 0 53.0221 11.6932 620 100.56 133.818 503.611
218 0 54.0169 12.3665 668 99.1856 133.564 502.701
219 0 54.0277 11.7162 633 101.735 133.134 502.156
220 0 56.0253 12.0303 674 100.16 133.436 501.004
221 0 58.0204 12.2715 712 100.199 133.334 498.941
222 0 60.026 12.2947 738 100.355 133.703 498.467
223 0 64.0187 12.6682 811 99.0999 133.965 497.917
224 0 66.0219 12.5867 831 99.5993 134.072 495.899
225 0 67.0518 12.2741 823 101.352 133.493 494.801
226 0 68.0361 12.5081 851 100.397 133.643 493.599
227 0 73.0356 12.8978 942 97.4342 133.795 493.885
228 0 73.0928 13.1066 958 100.847 133.574 490.463
229 0 76.0683 12.8174 975 100.698 133.234 491.485
230 0 78.0756 12.9234 1009 100.085 133.782 490.178
231 0 81.092 13.3305 1081 101.648 133.538 487.838
232 0 84.0587 12.9433 1088 102.926 133.646 486.243
233 0 85.0669 13.1073 1115 102.479 133.08 485.089
234 0 89.045 13.4763 1200 100.934 132.892 482.48
235 0 88.1072 13.1658 1160 103.488 133.233 480.587
236 0 94.0933 13.1253 1235 101.421 132.922 480.227
237 0 96.1305 12.6183 1213 102.532 133.697 478.904
238 0 99.142 13.0621 1295 102.619 133.664 477.038
239 1 48.0608 10.5075 505 101.168 134.541 503.952
240 0 52.0615 10.7757 561 99.4064 134.237 502.032
241 0 53.1434 11.9676 636 97.3868 133.767 501.629
242 0 55.036 12.4101 683 95.0498 133.646 500.521
243 0 55.0215 11.8317 651 88.3687 133.035 501.81
244 0 57.0408 11.9213 680 89.3353 133.704 500.541
245 0 58.037 10.993 638 91.5737 133.649 500.607
246 0 60.031 11.5274 692 91.4118 133.419 499.834
247 0 63.0458 11.4996 725 90.6952 132.779 499.866
248 0 65.0487 11.6682 759 90.5165 133.688 498.668
249 0 67.0582 11.9001 798 89.8471 133.341 498.155
250 0 69.1229 11.0672 765 92.4235 133.548 498.284
251 0 69.0623 10.9177 754 93.2334 133.093 496.615
252 0 73.0907 11.8209 864 89.2431 133.506 494.381
253 0 76.0962 11.7352 893 88.5935 133.233 491.567
254 0 78.0913 11.1536 871 88.7348 132.962 491.537
255 0 81.1089 11.3058 917 89.2781 132.549 489.672
256 0 83.043 11.6325 966 88.7422 133.078 487.556
257 0 87.0177 11.308 984 88.5671 133.012 485.49
258 1 47.0133 9.93335 467 89.8608 133.146 506.891
259 0 46.0439 10.1859 469 89.9488 133.102 506.748
260 0 51.0287 11.033 563 87.2504 133.29 504.718
261 0 52.0232 10.6107 552 92.7591 132.714 504.828
262 0 52.0775 11.0988 578 89.365 132.654 504.599
263 0 53.0512 11.2533 597 88.5578 133.581 503.672
264 0 55.0617 11.2056 617 87.752 133.84 502.762
265 0 57.1129 11.0133 629 87.6407 133.781 502.029
266 0 57.0412 11.3252 646 87.7616 133.539 500.808
267 0 59.0255 11.656 688 86.7311 132.984 499.708
268 0 61.0502 11.5642 706 87.796 133.084 498.506
269 0 62.0318 11.0105 683 89.205 133.463 498.391
270 0 66.0205 11.2086 740 88.3568 133.324 497.799
271 0 68.0454 12.2124 831 87.6546 133.359 495.507
272 0 71.0665 11.9043 846 89.2577 133.216 495.126
273 0 71.0538 12.4835 887 89.5265 133.718 493.498
274 0 75.0639 11.7766 884 91.569 133.053 492.739
275 0 77.0322 12.2546 944 98.8676 132.464 491.379
276 0 76.0418 11.0071 837 102.897 133.655 490.165
277 0 78.0748 11.7323 916 91.1703 133.569 488.424
278 0 81.0499 11.9063 965 99.8912 133.142 487.393
279 0 85.0741 12.2364 1041 90.3208 134.012 487.507
280 0 88.0596 12.4802 1099 90.1856 133.505 484.672
281 0 90.0587 11.9922 1080 91.8676 133.449 482.969
282 0 94.0819 12.2446 1152 92.3898 133.286 482.922
283 0 96.112 12.3918 1191 97.8883 133.923 481.203
284 0 97.0684 11.4455 1111 99.7525 133.711 480.551
285 0 100.166 11.5608 1158 98.8428 132.551 478.427
286 0 103.062 11.692 1205 98.9228 133.042 476.812
287 0 104.143 11.4073 1188 99.6027 132.146 475.094
288 0 109.114 11.2451 1227 100.229 132.675 472.612
289 0 113.234 11.8251 1339 98.1247 132.016 470.049
290 0 116.221 11.676 1357 98.3029 132.374 468.912
291 0 119.184 10.7565 1282 99.4704 132.073 466.237
292 1 64.1176 10.0908 647 96.4189 132.147 493.556
293 0 65.0945 10.6461 693 95.3911 132.32 491.554
294 0 67.1022 10.6107 712 97.3174 132.496 490.381
295 0 70.0818 11.3724 797 95.9736 132.326 489.907
296 0 72.1527 11.5311 832 94.6587 132.058 489.995
297 0 74.1124 11.8064 875 95.0274 132.287 488.483
298 0 76.1212 12.0597 918 94.4161 132.266 485.468
299 0 77.1903 11.504 888 95.2804 132.806 484.901
300 0 74.1353 10.1032 749 96.3565 132.407 477.676
301 0 75.0875 10.6676 801 95.779 132.687 475.918
302 0 82.1813 11.6693 959 94.2325 132.612 477.323
303 0 84.2027 10.9735 924 96.1234 133.107 478.319
304 0 89.1283 12.2071 1088 95.7114 132.251 482.47
305 0 90.2647 11.843 1069 96.2732 132.457 482.331
306 0 92.2139 12.471 1150 94.8774 132.586 480.62
307 0 94.1208 11.9846 1128 96.5842 132.223 479.796
308 0 97.2168 12.8167 1246 94.8499 132.799 479.116
309 0 99.1424 12.3156 1221 96.6765 132.067 477.713
310 0 103.159 12.3402 1273 96.7981 132.115 473.345
311 0 102.168 12.2739 1254 140.22 133.1 472.901
312 0 109.073 12.3495 1347 94.8723 132.176 472.982
313 0 112.095 12.7927 1434 93.4909 132.718 470.195
314 0 115.095 12.1813 1402 96.4201 131.74 468.786
315 0 118.135 12.3926 1464 97.2063 132.513 466.795
316 0 123.135 12.531 1543 96.2489 132.159 465.599
317 0 122.081 12.1394 1482 98.3738 132.264 462.498
318 0 129.22 12.204 1577 97.655 131.985 459.124
319 0 125.139 12.8178 1604 104.294 131.735 453.829
320 0 134.273 12.9959 1745 101.055 131.725 452.587
321 0 140.283 12.7314 1786 101.007 131.939 451.94
322 0 143.241 12.9851 1860 101.223 132.326 447.823
323 0 151.261 12.9445 1958 100.581 131.768 450.745
324 0 156.313 13.6777 2138 99.2886 131.829 447.789
325 0 160.272 12.9967 2083 102.1 131.663 446.403
326 0 164.338 14.0321 2306 103.144 131.686 442.334
327 0 168.31 13.2434 2229 106.924 131.128 440.855
328 0 170.276 13.3489 2273 107.313 130.81 436.106
329 0 176.272 13.1955 2326 108.911 130.825 434.862
330 0 180.377 13.7379 2478 109.149 130.617 431.111
331 0 188.292 13.6862 2577 109.885 130.309 428.733
332 0 194.366 13.5157 2627 109.959 130.514 426.603
333 0 201.286 13.8708 2792 109.885 130.459 423.685
334 0 207.252 13.7948 2859 110.257 130.562 422.497
335 0 216.327 13.3317 2884 112.163 130.195 423.321
336 1 157.197 12.3031 1934 113.198 129.747 452.816
337 0 161.215 12.8338 2069 113.414 130.07 450.297
338 0 167.156 13.4545 2249 111.181 129.833 448.854
339 0 173.179 13.6333 2361 111.867 129.78 446.3
340 0 178.201 13.395 2387 113.102 129.856 442.611
341 0 184.23 13.4886 2485 113.009 130.399 440.61
342 0 188.206 13.0389 2454 114.792 129.541 436.458
343 0 196.236 13.2239 2595 113.915 129.008 431.333
344 0 202.267 13.6602 2763 114.292 128.266 428.751
345 0 209.296 13.7413 2876 116.01 128.151 423.19
346 0 215.198 13.3644 2876 119.254 127.743 420.9
347 0 223.192 13.9476 3113 116.106 127.825 419.385
348 0 230.221 14.0908 3244 120.563 127.65 415.664
349 0 238.29 13.8529 3301 120.39 128.263 412.885
350 1 179.184 12.2165 2189 122.027 129.007 443.201
351 0 183.207 12.8925 2362 123.908 128.807 437.279
352 0 188.206 13.1133 2468 123.749 128.977 433.337
353 0 194.187 12.936 2512 124.072 128.731 430.344
354 0 200.186 12.9479 2592 124.638 128.51 427.84
355 0 205.18 12.5061 2566 126.717 128.315 426.602
356 0 211.234 13.0992 2767 126.33 128.131 423.412
357 0 218.184 13.3007 2902 126.473 129.663 422.12
358 0 223.124 13.441 2999 128.62 129.114 415.606
359 0 229.238 13.2308 3033 128.77 129.025 413.171
360 1 55.1264 8.97937 495 110.473 129.899 503.135
361 0 57.0498 9.36024 534 109.64 130.255 502.573
362 0 59.0497 10.1609 600 105.602 130.012 500.67
363 0 60.0685 10.2217 614 105.862 129.793 502.218
364 0 58.1413 9.28772 540 97.2296 130.556 505.306
365 0 62.1196 9.32073 579 96.6978 130.622 503.37
366 0 63.229 8.82507 558 98.3387 130.927 504.333
367 0 64.1627 8.69664 558 99.3315 131.391 502.799
368 0 68.087 9.59067 653 97.0475 131.123 497.83
369 0 69.2055 9.78246 677 97.7755 131.303 500.622
370 0 72.16 9.65909 697 98.0516 130.796 496.64
371 0 75.1743 10.203 767 99.1682 130.482 495.415
372 0 75.2162 9.67876 728 102.451 130.37 493.841
373 0 80.3139 9.87376 793 100.535 130.522 493.876
374 0 81.2457 10.0559 817 99.88 130.326 492.536
375 0 85.1479 10.7225 913 104.529 130.342 489.954
376 0 88.1723 10.6269 937 104.871 130.426 488.332
377 0 89.2104 10.1446 905 106.381 130.875 487.96
378 1 46.1286 9.38679 433 94.3256 131.704 509.584
379 0 46.0398 9.60039 442 98.276 132.152 510.174
380 0 50.1736 10.4637 525 93.6305 132.617 505.926
381 0 49.0722 10.3928 510 94.7726 132.273 507.096
382 0 46.0695 9.09495 419 82.4558 130.501 498.518
383 0 52.0818 10.7331 559 91.0912 130.592 506.884
384 0 49.0581 9.21357 452 100.518 130.325 506.861
385 0 51.0634 9.90926 506 97.2549 130.674 506.35
386 0 52.0241 9.91848 516 97.2946 130.374 505.688
387 0 53.0298 9.22122 489 98.9018 131.133 504.241
388 0 54.0606 9.1379 494 98.3401 131.059 504.174
389 0 57.0141 10.3483 590 94.539 130.859 504.393
390 0 58.0318 9.94282 577 96.3605 131.317 501.728
391 0 62.0511 10.2818 638 94.768 130.683 502.411
392 0 63.0557 11.1489 703 93.4794 131.865 500.939
393 0 64.0319 11.0882 710 94.0366 130.921 500.5
394 0 65.0417 11.3773 740 93.6365 131.319 499.945
395 0 67.0468 10.694 717 95.6318 131.788 498.364
396 0 69.123 11.183 773 94.0517 132.648 497.467
397 0 70.1853 11.7404 824 93.9442 132.725 495.527
398 0 72.1332 11.6867 843 94.331 133.015 496.09
399 0 74.0863 11.4866 851 93.9119 131.959 494.612
400 0 76.0638 11.9636 910 92.4253 132.278 493.842
401 0 76.1061 12.1278 923 93.7064 132.06 492.234
