time division length width area intensity CMx CMy
0 0 45.0327 14.767 665 170.229 252.176 499.478
1 0 47.0371 15.1795 714 110.164 251.206 497.992
2 0 47.0428 15.7091 739 111.303 251.67 499.436
3 0 47.0231 15.2691 718 107.032 251.277 499.234
4 0 49.0247 15.0536 738 107.442 251.453 498.984
5 0 51.0748 15.8395 809 100.644 251.269 497.19
6 0 50.0127 15.2361 762 104.23 251.325 497.546
7 0 51.0055 16.312 832 114.708 251.329 497.897
8 0 52.0466 16.3699 852 112.739 251.322 497.484
9 0 52.0204 15.8976 827 113.346 251.248 497.565
10 0 54.0289 15.5472 840 110.857 252.126 497.488
11 0 54.0126 15.4408 834 112.442 250.685 496.731
12 0 56.0273 15.8137 886 108.985 250.834 496.441
13 0 57.0439 16.163 922 107.337 250.137 495.862
14 0 57.0069 15.8402 903 109.369 249.416 495.825
15 0 57.0291 16.325 931 106.605 249.972 494.883
16 0 59.0398 15.8198 934 105.617 249.785 495.153
17 0 60.0104 15.8639 952 104.016 248.972 494.058
18 0 61.0376 16.2523 992 101.415 250.043 493.827
19 0 62.0532 15.9057 987 101.893 249.147 493.413
20 0 64.0378 16.9431 1085 97.5622 249.657 493.499
21 0 66.0359 16.2487 1073 98.2526 249.315 493.415
22 0 66.029 16.5079 1090 97.5404 250.477 491.372
23 0 68.0608 16.2061 1103 97.4125 249.792 491.939
24 0 70.0612 16.5998 1163 95.3981 249.952 491.81
25 0 69.0451 16.2792 1124 97.2109 249.274 490.133
26 0 72.0615 16.472 1187 93.9596 249.686 490.456
27 0 73.0276 16.1583 1180 95.5814 249.421 488.112
28 0 75.0796 16.1162 1210 94.9281 249.287 487.896
29 0 77.0515 16.5474 1275 92.8071 249.533 487.295
30 0 78.0692 16.9465 1323 91.3243 250.32 486.914
31 0 79.0624 15.4562 1222 94.7152 249.682 486.842
32 0 82.0464 16.8319 1381 89.3266 249.61 484.438
33 0 85.1093 16.9547 1443 87.9778 249.853 483.917
34 0 87.0756 16.1584 1407 89.2296 249.119 484.011
35 0 88.0528 16.3879 1443 88.7228 249.26 482.611
36 0 92.0534 16.7512 1542 86.0914 248.659 481.623
37 0 93.089 16.3177 1519 87.0474 249.062 479.587
38 0 96.0767 16.4764 1583 86.2963 248.862 477.382
39 0 100.072 17.7672 1778 81.9471 249.075 476.192
40 0 102.049 16.9527 1730 84.4809 248.98 475.042
41 0 105.064 17.0087 1787 84.455 249.707 473.801
42 0 108.088 17.3562 1876 83.2463 249.571 472.533
43 0 110.075 16.3071 1795 85.395 248.544 472.1
44 0 114.192 17.2955 1975 82.4522 249.104 469.083
45 0 117.15 16.9184 1982 83.6978 248.601 467.825
46 0 122.183 17.8175 2177 80.3693 248.885 467.441
47 0 125.111 16.7052 2090 82.3995 248.235 463.562
48 0 128.222 16.3233 2093 85.0029 248.929 460.103
49 0 133.162 17.4674 2326 82.1002 248.355 460.096
50 0 137.095 16.7913 2302 84.4557 248.934 458.143
51 0 139.161 16.0821 2238 87.2895 249.092 456.027
52 0 144.221 16.2321 2341 87.4938 248.971 454.289
53 0 149.118 17.4091 2596 85.042 248.348 450.991
54 0 154.084 17.0427 2626 84.8286 248.942 447.826
55 1 90.1452 13.7001 1235 89.8113 249.049 479.342
56 0 90.2137 13.6232 1229 89.9382 248.408 478.644
57 0 95.0715 14.852 1412 86.6728 248.315 479.04
58 0 96.0276 14.9853 1439 87.0069 248.725 478.065
59 0 99.1051 14.8327 1470 87.5456 247.746 477.209
60 0 106.091 14.5536 1544 88.0913 248.443 475.241
61 0 106.128 14.1244 1499 89.0754 248.62 473.115
62 0 111.107 14.3736 1597 89.2073 248.236 469.556
63 0 114.077 14.5078 1655 89.1033 248.03 467.836
64 0 120.081 13.8406 1662 89.6438 248.773 465.839
65 0 125.135 14.6243 1830 89.0738 248.201 464.844
66 1 53.0662 11.8343 628 85.0414 248.202 501.129
67 0 54.019 12.7178 687 88.9956 247.658 497.769
68 0 56.0338 13.4205 752 87.5585 247.434 495.374
69 0 57.0549 12.5493 716 83.1578 248.327 497.035
70 0 59.0324 13.2131 780 80.7385 248.835 497.149
71 0 61.1481 12.9522 792 82.3194 248.282 495.864
72 0 64.0671 12.4401 797 82.8557 248.232 495.143
73 0 65.0315 12.6862 825 83.3006 248.16 493.497
74 0 68.0446 13.256 902 81.1729 248.224 493.504
75 0 71.039 13.6404 969 80.2085 248.338 491.559
76 0 72.0637 13.5019 973 80.4913 247.996 490.171
77 0 75.136 13.0031 977 81.7083 247.954 489.104
78 0 77.0562 13.0424 1005 81.9751 248.454 487.866
79 0 79.0416 13.651 1079 81.6061 248.494 485.795
80 0 81.0779 13.5055 1095 89.053 248.594 484.657
81 0 84.158 13.5341 1139 89.8973 248.407 484.772
82 0 86.0185 13.7994 1187 89.3572 248.728 484.094
83 0 90.0463 13.6596 1230 89.4902 248.382 481.205
84 0 92.0391 13.8419 1274 88.135 248.82 480.436
85 0 94.078 13.4144 1262 89.4406 248.72 479.143
86 0 99.131 13.4771 1336 88.4738 248.763 477.037
87 0 103.075 14.6205 1507 85.2648 248.999 475.361
88 0 105.135 13.9725 1469 87.6998 249.498 473.945
89 0 108.089 14.3216 1548 86.2901 249.384 470.635
90 0 111.102 12.754 1417 89.7043 249.056 470.61
91 0 114.084 13.0781 1492 88.1253 248.964 468.239
92 0 118.113 13.4447 1588 86.5479 249.389 465.349
93 0 123.175 13.1926 1625 87.6006 249.025 463.89
94 0 125.153 13.0001 1627 90.4978 248.782 460.295
95 0 130.156 13.138 1710 89.9415 248.463 459.14
96 0 136.11 13.9813 1903 86.4566 248.566 455.938
97 1 75.1139 11.4892 863 88.8111 247.911 485.829
98 0 77.0474 12.4339 958 87.9196 249.137 485.977
99 0 80.0766 12.5505 1005 88.2279 248.761 483.477
100 0 83.0564 12.5818 1045 90.1215 248.42 485.151
101 0 85.1354 12.3568 1052 89.6302 248.812 484.193
102 0 88.104 12.769 1125 87.6347 248.433 481.634
103 0 89.0865 12.92 1151 88.5074 248.911 481.405
104 0 92.0583 12.9375 1191 87.9202 248.722 480.941
105 0 93.1488 12.5391 1168 89.4752 249.114 478.964
106 0 98.1032 13.0271 1278 87.5775 248.15 476.923
107 0 100.078 12.5602 1257 87.1949 248.895 474.902
108 0 103.121 13.0623 1347 85.7528 248.131 473.811
109 0 108.077 13.2961 1437 84.4461 248.747 472.825
110 0 107.055 11.9378 1278 78.9124 248.461 474.167
111 0 111.061 11.8224 1313 77.0404 248.101 472.34
112 0 114.067 11.6422 1328 81.738 248.123 469.299
113 0 117.135 12.1313 1421 82.8846 248.149 466.985
114 0 122.169 12.3763 1512 82.8591 248.148 464.885
115 0 127.106 12.2103 1552 82.3563 247.886 462.043
116 0 129.168 12.2554 1583 83.3405 247.678 463.74
117 0 132.14 12.0175 1588 86.2544 247.77 461.105
118 0 138.126 12.7492 1761 85.5213 248.337 458.612
119 0 141.056 13.2288 1866 86.4121 248.999 456.538
120 0 145.114 13.2172 1918 87.3384 248.673 454.671
121 0 152.121 13.4498 2046 86.5787 248.314 454.577
122 0 155.15 13.9736 2168 85.9105 248.488 450.348
123 0 158.163 13.385 2117 88.052 248.148 448.058
124 0 160.303 13.4433 2155 89.4074 248.45 447.165
125 0 167.165 14.07 2352 88.4252 248.074 445.363
126 0 170.322 13.6095 2318 90.8067 248.126 440.783
127 0 177.39 14.6739 2603 87.4783 247.67 437.9
128 0 182.314 14.2392 2596 88.6753 248.211 433.84
129 0 189.355 14.354 2718 88.1744 248.414 431.84
130 0 194.285 14.0978 2739 90.4578 248.34 428.055
131 0 201.255 14.4891 2916 89.4688 247.499 425.573
132 1 49.0631 11.2916 554 85.5469 246.859 500.619
133 0 52.0112 11.8628 617 84.6661 247.237 497.744
134 0 49.0591 11.1906 549 80.5756 247.479 501.495
135 0 50.0056 10.6788 534 81.5 247.94 500.987
136 0 52.0225 11.5527 601 80.0349 247.932 500.226
137 0 54.0243 11.3838 615 80.361 248.002 500.306
138 0 56.0527 10.9361 613 80.9135 248.088 499.32
139 0 58.0331 12.0965 702 79.7593 248.593 497.037
140 0 60.0145 11.9638 718 83.3287 247.217 496.156
141 0 61.0747 11.6251 710 82.6901 247.376 496.873
142 0 62.0343 11.9934 744 82.7487 247.638 496.327
143 0 65.0346 11.8552 771 83.393 247.227 494.741
144 0 68.0425 12.1689 828 81.9819 247.236 492.958
145 0 71.0696 12.4948 888 81.3288 247.755 492.149
146 0 73.0923 12.1764 890 81.9685 248.878 491.321
147 0 75.1074 12.4888 938 81.9659 248.004 489.894
148 0 78.0737 12.5266 978 84.1534 247.914 487.143
149 0 81.0709 13.0133 1055 82.8427 247.691 486.631
150 0 82.0674 13.0746 1073 83.7549 247.28 486.209
151 0 85.1272 12.5224 1066 84.909 247.699 485.659
152 1 42.0216 11.6131 488 85.5984 246.596 505.779
153 0 42.0424 11.084 466 89.8755 247.474 505.891
154 0 44.0298 11.038 486 90.5123 247.294 505.354
155 0 46.0961 11.1506 514 93.7451 247.751 502.912
156 0 44.0208 10.8131 476 88.4391 248.021 506.733
157 0 46.0158 10.6485 490 88.8633 247.841 505.039
158 0 47.0487 11.0736 521 89.4357 247.188 505.797
159 0 47.0207 10.9314 514 91.784 247.399 503.683
160 0 51.0687 11.0048 562 89.427 249.011 502.995
161 0 52.0396 11.3952 593 90.3626 247.796 500.472
162 0 54.0507 11.8592 641 88.7067 247.46 501.179
163 0 55.0314 11.8296 651 89.8141 247.187 500.344
164 0 57.0467 12.5336 715 88.0755 247.929 498.273
165 0 58.0436 12.3872 719 89.6092 247.8 496.047
166 0 60.0916 12.015 722 90.9889 248.028 495.01
167 0 62.0816 12.999 807 87.6171 247.092 496.299
168 0 63.0246 11.7256 739 92.0541 247.198 494.641
169 0 63.0598 12.2741 774 94.3708 247.994 494.035
170 0 65.0536 12.2514 797 93.6462 247.324 494.305
171 0 69.031 12.8783 889 91.9078 247.709 491.394
172 0 70.0564 13.432 941 91.0298 247.224 489.491
173 0 73.0725 13.3292 974 91.2197 247.602 487.565
174 0 75.0344 13.0074 976 93.1086 247.448 488.508
175 0 75.0254 12.4758 936 92.8408 247.37 487.564
176 0 82.146 15.0585 1237 91.0922 248.237 484.025
177 0 84.0848 14.2475 1198 91.9215 247.921 483.219
178 0 85.1179 13.9101 1184 94.2044 247.688 480.937
179 0 87.1145 13.5454 1180 95.2551 247.697 481.946
180 1 47.0348 10.7155 504 95.2063 248.435 502.556
181 0 48.059 11.0697 532 96.2444 247.904 500.731
182 0 47.0639 11.1338 524 85.5859 247.219 498.256
183 0 49.0344 11.8896 583 94.1578 247.976 500.369
184 0 47.0237 11.2709 530 89.0377 248.043 501.711
185 0 47.0486 10.436 491 91.9695 246.373 501.776
186 0 49.0294 11.0954 544 90.204 247.21 500.938
187 0 53.081 11.5484 613 87.7993 246.788 500.635
188 0 53.0576 11.3839 604 88.5066 246.99 498.644
189 0 56.0167 12.2642 687 85.3785 247.405 497.798
190 0 57.0656 11.9862 684 86.2822 247.007 497.007
191 0 58.0264 11.4431 664 87.7139 247.375 495.889
192 0 60.0601 12.0213 722 85.1302 246.848 494.575
193 0 63.0677 11.8761 749 84.7343 246.621 493.411
194 0 63.0416 12.1348 765 85.234 246.787 492.877
195 0 67.024 11.9062 798 85.9875 246.835 492.653
196 0 67.0436 11.5149 772 88.8679 246.448 491.516
197 0 70.0705 12.7158 891 85.3692 246.6 490.576
198 0 72.034 12.619 909 86.1496 246.76 490.241
199 0 74.0621 12.0709 894 87.9955 246.343 488.196
200 0 77.1 12.0622 930 86.3452 246.822 489.358
201 0 79.0314 12.1218 958 87.642 247.136 486.895
202 0 81.041 12.4628 1010 110.903 247.677 484.914
203 0 83.112 12.1402 1009 110.756 246.82 485.197
204 0 85.1571 12.3184 1049 108.293 247.199 484.955
205 0 91.0526 13.0804 1191 106.544 246.955 481.922
206 0 93.14 12.8946 1201 105.88 247.608 481.044
207 0 95.0988 12.4187 1181 106.988 246.76 480.077
208 0 97.0617 12.5796 1221 106.133 247.197 478.272
209 0 102.146 12.5409 1281 105.219 247.253 477.591
210 1 56.1054 11.1576 626 108.342 247.637 498.144
211 0 57.0608 11.9697 683 105.892 247.498 498.644
212 0 59.0462 12.5834 743 105.503 247.101 495.977
213 0 58.0189 11.6858 678 107.422 247.298 497.283
214 0 61.0293 11.601 708 106.068 247.109 496.968
215 0 62.0586 11.7792 731 105.64 246.906 494.822
216 0 64.0278 11.6043 743 107.301 246.673 494.813
217 0 66.0699 11.5938 766 106.856 247.114 493.218
218 0 68.0967 11.5277 785 106.437 246.972 492.739
219 0 70.0451 11.3213 793 106.107 246.555 492.09
220 0 74.0595 11.7203 868 103.758 246.441 490.539
221 0 76.1303 11.1651 850 105.48 246.827 487.821
222 0 77.107 10.855 837 106.554 246.707 487.949
223 0 81.109 11.688 948 105.225 246.948 485.482
224 0 84.0442 11.375 956 104.714 247.279 483.923
225 0 86.049 11.4237 983 107.342 246.521 483.656
226 0 89.0209 11.2108 998 108.865 246.658 481.817
227 0 91.0496 11.5871 1055 107.288 246.313 480.019
228 0 94.0688 11.4278 1075 109.324 246.822 478.481
229 1 50.0403 10.6114 531 105.586 247.126 499.949
230 0 54.0598 11.3763 615 104.158 246.654 498.642
231 0 56.1786 11.3388 637 102.333 246.427 496.898
232 0 54.035 10.3266 558 95.3047 246.849 499.817
233 0 55.0313 10.2124 562 95.3167 246.534 498.374
234 0 60.0165 11.5968 696 90.0216 246.207 495.682
235 0 60.0541 11.6895 702 91.0171 246.37 494.839
236 0 63.1013 11.1884 706 91.5411 246.268 494.178
237 0 66.1235 11.1609 738 91.0176 246.051 492.702
238 0 68.0322 11.6121 790 90.5747 245.965 493.095
239 0 70.08 11.3727 797 91.3388 246.46 490.033
240 0 70.0867 11.1148 779 92.6816 246.797 489.61
241 0 75.1506 11.7231 881 100.711 247.326 488.568
242 0 78.2025 11.4446 895 101.245 246.121 486.68
243 0 79.1236 11.9686 947 98.622 246.254 485.625
244 0 83.1307 11.2233 933 100.01 245.672 484.29
245 0 86.0905 11.2788 971 98.8424 245.851 483.216
246 0 87.0636 11.4284 995 97.6894 246.086 482.798
247 0 90.1218 11.6953 1054 96.5323 245.62 482.744
248 0 94.1132 10.7424 1011 99.2502 245.588 481.355
249 1 48.0484 9.13663 439 94.492 245.462 504.301
250 0 50.1052 9.30043 466 92.8948 245.382 502.339
251 0 51.1645 9.49878 486 92.5741 245.385 501.502
252 0 54.1862 10.0395 544 92.6213 245.151 499.882
253 0 55.1336 10.4473 576 92.1684 245.75 497.403
254 0 58.0964 10.2588 596 89.8255 246.44 498.3
255 0 58.0253 10.6161 616 91.4724 246.748 496.818
256 0 62.0431 11.0568 686 91.2872 247.012 495.395
257 0 63.0307 11.5499 728 91.9258 246.887 493.725
258 0 63.063 11.4172 720 90.3486 246.839 494.05
259 0 66.0295 11.5403 762 90.4331 246.752 492.644
260 0 66.0722 11.6993 773 91.7025 246.907 492.217
261 0 70.0652 12.103 848 89.5731 246.81 490.851
262 0 73.0527 12.5389 916 89.2478 246.318 489.99
263 0 74.0366 12.0076 889 92.3442 247.15 488.2
264 0 76.0437 11.7432 893 94.1758 247.059 487.605
265 0 77.0395 11.8251 911 95.3776 247.543 486.711
266 0 79.0342 12.1593 961 97.1873 247.754 485.915
267 0 81.0809 12.247 993 97.7623 247.065 485.09
268 0 83.0646 11.8462 984 102.578 246.697 484.06
269 0 86.0359 12.2391 1053 101.111 246.288 481.977
270 0 90.0449 11.8385 1066 100.286 246.569 481.713
271 0 92.0552 11.9928 1104 100.355 246.476 480.374
272 0 92.0652 11.0791 1020 102.461 246.662 478.728
273 0 96.0939 11.4367 1099 98.9636 247.015 476.755
274 0 99.132 10.9753 1088 98.1903 247.543 476.752
275 1 52.0524 10.3165 537 99.5028 246.467 499.074
276 0 54.1 10.5915 573 98 245.401 499.339
277 0 58.0777 11.0542 642 94.8894 246.009 498.864
278 0 58.063 11.3842 661 95.3933 246.475 497.086
279 0 60.1151 11.7608 707 95.1612 246.083 496.928
280 0 58.0291 10.5637 613 98.8303 245.982 497.352
281 0 60.0774 11.2521 676 97.4852 245.762 495.182
282 0 62.1347 10.8635 675 95.4948 245.898 495.487
283 0 63.0412 10.0252 632 97.4304 246.358 496.009
284 0 65.052 10.7606 700 95.8986 245.873 494.75
285 0 68.0796 10.6199 723 97.3389 245.617 491.451
286 0 68.0803 10.5757 720 97.6347 246.315 490.715
287 0 71.0729 11.1013 789 96.4487 245.805 489.186
288 0 73.0847 10.4399 763 97.7248 246.068 490.204
289 0 77.073 11.5994 894 95.8848 246.252 486.442
290 0 82.1343 12.09 993 95.5398 245.908 486.98
291 0 81.1046 11.9229 967 98.5843 245.085 483.957
292 0 84.0522 11.9687 1006 99.3022 245.789 483.573
293 0 87.1012 11.3202 986 100.999 245.043 482.3
294 0 89.0646 12.0587 1074 102.13 245.389 481.539
295 0 92.0959 11.7161 1079 103.563 244.976 479.051
296 0 95.2366 12.7157 1211 101.325 245.491 477.559
297 0 99.1193 12.258 1215 100.435 246.449 477.607
298 0 102.16 12.4413 1271 101.301 245.821 475.43
299 0 104.114 12.227 1273 102.504 245.584 474.162
300 0 107.178 12.5306 1343 106.747 245.183 471.843
301 0 109.134 12.7366 1390 106.658 245.377 469.904
302 0 114.219 12.6161 1441 104.365 245.52 467.741
303 0 117.245 13.024 1527 104.143 246.288 465.301
304 0 121.204 13.3906 1623 105.072 245.863 463.054
305 0 125.198 12.7238 1593 106.893 246.137 462.428
306 1 66.1637 10.9879 727 105.187 246.886 491.343
307 0 69.065 11.1055 767 103.927 245.832 493.847
308 0 70.1463 11.4475 803 105.328 245.621 492.77
309 0 71.0973 12.1242 862 106.189 246.441 489.869
310 0 73.1511 11.4011 834 110.199 246.288 489.022
311 0 76.1144 12.1133 922 109.475 246.072 488.213
312 0 79.1234 12.7522 1009 113.219 246.056 486.974
313 0 80.1384 13.1023 1050 117.134 246.681 484.439
314 0 84.0695 13.0606 1098 106.621 245.197 487.443
315 0 87.1244 13.6816 1192 107.313 245.509 486.408
316 0 88.0641 12.9338 1139 111.631 245.665 485.238
317 0 90.0849 12.8101 1154 112.714 245.694 484.334
318 0 94.1552 13.4884 1270 108.623 244.574 483.231
319 0 95.1055 13.1959 1255 113.771 245.437 482.755
320 0 99.143 13.1628 1305 112.408 245.668 481.122
321 0 101.158 13.2565 1341 112.865 245.845 478.625
322 0 103.195 12.7817 1319 122.519 245.428 475.199
323 0 107.243 13.1478 1410 119.133 245.737 473.529
324 0 111.207 13.2006 1468 118.08 245.838 474.176
325 0 114.316 12.7453 1457 120.538 245.942 470.319
326 1 62.1827 11.0481 687 120.77 246.441 495.352
327 0 64.2041 11.993 770 117.406 246.109 495.816
328 0 66.0494 11.8245 781 117.118 244.315 496.56
329 0 69.0738 12.3781 855 115.469 243.683 495.959
330 0 70.0128 12.512 876 115.954 244.158 496.281
331 0 72.0287 11.9397 860 119.676 243.942 494.463
332 0 75.0421 12.3797 929 117.731 242.445 491.526
333 0 77.0692 12.2877 947 118.069 243.141 490.603
334 0 79.0484 12.3469 976 118.27 243.688 489.474
335 0 81.0689 12.3105 998 120.801 243.374 488.046
336 0 82.0848 12.1947 1001 121.599 243.157 486.404
337 0 86.1401 12.8047 1103 117.015 243.328 485.96
338 0 88.1254 12.9702 1143 115.905 242.804 484.914
339 0 91.1447 12.6392 1152 115.37 242.475 482.541
340 0 93.0835 12.6553 1178 113.95 242.146 482.415
341 0 96.0811 12.1356 1166 112.519 243.837 481.563
342 0 98.1585 12.2659 1204 116.404 242.912 480.017
343 0 102.156 12.1775 1244 112.358 242.423 476.651
344 1 55.113 10.3424 570 99.4088 241.414 504.147
345 0 54.1146 9.86795 534 101.06 241.328 503.343
346 0 55.1439 10.5179 580 96.6707 241.628 502.14
347 0 58.1129 11.4949 668 92.7979 242.145 501.978
348 0 60.0624 11.7711 707 92.8982 241.921 500.984
349 0 60.0627 12.0208 722 93.2036 241.501 500.676
350 0 62.0506 11.7485 729 92.1413 241.576 499.65
351 0 64.0358 11.6497 746 90.2064 241.708 498.925
352 0 68.0463 12.2564 834 86.988 242.101 496.803
353 0 69.1292 11.7172 810 87.8 241.101 495.175
354 0 71.0909 11.6471 828 88.6196 242.014 493.646
355 0 73.1202 12.3769 905 87.1624 241.569 491.561
356 0 72.1034 10.8871 785 93.5771 241.154 494.539
357 0 74.0564 11.4777 850 91.6765 241.905 493.091
358 0 77.0141 10.985 846 93.1442 242.288 492.332
359 0 79.0326 11.6028 917 92.096 242.661 491.785
360 0 81.0951 11.727 951 91.3722 242.298 488.558
361 0 83.1395 11.7874 980 92.3112 242.562 488.121
362 0 87.0888 12.1945 1062 88.5348 242.292 486.425
363 0 90.092 12.5871 1134 86.9832 242.992 485.056
364 0 93.0882 12.9662 1207 86.894 242.329 484.482
365 0 97.087 12.5969 1223 86.6353 242.482 482.352
366 0 98.0748 12.6536 1241 86.6737 242.648 482.405
367 0 100.132 11.6247 1164 89.2741 243.306 481.994
368 1 55.0429 10.8279 596 89.8456 243.143 501.166
369 0 56.056 11.0425 619 88.4911 243.404 500.375
370 0 59.092 11.7275 693 84.2756 242.434 499.368
371 0 59.1058 11.0818 655 84.8611 242.466 497.921
372 0 62.1213 12.0571 749 81.7103 243.311 499.381
373 0 63.0824 11.699 738 85.4079 243.001 497.827
374 0 66.0528 11.7936 779 85.0116 242.85 497.335
375 0 68.0827 12.7051 865 81.2728 243.763 496.443
376 0 68.08 11.8537 807 84.5266 243.253 494.959
377 0 70.1342 12.4476 873 83.9771 244.034 494.066
378 0 72.0989 11.4981 829 86.4403 243.429 493.329
379 0 72.1188 10.9125 787 89.0292 244.282 494.353
380 0 74.0428 11.2638 834 90.8034 244.876 491.478
381 0 76.0714 10.7399 817 92.4761 245.053 490.726
382 0 77.0947 10.779 831 93.9699 244.2 488.492
383 0 83.0869 11.7467 976 92.4293 244.08 488.835
384 0 85.0518 12.2984 1046 92.7868 244.081 487.409
385 0 88.1511 11.8546 1045 94.2402 243.841 485.467
386 0 90.092 11.9878 1080 95.9185 243.98 483.684
387 0 92.1188 11.7348 1081 96.877 244.296 483.505
388 1 47.0593 10.4761 493 97.071 244.162 504.365
389 0 49.0165 10.9555 537 96.1453 243.926 503.516
390 0 52.0255 10.9946 572 95.1294 244.942 501.577
391 0 53.0402 11.0671 587 91.1567 243.765 500.411
392 0 53.053 11.2152 595 95.8723 243.85 500.371
393 0 53.0721 11.0227 585 89.3197 245.465 502.422
394 0 53.0541 10.8568 576 90.6597 245.547 503.016
395 0 53.0086 10.5077 557 92.465 245.28 502.153
396 0 55.0785 10.6757 588 93.1224 245.4 501.665
397 0 58.0825 10.554 613 91.261 245.45 500.493
398 0 61.0372 11.1899 683 88.6281 245.088 498.988
399 0 61.0127 10.6863 652 89.9617 245.38 498.773
400 0 64.0521 11.3033 724 88.3315 245.202 495.394
401 0 66.0475 11.1435 736 88.7812 245.37 494.023
