time division length width area intensity CMx CMy
2027 0 70.1131 12.0092 842 91.5178 1137.46 448.418
2028 0 72.1101 12.6196 910 91.3099 1137.89 447.179
2029 0 74.0778 12.4329 921 91.101 1137.59 445.825
2030 0 77.1265 12.4989 964 88.9492 1137.48 446.563
2031 0 78.0885 12.6139 985 90.0619 1137.56 444.863
2032 0 81.1296 12.745 1034 89.2398 1137.71 443.569
2033 0 83.087 12.4809 1037 90.8341 1137.28 442.249
2034 0 85.0826 12.3527 1051 91.1979 1137.97 441.087
2035 0 85.0863 12.1054 1030 86.1223 1137.91 440.064
2036 0 88.157 12.6479 1115 85.5184 1137.61 439.99
2037 0 90.1088 12.6514 1140 85.6623 1138.52 439.627
2038 0 91.0974 12.4263 1132 86.886 1138.51 437.856
2039 0 95.1364 12.2561 1166 85.6441 1138.16 437.308
2040 0 99.0762 12.7377 1262 84.5301 1138.26 432.903
2041 0 101.072 12.3873 1252 86.7684 1138.21 432.631
2042 0 105.097 13.007 1367 85.9561 1138.38 431.332
2043 0 108.107 13.1629 1423 87.2551 1138.47 428.706
2044 0 112.111 12.7017 1424 88.7065 1138.13 428.669
2045 0 115.118 12.0572 1388 90.7694 1139.27 425.746
2046 0 120.162 12.6163 1516 89.6154 1138.07 423.415
2047 0 123.188 12.696 1564 89.6055 1138.26 421.866
2048 0 126.117 12.7738 1611 90.7374 1138.52 420.176
2049 0 130.091 12.3375 1605 92.5614 1139 418.05
2050 0 135.194 12.5375 1695 92.6714 1138.22 414.728
2051 1 75.1445 11.3648 854 89.6815 1137.98 446.738
2052 0 75.1402 11.2723 847 96.4274 1138.67 444.261
2053 0 78.1943 12.1876 953 91.8678 1137.64 443.613
2054 0 81.1178 12.2168 991 88.9314 1137.98 442.577
2055 0 83.2066 12.5471 1044 88.2759 1137.95 440.601
2056 0 86.1349 12.3759 1066 88.7298 1138.83 441.384
2057 0 89.1322 13.048 1163 87.4738 1138.51 436.488
2058 0 93.1092 12.5337 1167 88.2091 1138.86 437.197
2059 0 95.1222 12.3736 1177 89.5378 1138.77 434.904
2060 0 99.0823 13.0598 1294 88.0301 1139.37 432.825
2061 0 101.093 12.5033 1264 91.1527 1138.61 432.385
2062 0 106.11 12.8923 1368 93.4634 1138.51 430.791
2063 0 109.102 12.612 1376 93.9339 1138.71 428.116
2064 0 113.127 12.5699 1422 93.725 1138.84 425.509
2065 0 119.154 13.1175 1563 90.8029 1138.9 424.969
2066 1 60.0653 11.2211 674 93.8961 1140.43 451.056
2067 0 61.1058 11.3083 691 92.6918 1139.87 450.039
2068 0 64.1001 11.7629 754 91.1525 1140.64 451.753
2069 0 65.1534 12.5703 819 90.116 1139.2 449.403
2070 0 67.0671 12.3608 829 90.9988 1140.97 447.265
2071 0 70.104 13.0235 913 84.402 1140.25 448.567
2072 0 71.0621 12.8901 916 85.7194 1139.94 447.915
2073 0 70.0538 12.0907 847 90.1606 1140.44 446.178
2074 0 72.0852 12.1523 876 90.9418 1140.1 447.114
2075 0 74.076 11.6907 866 92.6351 1139.63 444.667
2076 0 73.0717 11.8924 869 94.069 1140.26 443.13
2077 0 79.0536 12.131 959 92.9677 1139.57 440.469
2078 0 81.1268 12.3387 1001 93.4785 1139.81 439.288
2079 0 82.1373 11.846 973 95.224 1138.89 438.674
2080 0 86.1351 12.0508 1038 95.7042 1138.67 436.672
2081 0 90.1112 12.1738 1097 95.0246 1138.65 434.708
2082 0 93.1686 12.1178 1129 95.9238 1138.84 432.686
2083 0 94.181 12.7839 1204 95.4336 1138.75 434.309
2084 0 95.2094 12.2572 1167 97.8475 1138.09 430.786
2085 0 99.1855 12.4514 1235 96.417 1138.19 429.243
2086 0 103.159 12.7473 1315 96.0053 1138.6 425.873
2087 0 103.149 12.7292 1313 155.733 1137.61 425.817
2088 0 108.217 12.5673 1360 98.7882 1138.76 423.024
2089 0 113.287 12.3227 1396 99.5731 1138.93 419.931
2090 0 117.219 12.9928 1523 98.0446 1139.1 417.45
2091 0 118.124 12.4106 1466 96.4372 1138.84 415.192
2092 0 122.16 12.2707 1499 97.8752 1138.66 412.462
2093 0 126.105 12.4023 1564 96.7781 1138.07 410.832
2094 0 129.127 12.0734 1559 97.2264 1138.18 409.687
2095 0 136.156 12.5959 1715 94.9446 1138.25 408.996
2096 0 139.153 12.188 1696 97.0112 1138.97 404.441
2097 1 77.1037 10.7518 829 91.8709 1138.35 434.819
2098 0 78.0802 11.0784 865 90.7295 1138.57 434.86
2099 0 82.0673 11.4784 942 90.1263 1138.2 432.945
2100 0 84.1523 11.2653 948 92.3819 1138.71 431.858
2101 0 87.1666 11.5641 1008 91.6915 1138.53 431.978
2102 0 90.1318 11.7051 1055 92.1507 1138.74 429.867
2103 0 92.0913 11.8469 1091 92.1934 1139.17 428.079
2104 0 90.1322 10.8729 980 95.2174 1139.33 425.813
2105 0 97.23 11.7351 1141 91.9676 1139.2 424.058
2106 0 100.208 11.9253 1195 90.7498 1138.77 422.531
2107 0 101.152 11.636 1177 90.3636 1138.89 422.879
2108 0 106.315 11.5694 1230 89.4455 1138.41 420.678
2109 0 108.142 12.4374 1345 88.5822 1138.33 418.457
2110 0 111.15 12.0468 1339 88.1232 1139.05 415.654
2111 0 115.059 12.8108 1474 84.9749 1138.4 414.704
2112 0 118.09 12.7021 1500 84.0307 1138.55 413.735
2113 0 121.142 12.1593 1473 83.8676 1138.44 413.238
2114 0 122.117 11.7347 1433 86.1738 1138.16 407.057
2115 0 125.232 10.9077 1366 82.6596 1138.6 405.434
2116 0 127.116 9.85717 1253 83.4078 1138.55 405.194
2117 0 131.199 10.0306 1316 83.978 1140.01 403.488
2118 0 131.199 9.98483 1310 138.662 1141.01 403.644
2119 1 71.0321 9.54498 678 78.0221 1138.96 431.835
2120 0 71.087 9.79082 696 77.8822 1138.28 425.874
2121 0 73.0787 9.57871 700 75.4514 1139.06 426.839
2122 0 75.081 10.3621 778 80.5758 1140.22 423.707
2123 0 78.2209 10.3297 808 79.823 1139.98 423.515
2124 0 79.1195 9.83323 778 82.8432 1139.3 423.404
2125 0 84.0608 10.6709 897 79.5541 1139.18 419.765
2126 0 87.1444 11.2113 977 78.7175 1140.19 420.789
2127 0 89.2015 10.1792 908 80.4835 1139.89 418.118
2128 0 91.0868 10.2649 935 80.0257 1140.42 418.496
2129 0 99.1444 10.9739 1088 78.0827 1139.83 417.049
2130 0 94.0575 11.1102 1045 80.1177 1140.58 413.786
2131 0 101.146 10.7567 1088 79.5689 1139.73 412.05
2132 0 101.088 10.7827 1090 80.7862 1140.01 410.864
2133 0 109.094 11.513 1256 79.6863 1140.14 409.836
2134 0 118.12 13.0461 1541 74.9396 1140.42 414.476
2135 0 121.221 12.7454 1545 76.4634 1140.7 412.561
2136 1 67.215 10.3548 696 69.3808 1140.01 440.925
2137 0 71.0666 11.7214 833 68.6855 1140.02 438.586
2138 0 72.0464 11.5898 835 69.3545 1139.72 437.423
2139 0 75.1486 11.4041 857 78.9358 1139.63 438.167
2140 0 75.1031 11.1181 835 80.9665 1140.06 438.131
2141 0 77.1246 12.2659 946 80.0349 1139.43 437.377
2142 0 79.1369 11.6254 920 82.388 1139.45 436.141
2143 0 83.1824 11.7453 977 81.3132 1139.62 434.947
2144 0 84.1092 11.9131 1002 82.6148 1140.01 432.525
2145 0 88.0878 12.3627 1089 82.7466 1139.66 432.533
2146 0 89.0971 12.2338 1090 84.6725 1139.45 430.687
2147 0 92.0811 13.3035 1225 85.4278 1138.91 428.609
2148 0 95.1718 12.6298 1202 87.7879 1139.22 427.469
2149 0 98.1476 12.8276 1259 90.0866 1139.68 427.288
2150 0 101.152 13.5935 1375 93.1156 1140.34 421.22
2151 0 104.198 13.5895 1416 94.4167 1140.32 420.143
2152 0 107.114 13.6583 1463 94.5441 1139.48 421.163
2153 0 110.212 14.1998 1565 94.3917 1139.77 420.771
2154 0 112.234 13.6856 1536 96.2669 1140.86 419.509
2155 0 115.226 14.1201 1627 94.6681 1139.35 417.319
2156 0 120.215 14.474 1740 93.3333 1140.38 417.086
2157 0 123.145 14.4382 1778 94.2587 1140.37 416.19
2158 1 68.0868 11.9847 816 97.2402 1139.94 443.205
2159 0 69.0893 12.4911 863 95.876 1140.96 442.068
2160 0 71.0632 12.2989 874 85.206 1141.2 440.8
2161 0 76.074 13.408 1020 94.5961 1140.01 438.535
2162 0 75.0466 12.5655 943 91.6978 1139.45 436.017
2163 0 76.1062 12.7059 967 91.4447 1139.35 436.105
2164 0 80.0502 12.817 1026 92.3743 1139.99 434.85
2165 0 82.1173 12.7988 1051 92.0048 1141.07 433.751
2166 0 84.1 13.258 1115 91.2789 1140.32 432.726
2167 0 83.1046 13.104 1089 93.5537 1140.62 432.838
2168 0 89.1768 12.9294 1153 93.882 1140.41 430.034
2169 0 88.1051 11.6452 1026 88.7368 1140.97 432.692
2170 0 95.0905 14.3758 1367 82.4587 1140.56 425.803
2171 0 97.1157 13.8495 1345 85.1249 1140.47 423.981
2172 0 97.1401 11.9827 1164 90.6521 1140.21 424.089
2173 0 100.099 12.3678 1238 89.664 1140.54 427.127
2174 0 104.093 12.2583 1276 91.1779 1139.76 425.317
2175 0 107.168 12.569 1347 90.6756 1140.57 423.637
2176 0 111.118 13.7871 1532 87.7402 1140.26 420.724
2177 0 113.164 12.5924 1425 90.2147 1140.69 420.949
2178 0 117.1 12.3399 1445 90.5287 1140.28 419.772
2179 0 122.171 13.6284 1665 88.5099 1141.44 417.088
2180 0 126.182 13.433 1695 94.964 1140.71 412.419
2181 0 131.218 13.0699 1715 94.8706 1140.43 412.862
2182 1 67.1012 12.0713 810 91.5802 1141.21 442.526
2183 0 70.09 12.7408 893 90.8399 1142.14 440.423
2184 0 70.09 12.6837 889 163.606 1143.16 440.441
2185 0 74.1109 11.8471 878 87.8929 1140.78 439.764
2186 0 78.1348 11.9793 936 87.0556 1140.7 438.734
2187 0 79.1143 12.3619 978 86.5706 1141.2 435.916
2188 0 84.161 12.785 1076 84.855 1141.29 435.918
2189 0 86.2113 11.8894 1025 87.3112 1140.88 434.885
2190 0 87.19 12.4326 1084 87.2777 1141.14 431.779
2191 0 90.1528 12.6785 1143 85.9326 1140.69 432.493
2192 0 93.1273 13.1433 1224 85.5024 1140.72 429.806
2193 0 97.1602 12.7521 1239 86.4245 1140.58 428.928
2194 0 98.1104 12.7204 1248 86.4527 1140.44 427.875
2195 0 100.156 13.0996 1312 87.3102 1141.06 426.527
2196 0 102.087 12.9889 1326 88.0988 1140.94 426.247
2197 0 106.09 13.1775 1398 86.9843 1140.85 423.736
2198 0 108.14 13.1958 1427 86.9993 1141.15 423.627
2199 0 111.108 13.1764 1464 87.4795 1141.27 421.462
2200 0 116.142 13.1477 1527 86.6582 1141.08 422.05
2201 0 120.135 13.1935 1585 86.9167 1141.21 420.275
2202 0 124.283 13.1474 1634 87.9076 1141.04 417.66
2203 0 128.269 13.0897 1679 87.8594 1140.17 416.482
2204 0 131.122 13.1328 1722 89.0552 1140.29 412.746
2205 0 135.155 12.9481 1750 89.7109 1140.97 410.018
2206 0 139.256 12.4806 1738 91.4465 1140.08 407.449
2207 0 143.254 12.9909 1861 90.8624 1140.32 405.55
2208 0 149.08 13.3418 1989 91.0985 1139.8 401.52
2209 0 153.225 13.242 2029 92.3346 1140.14 399.779
2210 0 159.223 13.12 2089 92.4998 1140.67 398.643
2211 0 162.183 13.2012 2141 93.156 1140.72 395.668
2212 0 169.139 13.2081 2234 93.278 1140.4 391.816
2213 0 175.269 13.2026 2314 93.5078 1140.05 389.444
2214 0 181.142 13.7848 2497 92.863 1140.46 387.381
2215 0 187.161 13.2667 2483 94.8558 1139.36 383.728
2216 0 192.242 13.7067 2635 93.6565 1139.37 380.398
2217 0 199.303 12.7996 2551 94.7154 1139.48 380.035
2218 1 122.14 11.4214 1395 88.8072 1139.27 418.579
2219 0 124.124 11.271 1399 91.376 1140.34 416.326
2220 0 128.165 12.0235 1541 90.3692 1139.57 413.408
2221 0 133.082 12.5937 1676 88.4982 1140.31 411.777
2222 0 136.207 12.5838 1714 88.0758 1139.88 410.566
2223 0 142.181 12.6389 1797 87.6784 1140.04 407.849
2224 0 148.137 12.88 1908 86.9911 1140.21 406.203
2225 0 153.226 13.1048 2008 87.0463 1139.94 404.138
2226 0 158.277 13.1731 2085 87.4758 1138.49 401.214
2227 0 163.233 13.006 2123 87.8422 1139.02 400.204
2228 0 170.392 13.6391 2324 87.0146 1139.53 397.733
2229 1 86.2913 12.0754 1042 86.9098 1139.65 441.095
2230 0 90.1735 13.1081 1182 85.9382 1139.3 437.583
2231 0 93.2435 12.9446 1207 86.6711 1139.65 434.841
2232 0 95.214 13.2439 1261 88.4766 1139.84 431.272
2233 0 97.1737 13.1311 1276 89.9248 1139.43 434.728
2234 0 102.182 13.2509 1354 89.1012 1140.1 431.591
2235 0 104.322 12.7011 1325 90.637 1139.94 431.61
2236 0 107.2 13.0877 1403 90.2609 1139.65 429.17
2237 0 112.133 13.0381 1462 89.4343 1139.07 425.825
2238 0 114.231 13.1401 1501 89.1146 1139.78 425.999
2239 0 118.323 12.9729 1535 91.501 1139.03 423.21
2240 0 123.194 13.288 1637 90.4557 1138.66 421.116
2241 0 126.194 12.7344 1607 91.7691 1138.72 418.559
2242 0 128.27 11.3433 1455 87.0763 1139.24 420.34
2243 1 66.1503 11.8669 785 87.4229 1138.9 447.832
2244 0 69.0998 12.4024 857 84.5928 1138.72 447.725
2245 0 71.127 13.033 927 79.8533 1139.11 448.955
2246 0 71.1796 12.04 857 85.7865 1139.96 447.687
2247 0 71.0881 11.746 835 87.4491 1139.69 448.321
2248 0 75.1655 12.0534 906 87.2616 1140.15 448.3
2249 0 77.0707 12.508 964 88.5685 1140.61 446.789
2250 0 80.1245 12.7052 1018 89.0806 1139.92 445.352
2251 0 87.1285 10.1459 884 94.2477 1140.11 446.293
2252 0 87.2261 10.9371 954 93.4402 1139.44 445.788
2253 0 85.166 11.8357 1008 94.4851 1140.05 441.783
2254 0 89.1512 12.1816 1086 94.5534 1139.74 439.413
2255 0 92.2863 12.5046 1154 94.4549 1140.15 439.803
2256 0 93.1918 12.3294 1149 97.0392 1139.32 437.294
2257 0 99.1536 13.0404 1293 94.3442 1140.1 435.85
2258 0 100.163 12.3698 1239 96.3761 1140.47 433.951
2259 0 104.259 11.8071 1231 96.7116 1139.48 433.306
2260 1 56.0996 11.4083 640 101.433 1140.38 454.477
2261 0 58.0805 11.8629 689 99.7228 1140.32 453.769
2262 0 58.1063 12.4771 725 100.108 1139.78 452.643
2263 0 61.1095 12.3221 753 99.5365 1140.47 451.952
2264 0 62.0479 12.4742 774 99.9948 1140.12 451.371
2265 0 65.0942 13.1041 853 97.9883 1139.54 449.408
2266 0 66.0908 13.0124 860 96.4663 1139.29 447.95
2267 0 67.0532 12.9599 869 98.7814 1139.64 448.631
2268 0 67.0882 12.4016 832 100.94 1139.81 446.501
2269 0 72.111 12.564 906 98.7671 1140.92 446.853
2270 0 73.122 12.3082 900 100.444 1140.15 444.723
2271 0 74.0745 12.5414 929 101.625 1140.34 442.551
2272 0 76.0315 12.7973 973 100.765 1140.22 443.166
2273 0 81.1623 13.0356 1058 98.5369 1140.77 441.545
2274 0 82.1646 12.621 1037 99.7252 1139.6 440.216
2275 0 84.1474 12.2761 1033 101.401 1140.1 439.323
2276 0 88.0885 12.442 1096 101.172 1139.78 438.12
2277 0 91.0903 13.0859 1192 98.9438 1139.68 435.743
2278 0 96.1092 13.0268 1252 98.6558 1140.93 435.645
2279 0 95.144 13.0959 1246 100.644 1139.89 432.918
2280 0 100.122 13.054 1307 100.358 1139.5 432.015
2281 0 103.116 13.0242 1343 100.319 1139.72 428.276
2282 0 105.046 12.823 1347 101.036 1140.08 426.929
2283 0 111.096 12.9977 1444 99.5921 1139.87 424.939
2284 0 114.108 13.5136 1542 97.5759 1140.54 424.648
2285 0 118.108 13.8433 1635 96.4018 1140.62 422.984
2286 1 56.078 10.842 608 107.413 1139.58 447.538
2287 0 60.0558 11.6059 697 103.924 1139.66 447.496
2288 0 63.0501 12.5297 790 100.206 1140.15 445.084
2289 0 65.0524 11.9135 775 102.836 1140.01 443.555
2290 0 64.0968 11.6387 746 105.011 1140.02 444.221
2291 0 68.0601 12.2098 831 103.345 1139.89 444.099
2293 0 68.0754 11.8251 805 106.061 1139.7 442.429
2294 0 72.0369 12.216 880 103.838 1139.61 441.323
2295 0 72.0541 12.2408 882 105.141 1139.91 440.85
2296 0 76.0299 11.9295 907 105.851 1140.14 439.087
2297 0 79.0444 12.7017 1004 102.878 1139.53 435.209
2298 0 80.0294 11.8332 947 106.436 1139.83 432.837
2299 0 85.0852 12.035 1024 105.94 1140.3 429.266
2300 0 89.0666 12.4064 1105 104.799 1140.17 427.995
2301 0 91.0626 12.6616 1153 104.095 1139.81 426.003
2302 0 92.0482 12.526 1153 104.852 1140.72 423.729
2303 0 96.0734 12.3551 1187 105.163 1139.82 422.059
2304 0 101.094 12.0779 1221 105.191 1140.4 420.707
2305 0 104.105 12.8332 1336 102.84 1139.53 417.496
2306 0 103.11 12.3266 1271 105.562 1139.04 415.033
2307 0 113.096 12.4407 1407 102.075 1139.39 413.784
2308 1 60.1057 7.28717 438 88.1598 1139.66 443.404
2309 0 62.0612 8.73332 542 84.6587 1140.18 443.127
2310 0 65.0212 9.30466 605 84.3802 1140.34 441.124
2311 0 67.0347 10.4573 701 94.5264 1139.68 440.368
2312 0 67.0301 10.4729 702 144.783 1138.69 440.459
2313 0 69.0567 10.1366 700 83.2429 1139.61 437.997
2314 0 73.0376 10.3782 758 95.7467 1140.01 438.414
2315 0 73.0416 9.89848 723 97.0415 1140.52 436.609
2316 0 77.071 10.0427 774 95.5297 1140.25 436.386
2317 0 79.0448 9.50094 751 95.7324 1139.59 435.68
2318 0 79.0334 10.1223 800 95.1688 1139.62 434.205
2319 0 82.0536 9.72535 798 94.2055 1138.92 431.304
2320 0 85.077 11.5895 986 80.1359 1139.13 424.565
2321 0 86.0656 11.2937 972 82.6852 1138.56 423.22
2322 0 89.0992 10.3592 923 86.4431 1138.37 422.374
2323 0 91.0946 8.99065 819 90.1074 1137.95 421.47
2324 0 92.0564 8.63601 795 91.5924 1138.26 422.003
2325 1 47.0259 8.10191 381 74.6352 1138.52 448.36
2326 0 51.0378 8.22919 420 71.6643 1138.39 445.919
2327 0 50.0353 8.6339 432 71.0139 1139.29 444.31
2328 0 51.0431 9.01199 460 71.9413 1138.18 441.07
2329 0 58.0668 8.64521 502 86.0319 1138.34 442.359
2330 0 59.0798 9.52949 563 84.2149 1138.92 441.298
2331 0 62.0405 9.78393 607 84.3328 1138.97 436.275
2332 0 62.1048 9.78991 608 86.5855 1139.05 437.691
2333 0 65.0581 9.89885 644 87.2283 1138.53 438.199
2334 0 68.1105 9.49927 647 88.7094 1138.82 437.564
2335 0 70.0837 9.81684 688 89.452 1138.99 436.744
2336 0 69.0531 9.76061 674 91.4748 1140 436.691
2337 0 73.0452 10.1718 743 90.9771 1139.43 436.289
2338 0 69.0308 9.9231 685 95.8175 1139.41 433.766
2339 0 77.137 10.0989 779 93.2773 1140.25 435.166
2340 0 77.0914 9.6898 747 96.0428 1140.88 433.909
2341 0 77.1518 10.2136 788 96.0393 1141.45 433.6
2342 0 81.0893 10.5193 853 94.1383 1141.26 432.791
2343 0 82.1088 10.1085 830 96.2301 1141.19 430.947
2344 0 87.1192 10.3536 902 93.9945 1141.34 430.092
2345 0 90.1074 10.1213 912 93.6952 1141.03 428.477
2346 0 92.1533 10.7321 989 92.459 1141.12 428.431
2347 0 93.0621 9.91811 923 94.3456 1140.5 426.038
2348 0 98.0555 9.79038 960 93.5479 1140.54 425.701
2349 1 50.0216 8.81619 441 81.7823 1139.53 452.499
2350 0 50.0762 8.44712 423 85.2293 1138.58 450.073
2351 0 52.0169 7.68981 400 79.6525 1138.84 453.575
2352 0 50.0279 8.97499 449 80.9555 1139.49 450.909
2353 0 55.0897 8.47708 467 79.7216 1138.78 452.745
2354 0 58.0318 8.85721 514 80.251 1138.02 451.527
2355 0 56.0359 8.36964 469 82.71 1138.89 450.966
2356 0 61.0915 8.38087 512 82.7363 1138.47 450.318
2357 0 67.1308 9.08674 610 78.5934 1138.21 450.746
2358 0 69.0926 9.94317 687 78.0728 1137.96 450.735
2359 0 70.1002 9.67187 678 79.2802 1137.97 451.329
2360 0 71.1088 9.47843 674 81.8442 1138.39 448.991
2361 0 73.1644 9.90919 725 82.411 1137.89 448.79
2362 0 73.1628 9.49937 695 84.1655 1137.78 447.869
2363 0 75.1387 9.74199 732 83.8142 1137.26 445.503
2364 0 80.1014 10.7739 863 81.1425 1137.69 446.203
2365 0 81.0603 10.4613 848 82.855 1137.11 444.162
2366 0 84.0852 10.1207 851 84.9988 1137.25 443.961
2367 0 83.0853 9.66477 803 87.076 1136.44 441.615
2368 0 89.147 10.1742 907 83.398 1136.53 440.598
2369 0 90.1149 9.58776 864 85.4005 1136.92 438.811
2370 0 93.1417 9.89889 922 84.9631 1136.37 436.118
2371 0 95.101 10.3048 980 85.8949 1137.02 433.201
2372 1 56.1142 9.81926 551 78.7913 1137.07 455.982
2373 0 57.055 9.63982 550 86.4364 1137.73 454.624
2374 0 61.1512 10.6294 650 85.4785 1136.96 455.635
2375 0 58.0197 8.16964 474 78.9093 1136.75 454.667
2376 0 62.0656 9.92498 616 76.677 1137.02 452.977
2377 0 63.0354 9.77228 616 76.3945 1137.2 452.581
2378 0 65.0486 10.0233 652 76.9095 1136.69 450.403
2379 0 66.0831 10.6835 706 76.5099 1137.29 449.211
2380 0 71.0595 10.4701 744 75.1438 1136.86 448.446
2381 0 71.0748 10.4819 745 76.8336 1137.1 445.936
2382 0 73.063 10.3883 759 77.5613 1136.18 442.668
2383 0 78.067 10.8112 844 78.3898 1137.34 441.46
2384 0 78.048 10.0963 788 79.9074 1136.8 440.107
2385 0 84.0845 10.4181 876 77.2922 1137.08 438.645
2386 0 86.1076 10.6727 919 76.5811 1136.93 436.041
2387 0 89.0566 10.2968 917 74.3555 1136.97 437.99
2388 0 89.1431 9.7035 865 72.0173 1137.6 433.681
2389 0 92.1707 9.00503 830 72.6506 1137.5 431.655
2390 1 52.0505 9.60606 500 65.812 1138.08 453.778
2391 0 52.0167 9.72765 506 66.3478 1139.06 452.257
2392 0 52.0416 9.41555 490 65.9347 1138.34 449.853
2393 0 56.0727 10.0584 564 64.7376 1138.14 450.754
2394 0 58.0295 10.7704 625 62.8432 1138.6 448.675
2395 0 58.0259 9.58193 556 65.8363 1138.93 447.018
2396 0 61.0255 10.3399 631 77.3788 1139.01 447.041
2397 0 64.0373 10.2128 654 76.6743 1139.08 445.792
2398 0 66.0231 10.1783 672 76.1101 1138.85 444.403
2399 0 65.0365 10.6556 693 75.6479 1139.95 441.833
2400 0 68.0302 11.098 755 74.2636 1139.23 443.008
2401 0 69.0226 10.7356 741 75.4494 1139.43 440.814
2402 0 70.0221 9.62553 674 77.8457 1139.03 440.466
2403 0 74.0697 10.2066 756 71.6587 1139.23 441.046
2404 0 74.0407 9.44076 699 74.588 1139.24 438.878
2405 0 79.0518 10.7777 852 76.9495 1140.04 438.189
2406 0 84.0552 10.3622 871 77.8507 1139.88 436.582
2407 0 84.0504 11.16 938 77.9222 1140.58 435.277
2408 0 85.0743 11.2725 959 78.951 1139.88 435.689
2409 0 90.0328 11.9623 1077 78.2052 1140.51 433.632
2410 0 94.0784 11.8518 1115 79.2197 1139.81 432.748
2411 0 97.0956 12.4825 1212 79.4769 1140.46 431.14
2412 1 48.0718 9.02816 434 81.4055 1138.84 455.753
2413 0 48.0386 10.8038 519 79.5183 1140.25 456.499
2414 0 50.1701 10.9826 551 80.2722 1140.03 454.107
2415 0 51.1374 10.4816 536 83.4384 1140.5 453.319
2416 0 55.1446 10.0826 556 79.8705 1138.49 451.928
2417 0 55.055 10.5168 579 80.9845 1139.1 450.765
2418 0 58.1196 10.8053 628 80.3408 1139.28 451.674
