time division length width area intensity CMx CMy
0 0 55.0667 12.4576 686 143.708 100.726 496.606
1 0 56.051 12.7384 714 139.293 101.055 495.315
2 0 59.1053 13.2983 786 133.256 101.443 494.527
3 0 62.0996 12.9792 806 130.081 100.906 495.558
4 0 63.0938 12.3784 781 130.064 100.924 494.12
5 0 66.0332 12.8572 849 124.417 100.751 493.823
6 0 66.0663 11.8971 786 127.588 101.07 492.047
7 0 69.0603 12.8873 890 121.842 101.065 493.336
8 0 71.0636 12.7491 906 122.81 101.082 490.429
9 0 73.0342 13.0487 953 120.401 101.059 488.971
10 0 74.0273 12.671 938 119.336 101.99 488.898
11 0 79.0628 12.5596 993 117.816 100.722 488.128
12 1 42.0316 12.443 523 120.543 100.602 503.807
13 0 43.092 12.9258 557 119.379 99.8456 503.083
14 0 45.0331 12.7684 575 120.948 99.2643 501.772
15 0 48.0326 13.1785 633 116.201 100.074 501.175
16 0 46.0085 13.0628 601 112.669 99.8918 503.158
17 0 48.015 13.4958 648 111.56 98.6204 501.983
18 0 50.0354 13.4904 675 110.357 99.6874 502.668
19 0 51.0236 13.2684 677 110.458 98.7386 501.303
20 0 53.0296 13.4642 714 109.403 99.4132 500.436
21 0 54.0212 13.7354 742 109.131 98.8666 499.611
22 0 56.0163 13.5496 759 108.258 100.262 498.992
23 0 59.0167 13.7927 814 107.408 99.4902 496.472
24 0 62.0231 13.5111 838 107.592 99.5656 496.22
25 0 65.0123 14.4896 942 104.414 98.8673 494.661
26 0 68.0558 14.5469 990 103.523 99.4263 494.485
27 0 68.0392 14.3888 979 105.694 99.0725 492.591
28 0 72.0465 14.5045 1045 104.911 98.7215 490.952
29 0 74.1153 14.6529 1086 103.871 98.9236 490.218
30 0 76.0483 14.1489 1076 105.742 99.8439 488.837
31 0 78.0756 14.7037 1148 104.206 99.1542 487.225
32 0 82.07 14.4511 1186 103.776 99.0725 486.177
33 0 84.0992 14.471 1217 104.411 99.2572 483.499
34 0 88.0766 14.6691 1292 103.615 98.2469 482.287
35 0 90.1508 14.8196 1336 103.023 98.756 480.801
36 0 93.1013 14.6722 1366 102.132 98.2672 480.052
37 0 96.0913 14.3301 1377 101.397 98.7146 477.281
38 0 100.223 15.196 1523 98.4747 98.5272 475.72
39 0 103.11 14.5475 1500 100.195 98.6807 473.261
40 1 52.0995 11.2669 587 100.792 98.5945 498.259
41 0 52.0338 11.5694 602 100.028 99.3987 494.752
42 0 58.0966 13.4259 780 103.009 98.8859 496.818
43 0 57.0397 13.2364 755 99.0331 98.0146 498.689
44 0 61.0299 13.5343 826 97.1465 98.5351 496.667
45 0 62.0876 13.7225 852 97.5 98.0962 495.67
46 0 66.0666 13.1837 871 97.8106 98.2285 495.497
47 0 67.0104 13.7441 921 96.3702 97.785 494.767
48 0 69.0647 13.7407 949 99.7576 98.6976 490.997
49 0 71.0351 14.3028 1016 98.8346 98.0679 490.625
50 0 73.0585 13.8109 1009 100.56 98.5837 490.309
51 0 78.0228 13.7524 1073 96.0699 98.6552 488.654
52 0 79.0675 14.5319 1149 94.9774 98.5457 485.416
53 0 82.0391 14.6637 1203 95.0889 97.9992 484.245
54 0 84.0753 14.3681 1208 96.9305 98.5579 483.038
55 0 88.0964 14.9155 1314 96.7131 98.8014 481.82
56 0 91.0934 15.4018 1403 95.9815 98.0727 481.252
57 0 93.0666 15.1719 1412 98.3973 97.9858 479.09
58 0 96.037 15.0775 1448 99.1823 98.4675 479.566
59 0 98.0914 14.4049 1413 101.478 97.4119 477.575
60 0 104.093 15.6303 1627 96.7296 98.0602 476.626
61 0 107.106 15.1625 1624 99.8547 98.5333 472.606
62 1 58.0733 12.6047 732 101.034 98.0328 498.044
63 0 60.0401 12.6082 757 100.838 98.1902 495.896
64 0 62.0811 13.3374 828 98.7041 98.5121 495.514
65 0 65.0676 13.6935 891 101.228 98.1291 493.833
66 0 68.0371 13.3897 911 98.7069 97.8836 493.858
67 0 71.0215 14.1506 1005 97.4169 97.5761 492.528
68 0 72.0517 13.8234 996 99.6355 98.0984 490.586
69 0 76.0098 14.3403 1090 96.4587 98.7413 490.365
70 0 78.0416 13.7747 1075 98.1786 99.2419 489.385
71 0 81.0472 14.362 1164 96.6314 98.6864 488.703
72 0 82.0341 14.1405 1160 97.5216 98.6 487.5
73 0 86.1002 14.3902 1239 97.95 98.3721 484.539
74 0 88.0951 14.0757 1240 99.8685 98.5685 483.706
75 0 92.0292 14.2129 1308 101.602 98.6047 481.413
76 0 95.0779 14.4303 1372 102.292 98.2719 480.259
77 0 98.0363 14.668 1438 102.118 98.0981 478.385
78 0 102.072 14.9012 1521 100.285 98.4287 476.834
79 0 105.097 14.8243 1558 100.647 98.3793 475.43
80 1 53.0461 12.065 640 97.6766 98.8719 501.583
81 0 56.0458 12.4541 698 96.8295 98.8696 500.755
82 0 56.0456 12.5612 704 96.5014 98.9048 500.088
83 0 57.0702 13.0191 743 94.9879 98.4388 498.183
84 0 61.0362 13.7787 841 91.8906 98.931 497.27
85 0 63.0607 13.3047 839 93.7747 98.8069 496.743
86 0 65.0141 13.2587 862 94.0093 98.906 495.905
87 0 69.0181 13.098 904 93.5664 99.2611 494.787
88 0 68.046 13.4615 916 95.6059 99.8439 493.526
89 0 71.0665 14.1417 1005 94.6766 99.8219 490.89
90 0 73.0433 13.4988 986 97.0203 99.4625 491.165
91 0 74.1592 13.1744 977 98.303 99.2088 490.026
92 0 77.0513 13.4845 1039 97.4062 99.744 488.518
93 0 79.0574 13.5724 1073 97.7428 99.1929 487.061
94 0 81.0978 13.7981 1119 98.9357 98.7685 484.378
95 0 82.182 14.2489 1171 98.1315 98.474 483.259
96 0 87.1986 13.7617 1200 99.3692 98.605 480.946
97 0 89.3064 14.0975 1259 98.3098 98.3487 481.312
98 0 92.2689 13.6232 1257 97.3325 98.7566 479.268
99 0 93.1963 13.6915 1276 97.4177 98.9514 478.553
100 0 95.2376 14.0911 1342 96.4367 98.2966 476.867
101 1 49.164 10.8006 531 93.9002 98.6045 500.827
102 0 52.1756 11.4613 598 94.5351 97.6957 499.493
103 0 54.1321 11.7306 635 92.5118 98.2362 496.872
104 0 53.0246 11.3721 603 89.7645 98.4892 495.907
105 0 55.0472 12.2077 672 90.183 97.9435 496.315
106 0 56.1096 12.1548 682 90.0616 97.107 497.475
107 0 57.049 12.3753 706 88.4249 97.8654 496.38
108 0 59.1361 12.2937 727 88.2779 97.2105 495.399
109 0 60.1137 12.3266 741 88.6383 97.8826 494.213
110 0 63.0618 12.0992 763 86.2005 97.8427 493.262
111 0 64.0981 12.4185 796 82.7186 97.358 490.234
112 0 67.0679 12.6141 846 82.9586 97.5024 489.639
113 0 69.0418 12.688 876 82.6963 97.4064 488.163
114 0 70.0373 12.3363 864 82.5521 97.2905 487.424
115 0 73.0915 12.0807 883 82.7327 96.9932 485.356
116 0 72.1143 11.8007 851 85.4136 97.0635 483.343
117 0 74.0924 11.958 886 84.1998 97.0553 481.205
118 0 79.0715 11.888 940 84.2883 97.4532 480.001
119 0 82.0674 12.0389 988 85.9879 98.1579 478.799
120 0 85.111 12.2781 1045 86.4852 97.9388 477.827
121 0 89.0754 12.2368 1090 85.7679 97.6018 475.907
122 0 92.1304 12.211 1125 85.6827 97.8249 472.707
123 0 95.0764 12.3164 1171 85.6943 97.7003 470.677
124 0 96.0754 12.282 1180 86.5602 97.9051 469.315
125 0 101.047 12.7565 1289 84.6936 97.7192 466.825
126 1 55.0135 10.0157 551 83.3176 97.6497 490.642
127 0 57.0212 10.4522 596 82.8775 97.25 487.366
128 0 64.0343 11.9936 768 84.3841 97.7982 493.691
129 0 63.0332 10.9783 692 79.8194 98.711 493.517
130 0 64.0831 10.3928 666 81.4925 98.5781 493.312
131 0 69.0458 10.6161 733 79.7981 97.6535 492.153
132 0 69.0153 10.36 715 81.5818 97.4769 491.35
133 0 71.0286 10.8689 772 80.3446 97.4676 488.688
134 0 74.0166 10.7138 793 81.7818 97.5095 487.692
135 0 76.0554 10.6764 812 83.1256 97.9754 486.908
136 0 79.0456 11.1455 881 84.1782 98.0182 485.033
137 0 81.1004 12.0345 976 84.1055 97.8842 483.688
138 0 86.034 11.786 1014 84.142 97.9773 482.77
139 0 88.0462 11.8006 1039 85.9038 98.4456 480.579
140 0 90.0178 13.6862 1232 86.1964 97.0008 477.183
141 0 93.0668 12.0129 1118 88.6485 97.2674 478.317
142 0 97.073 12.0631 1171 88.795 97.6183 477.866
143 0 100.034 12.5357 1254 89.3333 97.1722 474.979
144 0 102.131 12.9344 1321 89.76 97.1855 473.489
145 0 105.127 12.3755 1301 93.0784 97.6049 470.977
146 0 109.131 11.7566 1283 92.2081 98.6306 468.956
147 1 56.0234 11.5487 647 88.7063 98.0108 496.23
148 0 56.0332 11.511 645 86.4682 96.5783 496.998
149 0 58.1466 10.9551 637 85.4207 97.0487 498.246
150 0 58.0286 11.2014 650 85.9862 96.5554 497.286
151 0 60.0458 10.2588 616 88.6331 96.9091 495.203
152 0 62.1137 11.1892 695 85.8935 96.2201 495.528
153 0 64.0801 11.0018 705 87.7007 96.6312 494.247
154 0 64.0629 10.8175 693 90.0404 96.4906 492.685
155 0 68.1227 11.127 758 89.0594 97.0515 491.004
156 0 71.0801 11.2268 798 88.9023 97.4085 491.633
157 0 72.0917 11.3605 819 89.3394 97.2991 489.626
158 0 75.0662 11.683 877 89.7891 96.7366 489.042
159 0 76.0695 11.713 891 90.0707 96.991 486.676
160 0 81.0299 12.1807 987 88.5147 97.6018 484.718
161 0 84.0625 12.9071 1085 86.0839 96.4276 482.989
162 0 85.0951 12.6917 1080 86.6787 96.2713 483.386
163 0 87.0793 13.0226 1134 86.5229 96.6896 482.324
164 0 91.169 12.8553 1172 85.1493 96.9582 479.891
165 0 93.1028 12.5775 1171 85.4782 96.9026 477.431
166 0 97.1689 12.9157 1255 84.1721 97.3713 475.829
167 0 98.0621 12.9102 1266 85.0174 96.5924 475.157
168 0 101.101 12.8881 1303 84.7114 96.9325 475.125
169 0 104.125 12.3122 1282 86.3214 97.2972 470.843
170 0 105.16 11.6299 1223 87.2379 97.1087 469.93
171 0 108.135 11.7075 1266 84.669 97.0411 462.592
172 0 109.218 11.7472 1283 83.6641 96.4895 458.926
173 0 114.148 12.2736 1401 80.9236 96.8944 459.276
174 0 117.189 11.7076 1372 82.9461 96.688 455.665
175 0 125.245 12.4556 1560 80.3878 96.9538 454.43
176 1 64.1718 8.67982 557 77.219 97.8007 484.436
177 0 69.2153 11.6448 806 83.4628 97.794 488.622
178 0 73.1788 11.7247 858 82.1399 97.4254 488.717
179 0 73.1761 11.3698 832 85.0036 97.5901 487.303
180 0 74.0473 9.66949 716 77.7025 97.6634 488.325
181 0 78.0354 10.9438 854 75.7166 97.3735 488.372
182 0 81.072 11.6686 946 74.704 96.9228 488.468
183 0 82.0536 10.7003 878 77.8462 97.4613 486.098
184 0 83.0642 10.9674 911 78.09 98.4237 483.966
185 0 86.1573 11.2121 966 78.6014 96.7733 484.417
186 0 89.1271 10.7936 962 79.7162 97.4678 482.586
187 0 92.0301 11.2246 1033 79.4095 97.0252 482.393
188 0 96.088 11.5415 1109 80.0775 97.11 477.689
189 0 98.0751 10.7265 1052 81.9021 97.3907 476.709
190 0 101.079 11.0706 1119 81.7256 97.4138 476.061
191 0 105.053 10.9564 1151 82.9661 97.5091 473.592
192 0 107.064 10.9934 1177 81.7859 96.8156 472.484
193 1 58.0399 10.131 588 77.9694 96.3741 497.405
194 0 62.1702 11.2594 700 77.9743 96.3171 494.991
195 0 61.13 10.9439 669 78.4738 96.3483 495.179
196 0 65.1366 11.7292 764 74.3076 96.233 494.42
197 0 68.0947 10.7204 730 88.8014 97.4151 491.401
198 0 69.0887 11.2464 777 87.1969 97.5779 490.75
199 0 70.0362 11.337 794 86.699 97.1587 490.579
200 0 73.0775 10.9062 797 85.9837 97.5056 490.437
201 0 76.0631 11.5036 875 84.5154 97.728 488.355
202 0 77.092 11.2593 868 106.594 98.0991 487.568
203 0 79.2635 11.2284 890 107.815 96.6213 485.663
204 0 82.186 11.6321 956 106.259 96.9791 484.256
205 0 84.1355 11.22 944 107.542 96.5773 484.645
206 0 87.1828 11.7569 1025 106.845 97.1776 481.98
207 0 89.2316 12.0025 1071 105.33 96.2652 482.513
208 0 93.2601 11.8915 1109 106.161 96.7926 480.904
209 1 45.0615 9.80881 442 97.6606 97.4186 503.643
210 0 48.0817 10.2326 492 97.5894 97.7825 502.453
211 0 49.0553 9.86642 484 98.8471 97.531 502.459
212 0 51.0877 10.9616 560 98.3821 97.0554 500.425
213 0 52.1071 10.6895 557 91.5548 97.3034 500.436
214 0 53.0945 11.1499 592 92.4459 96.9662 499.267
215 0 57.1653 11.7204 670 88.5925 96.8478 499.991
216 0 57.1366 11.6388 665 91.1398 96.8135 498.478
217 0 59.2241 11.8533 702 90.1054 97.2621 497.92
218 0 61.1622 12.0172 735 89.5932 96.9646 497.546
219 0 62.1851 11.4658 713 91.1501 96.5316 497.384
220 0 64.1481 12.1438 779 89.2657 96.4673 495.773
221 0 65.1422 12.2348 797 90.6939 96.4128 494.156
222 0 67.1834 11.6993 786 92.8982 96.2621 493.327
223 0 68.1266 12.2272 833 93.4454 96.6927 492.287
224 0 71.0849 11.7184 833 107.333 97.1837 491.63
225 0 74.0875 11.9183 883 108.745 96.3884 490.793
226 0 74.1642 12.4588 924 110.341 96.4632 489.689
227 0 77.1374 12.4713 962 109.909 96.6549 489.93
228 0 77.1491 12.1324 936 114.186 95.8515 488.324
229 0 83.1226 12.6079 1048 111.885 96.1422 488.105
230 0 84.109 12.7691 1074 113.802 96.0084 484.742
231 0 86.0655 12.3278 1061 115.911 96.1979 484.779
232 0 89.1141 12.4223 1107 116.482 97.1192 483.723
233 0 90.1116 12.8618 1159 116.991 96.667 483.03
234 0 95.2314 13.2099 1258 114.633 96.3108 481.154
235 0 95.1222 13.141 1250 117.201 96.4688 479.819
236 0 99.1684 13.4216 1331 115.805 96.1623 479.163
237 0 101.146 13.4855 1364 116.4 95.8328 476.913
238 0 103.196 13.5083 1394 117.316 95.8228 477.116
239 0 106.247 13.4309 1427 117.131 96.2971 474.641
240 0 108.292 13.1681 1426 118.956 96.4832 473.914
241 0 113.428 13.3829 1518 117.473 96.8155 471.781
242 0 115.221 13.5739 1564 116.439 95.6081 470.197
243 1 58.2177 11.1822 651 114.771 95.2427 497.587
244 0 60.1966 11.1634 672 114.342 94.7188 497.682
245 0 61.1698 11.7542 719 113.124 94.9777 497.851
246 0 63.1538 12.1925 770 113.031 95.3338 495.394
247 0 65.1602 13.0141 848 113.025 95.125 495.272
248 0 62.0865 11.5806 719 109.688 95.3296 489.264
249 0 65.0533 11.1755 727 110.464 95.0041 490.622
250 0 68.0552 11.2115 763 108.224 95.7575 489.755
251 0 70.0462 11.9778 839 104.85 95.7735 488.402
252 0 72.0586 11.9764 863 104.628 95.5817 487.2
253 0 73.0561 12.4151 907 104.271 96.2591 485.582
254 0 74.0361 11.8861 880 104.001 96.625 482.918
255 0 78.0664 13.1683 1028 109.282 95.8512 487.832
256 0 79.0483 12.1445 960 99.0906 95.8823 487.735
257 0 81.053 11.6837 947 100.238 96.5829 488.665
258 0 85.0967 12.5622 1069 97.159 96.4724 486.25
259 0 84.0432 11.851 996 100.205 96.3544 484.171
260 0 87.1197 12.3853 1079 98.5236 96.507 483.601
261 0 89.1153 12.3548 1101 96.0291 96.3942 482.179
262 0 93.0824 12.2794 1143 94.9204 95.8101 481.345
263 0 94.2135 11.6862 1101 95.8183 96.6203 478.994
264 0 99.0554 11.8116 1170 94.3846 96.5906 477.686
265 0 103.099 12.8323 1323 94.4051 97.0045 474.98
266 1 53.043 11.2362 596 94.6409 97.2987 500.324
267 0 55.1244 12.4446 686 94.4665 96.7624 497.777
268 0 58.0456 12.2318 710 99.5944 96.3056 499.041
269 0 60.1071 12.5776 756 101.05 96.2778 497.366
270 0 61.0674 12.4944 763 101.962 96.464 496.427
271 0 62.1043 12.3985 770 103.668 96.213 495.755
272 0 64.0925 12.6692 812 103.562 96.2266 494.885
273 0 64.0839 12.6709 812 104.537 96.6416 493.826
274 0 68.0813 12.911 879 103.75 97.0512 493.278
275 0 67.0569 11.796 791 98.5537 95.8673 494.095
276 0 69.0336 12.4142 857 98.5403 94.8856 495.065
277 0 71.0419 12.3448 877 100.974 95.7605 493.197
278 0 74.0917 12.714 942 101.32 96.1614 490.366
279 0 76.079 12.211 929 105.772 95.7115 489.96
280 0 77.0522 12.9523 998 106.616 95.7415 489.457
281 0 80.0638 12.49 1000 110.89 95.29 486.544
282 0 84.0301 12.2813 1032 112.435 95.1938 486.172
283 0 87.0522 12.5557 1093 112.893 95.7896 484.731
284 0 89.0713 12.563 1119 114.569 95.3646 483.454
285 0 93.0872 12.7407 1186 112.798 95.1889 481.751
286 1 50.0274 10.6741 534 109.509 95.5712 502.348
287 0 51.0501 11.6944 597 108.559 95.4556 500.839
288 0 53.0642 11.2882 599 109.888 95.581 500.953
289 0 55.0264 11.8125 650 109.211 95.6723 498.64
290 0 53.0234 11.146 591 107.115 96.6294 500.469
291 0 53.0156 11.5815 614 106.178 95.702 499.593
292 0 57.0517 12.217 697 103.207 96.2195 498.613
293 0 56.0305 11.3331 635 104.096 95.5591 497.576
294 0 60.0312 11.9105 715 103.227 95.4154 496.284
295 0 61.0104 12.1946 744 102.371 94.5887 494.609
296 0 64.046 12.1631 779 101.508 94.9448 494.696
297 0 63.0707 11.7963 744 102.124 95.7782 493.742
298 0 67.1326 12.3636 830 100.107 95.8181 494.687
299 0 70.0351 11.8798 832 102.162 95.7392 492.698
300 0 72.0679 12.7796 921 101.246 94.6515 490.785
301 0 75.0517 13.1243 985 101.941 95.5888 489.917
302 0 78.0536 12.9783 1013 101.705 95.3988 489.237
303 0 80.052 12.4544 997 106.256 95.998 487.907
304 0 83.1161 12.8976 1072 106.637 95.6567 486.989
305 0 85.0208 12.8557 1093 107.868 95.8692 484.955
306 0 86.1156 12.878 1109 107.765 96.1641 483.383
307 1 45.0513 11.2316 506 111.038 95.8103 504.267
308 0 45.2338 11.7611 532 109.799 94.7519 503.419
309 0 47.0731 11.1954 527 103.038 96.0285 501.412
310 0 50.0346 11.8118 591 109.371 95.4247 503.237
311 0 49.0968 12.6281 620 108.826 94.7242 503.577
312 0 48.0335 11.7834 566 101.744 94.5247 505.606
313 0 48.0364 11.0749 532 108.137 95.2162 504.491
314 0 51.0488 11.4792 586 105.456 95.343 504.787
315 0 52.0404 11.8946 619 106.651 95.7141 503.409
316 0 55.0318 11.9385 657 105.743 95.6499 503.496
317 0 55.0662 11.8766 654 106.537 95.5795 502.034
318 0 56.057 12.3981 695 102.092 94.4935 502.583
319 0 58.0191 11.6169 674 106.226 95.4006 502.105
320 0 61.0305 12.207 745 103.715 95.4523 500.769
321 0 62.0371 12.1379 753 104.418 95.008 499.685
322 0 64.0526 12.2868 787 106.391 94.5133 499.014
323 0 65.0883 12.5215 815 107.436 94.627 497.854
324 0 68.0893 12.8655 876 105.864 94.7705 498.035
325 0 70.1255 12.7201 892 109.476 95.6726 498.709
326 0 71.0749 12.1281 862 112.951 95.9872 496.022
327 0 73.0485 12.8545 939 110.551 95.5346 494.89
328 0 74.1582 12.5408 930 111.468 95.0796 493.968
329 0 79.0828 12.7841 1011 110.017 94.6103 492.249
330 0 82.1374 13.0635 1073 109.743 94.8602 491.207
331 0 84.0865 12.9747 1091 110.675 94.4225 488.727
332 0 85.0885 12.1403 1033 112.491 93.6476 485.768
333 1 47.0375 11.0763 521 111.374 94.5912 505.019
334 0 48.1553 12.0028 578 107.431 94.417 504.562
335 0 48.0358 11.4082 548 110.714 94.2573 502.641
336 0 46.0157 11.4091 525 101.501 93.7276 505.32
337 0 49.0414 10.8276 531 101.072 93.9266 505.087
338 0 52.0493 11.6428 606 99.4488 93.3119 504.474
339 0 52.0362 11.2998 588 100.524 93.0238 505.044
340 0 54.0156 11.6818 631 99.1743 92.6482 503.61
341 0 56.0172 11.7107 656 97.5701 93.0716 503.744
342 0 57.0141 11.2428 641 99.3573 92.7441 501.772
343 0 60.051 11.5235 692 97.1315 92.4942 500.532
344 0 62.0503 12.0064 745 97.2188 92.0295 498.94
345 0 65.0434 11.9612 778 98.4936 91.6195 497.79
346 0 67.1068 12.5025 839 97.7282 91.6985 496.887
347 0 68.1043 12.7305 867 98.7509 91.4579 496.212
348 0 70.0616 12.4176 870 100.38 91.3368 495.074
349 0 73.0535 12.7578 932 100.726 92.0515 494.4
350 0 73.0387 12.5824 919 102.246 92.1839 492.819
351 0 76.0228 12.6278 960 100.419 92.2198 492.824
352 0 80.0358 13.5189 1082 97.3928 91.9695 492.063
353 0 80.034 13.2194 1058 108.464 91.8308 490.828
354 0 83.0287 13.5977 1129 108.327 92.7768 488.718
355 0 84.0519 13.1228 1103 110.883 92.1931 486.854
356 0 85.0566 13.1912 1122 111.64 91.9572 487.694
357 0 89.0413 13.432 1196 109.624 92.648 486.041
358 0 91.0344 13.2697 1208 109.812 92.6457 484.452
359 0 93.0438 13.2411 1232 109.842 92.9091 484.533
360 0 95.0374 13.3316 1267 110.125 92.6361 482.496
361 0 99.056 12.8816 1276 110.111 93.3245 480.735
362 0 100.028 13.0363 1304 107.852 93.0989 478.936
363 0 103.043 13.2566 1366 105.73 93.5783 479.066
364 0 107.071 13.5984 1456 105.378 92.7473 476.834
365 0 110.051 13.5482 1491 105.51 92.8659 474.611
366 0 114.099 13.1465 1500 106.835 93.1713 473.044
367 0 116.106 13.0743 1518 108.298 93.2833 471.714
368 0 120.119 12.779 1535 109.44 93.4756 467.175
369 0 123.056 12.2546 1508 111.316 93.7692 467.093
370 0 128.119 12.6601 1622 110.07 93.2571 463.56
371 0 132.107 12.5504 1658 111.042 93.3215 460.446
372 0 135.084 12.4071 1676 112.078 94.1551 460.852
373 0 140.035 12.4612 1745 113.799 93.8223 459.556
374 0 144.122 12.2118 1760 115.208 93.5102 456.568
375 0 149.156 12.1953 1819 113.381 94.2501 455.228
376 0 154.12 12.1529 1873 114.686 93.9754 450.374
377 0 158.224 11.5595 1829 116.213 94.6922 450.12
378 0 165.131 11.6755 1928 115.94 94.1561 448.584
379 0 168.108 11.7841 1981 117.233 94.9591 442.49
380 0 175.115 12.3633 2165 116.014 94.909 441.511
381 0 180.167 12.2941 2215 116.085 94.7449 437.588
382 0 186.175 12.4936 2326 115.72 94.4278 435.916
383 0 190.213 12.1758 2316 117.388 94.3946 430.188
384 0 196.192 12.3247 2418 117.825 94.213 425.844
385 0 203.296 13.1926 2682 114.458 94.0544 422.256
386 0 208.329 12.5571 2616 116.797 94.1219 418.506
387 0 215.311 12.8326 2763 115.37 94.3464 417.404
388 0 221.247 13.2567 2933 113.572 94.6301 410.147
389 0 230.28 12.1417 2796 116.549 94.1592 408.177
390 1 175.209 12.0713 2115 114.329 94.8889 438.24
391 0 181.358 12.6325 2291 112.048 93.9555 435.376
392 0 187.308 13.0053 2436 112.85 94.0497 431.203
393 0 191.297 12.5721 2405 114.707 94.1996 423.012
394 0 195.195 12.1878 2379 116.875 93.8432 419.715
395 0 202.245 11.9953 2426 118.469 93.8359 413.791
396 0 210.24 12.3478 2596 117.782 93.9753 411.352
397 0 215.196 11.8682 2554 117.862 94.2126 404.957
398 0 220.296 11.8068 2601 118.414 94.1795 396.722
399 1 46.1134 7.91528 365 89.3452 93.6986 495.564
400 0 50.0295 9.23456 462 80.513 93.8528 492.714
