time division length width area intensity CMx CMy
0 0 54.0857 14.2736 772 125.105 996.088 500.275
1 0 56.056 14.2893 801 122.052 995.566 498.698
2 0 59.0253 14.2651 842 120.176 995.468 498.739
3 0 60.0574 13.9866 840 119.921 995.637 498.142
4 0 63.0687 14.3336 904 117.1 996.147 497.279
5 0 65.0531 14.6957 956 114.888 995.721 496.566
6 0 68.0297 13.891 945 117.145 996.067 494.705
7 0 70.0418 14.4342 1011 114.706 995.449 495.62
8 0 72.0373 13.965 1006 116.479 996.115 493.485
9 0 73.0206 13.7359 1003 118.101 996.136 491.792
10 0 77.0212 14.2298 1096 114.926 995.569 490.989
11 0 80.0094 15.1357 1211 111.516 995.194 490.756
12 0 82.0173 15.4358 1266 109.77 995.728 488.731
13 0 84.0846 14.7589 1241 110.561 994.713 487.811
14 0 88.0659 15.2727 1345 107.614 994.865 486.121
15 1 43.0796 12.1635 524 107.811 994.433 508.248
16 0 45.0376 13.3444 601 101.106 994.998 508.082
17 0 46.0289 13.9043 640 100.605 994.606 506.797
18 0 48.0204 14.244 684 100.608 994.656 506.235
19 0 51.0179 13.9167 710 99.6507 994.914 505.677
20 0 51.0076 14.0959 719 102.765 995.56 504.498
21 0 54.0528 14.4673 782 99.3478 995.217 503.261
22 0 55.0245 14.9751 824 98.0655 995.269 502.7
23 0 56.0199 14.3877 806 99.2767 994.058 501.825
24 0 58.0375 14.146 821 100.164 994.535 499.741
25 0 62.0508 14.6332 908 96.8711 994.873 499.705
26 0 62.0636 13.6634 848 100.321 994.9 499.415
27 0 64.0362 13.7734 882 99.2596 994.95 496.653
28 0 68.0352 14.4631 984 96.7561 995.582 496.712
29 0 68.0359 13.9191 947 98.792 995.64 495.612
30 0 72.0392 14.2422 1026 98.154 995.201 494.843
31 0 72.0544 13.8645 999 98.3664 995.462 493.326
32 0 75.0569 14.056 1055 97.3564 995.539 492.537
33 0 79.0466 13.6881 1082 97.0416 994.601 491.102
34 0 80.044 13.2302 1059 98.2144 993.651 490.94
35 0 83.0947 13.8396 1150 96.2861 993.967 488.295
36 0 86.0305 13.2395 1139 96.482 994.203 488.16
37 0 89.0881 13.2902 1184 95.4747 993.964 485.565
38 0 91.0938 13.4367 1224 94.7296 993.739 483.792
39 0 94.052 13.2693 1248 93.8758 994.003 482.482
40 1 50.0379 11.9709 599 88.6578 993.474 504.686
41 0 53.0232 11.6741 619 86.9499 993.856 504.425
42 0 54.0626 12.9665 701 85.5378 993.174 503.812
43 0 56.0364 13.0094 729 88.5185 993.228 502.527
44 0 60.0498 13.3389 801 88.1361 993.456 501.558
45 0 62.0663 13.4534 835 86.2012 993.224 500.964
46 0 63.0578 12.8929 813 87.2571 993.351 500.079
47 0 64.0435 13.0692 837 87.908 993.117 498.683
48 0 66.0393 13.4011 885 87.3186 993.14 496.924
49 0 69.0564 13.0328 900 85.6878 993.326 495.723
50 0 72.131 13.2814 958 84.7296 994.38 495.041
51 0 73.0333 13.1447 960 85.5521 994.116 493.631
52 0 77.0296 13.3455 1028 84.7228 994.68 492.433
53 0 80.0563 13.0533 1045 86.2804 994.734 489.054
54 0 80.1079 13.4319 1076 85.9981 994.693 487.923
55 0 86.0403 13.7377 1182 85.1853 994.497 486.386
56 0 87.0871 13.0329 1135 88.2502 994.32 483.705
57 0 89.1048 13.501 1203 88.2344 994.648 482.07
58 0 95.0689 13.9478 1326 88.0324 993.726 480.133
59 0 98.0532 13.5437 1328 89.9473 994.622 477.912
60 0 99.1105 13.046 1293 86.935 994.322 478.346
61 0 105.116 13.3186 1400 85.6464 994.595 476.786
62 1 51.0771 11.3162 578 86.6713 994.832 501.009
63 0 53.0794 11.1908 594 86.5101 994.907 500.348
64 0 55.0901 12.416 684 84.0175 994.357 499.322
65 0 58.1056 12.1331 705 85.0681 993.366 498.498
66 0 59.1077 12.7902 756 82.2143 993.747 501.075
67 0 61.0693 12.6086 770 82.9078 993.155 498.743
68 0 63.0859 12.9189 815 82.4491 993.821 497.205
69 0 67.1816 12.6076 847 81.294 993.882 497.832
70 0 68.1038 13.0095 886 81.1354 994.333 495.945
71 0 71.1352 13.9593 993 79.3857 994.104 494.882
72 0 73.0525 13.4424 982 80.7159 995.024 494.151
73 0 76.0859 13.419 1021 81.3046 994.399 491.706
74 0 76.056 13.6215 1036 82.0579 994.661 490.284
75 0 79.0653 13.3055 1052 83.9449 993.733 489.091
76 0 84.0303 14.1258 1187 82.62 993.716 487.957
77 0 86.0299 13.5534 1166 84.7479 992.857 484.575
78 0 90.074 13.4556 1212 83.6205 993.947 482.387
79 0 92.0617 13.6322 1255 81.953 993.982 480.981
80 0 95.0661 13.7483 1307 82.7774 994.411 478.514
81 0 97.0523 13.2918 1290 84.4938 994.933 477.837
82 1 49.0185 11.1794 548 83.9307 995.239 502.283
83 0 51.055 11.6737 596 83.1393 995.282 499.683
84 0 51.059 11.5357 589 81.6061 995.287 498.783
85 0 54.1091 10.9963 595 79.1059 995.185 501.881
86 0 56.0216 11.7633 659 78.2716 995.42 501.002
87 0 55.0151 11.306 622 81.3746 996.058 500.153
88 0 58.0416 11.8536 688 80.8314 995.615 498.423
89 0 62.0628 11.8912 738 80.5691 995.245 497.138
90 0 63.0383 12.31 776 81.741 995.326 496.633
91 0 63.0719 11.3046 713 85.2454 994.892 496.038
92 0 67.0655 12.3014 825 82.9503 995.086 494.474
93 0 69.0607 12.0763 834 83.1307 994.505 492.922
94 0 72.0432 12.8395 925 83.3178 994.437 491.65
95 0 75.101 12.663 951 84.2713 994.448 491.757
96 0 76.08 12.6577 963 87.2523 994.467 490.136
97 0 78.0981 12.6636 989 88.1395 994.1 489.119
98 0 80.0968 12.2851 984 90.4045 993.963 487.948
99 0 81.0682 13.0014 1054 89.9649 993.879 487.636
100 0 85.1129 12.4071 1056 91.5909 993.578 484.677
101 0 86.082 12.4881 1075 92.1721 993.345 484.001
102 0 86.1124 11.3572 978 95.6309 992.993 481.547
103 0 90.0457 12.3049 1108 92.8682 993.437 481.919
104 0 94.0806 12.6062 1186 91.8668 993.009 480.63
105 0 95.1234 12.2367 1164 92.5034 993.667 478.997
106 0 99.0826 12.4341 1232 90.7808 993.652 478.993
107 0 101.087 12.6425 1278 90.6268 993.404 473.369
108 0 104.08 12.5 1301 90.6595 993.326 472.85
109 0 110.24 12.7358 1404 89.6966 993.532 470.237
110 1 58.1139 11.2366 653 85.8132 993.971 495.619
111 0 61.1443 11.6119 710 85.8 993.213 494.404
112 0 59.1296 10.7729 637 84.2041 992.736 496.98
113 0 61.1005 10.9164 667 85.1334 993.202 498.144
114 0 64.117 11.557 741 84.8839 992.58 494.491
115 0 64.117 11.635 746 126.551 992.56 494.475
116 0 67.1837 11.2825 758 85.8311 992.702 493.479
117 0 70.0557 11.5765 811 85.5623 993.472 491.958
118 0 73.175 11.2333 822 85.0365 993.252 491.29
119 0 75.0866 11.1072 834 85.3477 993.083 488.799
120 0 76.1334 11.1252 847 85.4782 993.302 485.242
121 0 81.0752 11.7545 953 82.6002 992.635 486.01
122 0 82.0861 11.1468 915 84.1399 992.901 482.953
123 0 85.1444 10.9696 934 83.4422 993.395 481.879
124 0 86.0902 11.1395 959 82.9072 993.808 479.966
125 0 90.1246 10.3412 932 83.4614 993.577 478.999
126 0 95.1004 11.2197 1067 81.5455 993.569 475.881
127 0 100.075 11.9411 1195 79.113 993.551 475.244
128 1 47.1573 10.624 501 81.7585 993.082 498.427
129 0 50.1112 11.1751 560 80.2071 994.184 496.968
130 0 51.1301 11.1676 571 80.0263 993.296 494.888
131 0 52.053 11.1041 578 77.6522 993.388 497.763
132 0 55.1324 10.9554 604 77.101 993.349 498.869
133 0 54.2098 11.5108 624 76.8413 993.135 497.112
134 0 57.0848 11.0888 633 76.6382 993.613 496.387
135 0 59.1916 10.542 624 76.1971 993.683 495.276
136 0 63.0919 11.8082 745 73.7879 993.505 493.584
137 0 64.0696 11.1597 715 74.3804 994.414 493.558
138 0 66.1532 11.5036 761 74.9435 993.672 490.401
139 0 66.0673 11.5337 762 75.0774 992.543 490.014
140 0 68.0568 11.1524 759 75.2213 992.273 487.451
141 0 70.1315 11.1077 779 76.267 992.666 486.442
142 0 72.1437 11.186 807 76.4411 992.813 486.219
143 0 77.2976 12.3678 956 74.8274 993.337 483.043
144 0 76.2631 11.9586 912 76.0811 993.435 478.396
145 0 79.2029 12.2091 967 74.6536 993.637 477.573
146 0 80.1949 11.6716 936 76.1848 993.496 475.755
147 0 86.2016 12.1691 1049 74.2622 993.619 474.367
148 0 87.1163 11.9266 1039 75.0645 993.239 472.488
149 0 89.1438 12.1153 1080 75.0157 993.103 469.905
150 0 92.1531 11.6545 1074 75.2142 992.626 468.385
151 0 96.1467 11.8153 1136 73.5378 993.304 465.713
152 0 99.2086 11.5212 1143 73.93 992.485 466.854
153 1 52.1724 9.37278 489 73.2638 992.72 489.303
154 0 54.1826 9.61563 521 72.6622 992.739 488.292
155 0 53.1366 10.9529 582 70.2457 992.531 486.928
156 0 59.1551 10.9881 650 68.92 992.511 490.786
157 0 61.1534 10.351 633 69.0742 992.112 495.175
158 0 63.0834 10.9855 693 68.1371 992.01 494.602
159 0 66.1523 10.884 720 68.2056 991.862 492.692
160 0 66.0957 10.9841 726 68.9986 991.266 491.932
161 0 70.1372 11.1496 782 69.2903 991.485 490.106
162 0 71.2 11.5309 821 69.1924 991.989 488.46
163 0 73.1255 11.0358 807 70.7608 991.405 487.37
164 0 73.1769 11.0691 810 71.5556 991.723 484.958
165 0 77.125 11.2804 870 70.954 992.051 483.351
166 0 78.1027 11.4081 891 71.4467 992.401 480.741
167 0 82.1312 11.299 928 72.6336 992.014 480.496
168 0 86.1918 11.8573 1022 71.6986 992.46 479.07
169 0 87.1663 11.5526 1007 72.7428 992.508 475.741
170 0 89.175 11.427 1019 73.58 992.43 473.54
171 0 90.1531 11.4361 1031 73.5626 991.941 473.852
172 0 89.0571 10.409 927 75.5404 993.074 474.434
173 0 97.0883 11.7728 1143 69.3421 993.046 466.44
174 0 96.0622 10.4412 1003 72.013 992.608 462.897
175 0 104.079 11.2319 1169 72.2583 992.222 465.328
176 0 107.155 11.5347 1236 71.2694 992.122 462.658
177 0 106.111 10.9036 1157 73.6932 991.962 458.493
178 0 108.042 11.3011 1221 73.4521 992.432 456.961
179 0 112.146 10.9054 1223 74.0409 992.921 456.086
180 0 120.101 11.3238 1360 73.8118 992.191 454.951
181 0 124.092 11.7413 1457 73.6685 992.844 452.642
182 0 124.092 11.7654 1460 125.299 993.83 452.873
183 1 67.0708 8.94578 600 66.7133 992.433 485.04
184 0 76.0322 10.4166 792 67.3712 991.495 491.602
185 0 77.0623 10.8484 836 65.7464 991.897 489.495
186 0 80.0502 10.9181 874 66.1076 992.27 487.185
187 0 84.0444 11.482 965 64.5782 992.111 488.67
188 0 86.0507 11.1678 961 66.1519 991.752 484.984
189 0 88.0565 11.4926 1012 66.1986 991.842 483.561
190 0 91.04 12.2474 1115 66.1821 993.144 481.504
191 0 94.062 11.6625 1097 68.423 992.489 479.975
192 0 97.119 11.419 1109 69.1758 992.655 477.617
193 0 100.161 11.1421 1116 76.56 992.36 477.223
194 0 104.137 11.4273 1190 76.1807 992.155 475.842
195 0 107.076 12.5238 1341 74.9538 992.502 472.778
196 0 110.1 11.2806 1242 75.6401 992.165 472.052
197 0 114.118 11.4443 1306 74.3982 992.259 470.585
198 0 115.124 11.6483 1341 73.6585 992.36 467.301
199 0 118.183 10.746 1270 73.6819 992.506 466.457
200 1 63.1016 9.69865 612 67.1748 992.5 496.925
201 0 67.1295 9.71257 652 66.9908 992.9 494.525
202 0 69.2127 9.69475 671 86.7511 991.958 493.632
203 0 71.141 10.9501 779 84.534 992.1 491.711
204 0 73.17 11.2478 823 84.5626 992.53 489.752
205 0 74.1011 11.012 816 84.7721 992.559 489.214
206 0 76.0339 11.4554 871 80.9346 992.637 489.799
207 0 77.1588 11.6254 897 80.971 992.608 489.532
208 0 81.105 11.9721 971 80.7477 992.534 487.56
209 0 85.0855 12.8577 1094 78.5347 992.619 486.645
210 0 87.1134 12.3288 1074 82.0233 992.29 485.559
211 0 89.1129 12.8152 1142 82.1077 991.842 484.069
212 0 90.1519 12.5233 1129 85.4854 991.419 484.368
213 0 94.1428 12.7678 1202 86.5674 991.534 482.814
214 0 98.0758 12.8472 1260 88.3643 991.778 481.118
215 0 98.0999 12.6911 1245 91.9341 991.39 479.381
216 0 103.105 12.88 1328 93.1303 991.49 477.962
217 0 105.223 13.134 1382 95.2576 991.543 477.762
218 0 109.168 13.2365 1445 93.5343 991.214 475.805
219 0 112.128 12.8424 1440 103.872 992.142 472.926
220 0 114.195 13.3806 1528 102.264 991.844 471.535
221 0 118.102 13.2852 1569 102.356 991.052 468.715
222 0 122.224 12.518 1530 101.56 991.139 467.981
223 1 65.1515 10.56 688 96.2762 991.955 496.709
224 0 65.1515 10.5753 689 148.534 992.962 496.663
225 0 69.039 12.4133 857 89.5064 992.557 493.541
226 0 73.077 11.9737 875 93.872 991.342 492.451
227 0 75.0551 11.1518 837 95.595 991.54 490.55
228 0 78.0525 12.3891 967 92.1386 989.967 489.63
229 0 79.0375 12.1588 961 92.3829 990.286 489.016
230 0 82.0465 12.432 1020 91.9882 989.715 487.711
231 0 84.0576 12.3249 1036 90.9334 990.084 486.313
232 0 84.0576 12.313 1035 138.453 991.068 486.403
233 0 89.0906 11.1123 990 92.4192 990.078 482.71
234 0 90.0722 10.8913 981 82.6147 990.746 483.393
235 0 92.1124 11.0191 1015 82.9291 991.031 481.587
236 0 93.1499 10.1879 949 83.9336 990.326 481.335
237 0 97.0945 10.876 1056 84.1354 990.562 479.442
238 0 99.0781 10.8298 1073 84.6393 990.606 478.984
239 1 54.1105 9.77629 529 83.9546 990.535 502.159
240 0 55.1262 10.5576 582 83.0911 990.17 500.515
241 0 56.1575 10.524 591 84.6007 990.007 501.149
242 0 58.1535 11.0398 642 86.0234 990.229 499.112
243 0 56.11 9.73089 546 84.326 991.258 502.183
244 0 57.0777 10.2842 587 85.0852 990.911 501.671
245 0 60.0698 10.5044 631 84.5008 991.108 501.057
246 0 60.0634 10.6388 639 84.5962 990.812 499.246
247 0 62.1577 10.216 635 84.7669 990.832 499.449
248 0 63.1673 10.6226 671 84.3323 990.747 498.618
249 0 65.0606 10.7285 698 85.1476 991.324 497.653
250 0 66.0706 10.7158 708 85.0847 991.886 495.734
251 0 67.0436 10.6796 716 85.5964 992.538 495.324
252 0 70.0567 11.0339 773 84.5071 992.444 493.44
253 0 75.0823 11.5207 865 82.6786 991.778 493.518
254 0 75.0535 11.8449 889 82.5264 991.359 492.074
255 0 79.0721 11.9005 941 81.322 991.326 491.731
256 0 82.102 12.2043 1002 81.0978 991.364 488.386
257 0 83.0931 11.9264 991 81.5187 991.149 488.724
258 0 86.0932 12.1961 1050 80.8619 991.895 488.026
259 0 90.178 12.5086 1128 80.3466 991.178 486.278
260 0 91.2022 11.9405 1089 82.4481 991.896 485.656
261 0 95.1764 12.2825 1169 83.4927 991.938 482.721
262 0 98.0985 12.202 1197 83.3943 991.766 483.363
263 0 101.207 12.2027 1235 83.3287 991.907 479.334
264 0 101.172 11.9598 1210 83.4273 991.899 478.906
265 0 105.125 11.7289 1233 84.9903 992.586 477.717
266 0 109.117 11.9229 1301 85.9039 991.799 474.479
267 0 110.163 11.4467 1261 86.5686 990.68 474.111
268 0 116.122 12.7711 1483 83.6858 990.848 471.483
269 0 119.043 12.3653 1472 84.5279 990.291 469.701
270 0 119.043 12.3233 1467 145.08 989.305 469.635
271 1 76.0733 8.68899 661 84.2799 989.619 496.07
272 0 76.0705 9.38603 714 82.451 990.095 495.347
273 0 73.0887 9.94682 727 81.2902 991.776 490.715
274 0 76.0685 11.3582 864 77.2106 992.028 488.845
275 0 75.0674 10.5905 795 79.8893 991.579 489.758
276 0 78.0973 11.1271 869 79.3337 992.16 488.367
277 0 80.0728 11.1399 892 78.1312 990.004 488.382
278 0 84.1907 11.2839 950 77.1547 990.11 487.104
279 0 86.0931 11.8941 1024 78.8662 989.794 484.788
280 0 87.1135 11.2956 984 83.0305 989.812 484.587
281 0 91.1051 11.2837 1028 79.6138 990.251 481.977
282 0 92.1065 10.5421 971 80.0381 990.216 484.368
283 0 95.0937 10.9997 1046 79.5593 990.518 482.495
284 0 97.0729 10.3839 1008 80.6458 989.923 480.916
285 0 101.061 10.6668 1078 79.4091 990.878 478.29
286 0 102.109 10.4202 1064 80.0836 990.49 475.662
287 0 107.106 11.0078 1179 78.056 990.454 474.956
288 0 110.129 11.1233 1225 76.8996 990.34 473.638
289 0 114.076 11.133 1270 76.7866 990.072 471.002
290 0 118.128 11.3013 1335 76.1985 990.649 470.315
291 0 120.128 11.238 1350 75.8659 990.748 466.015
292 0 122.092 10.8525 1325 76.7177 990.43 466.898
293 0 128.134 11.3553 1455 75.3065 990.694 464.442
294 0 132.073 11.0167 1455 76.8206 990.568 462.438
295 0 137.193 12.1143 1662 75.2431 990.508 454.034
296 0 140.27 11.4493 1606 78.1482 990.609 451.742
297 0 142.168 11.0503 1571 83.515 990.672 447.863
298 0 147.144 10.9689 1614 84.1078 990.122 446.923
299 0 151.218 11.8769 1796 78.9432 990.259 445.036
300 0 156.19 11.9598 1868 79.8549 989.691 444.763
301 0 160.155 11.6075 1859 85.6627 990.262 441.884
302 0 167.255 12.8247 2145 81.3953 990.216 443.806
303 0 173.232 12.9306 2240 82.429 990.52 441.839
304 0 176.311 12.6651 2233 87.8634 990.703 439.852
305 0 180.356 13.2016 2381 88.8828 990.28 437.079
306 0 185.357 13.2231 2451 89.0057 990.575 437.257
307 0 192.343 13.923 2678 88.9085 990.271 436.819
308 0 198.392 13.8614 2750 89.1989 989.885 429.599
309 0 204.331 13.8697 2834 90.8384 989.81 426.373
310 1 108.223 11.1159 1203 86.6417 989.992 476.681
311 0 111.241 11.4167 1270 87.4307 990.65 475.05
312 0 115.144 10.8907 1254 88.6069 990.762 473.023
313 0 117.21 10.2807 1205 90.0456 990.974 472.178
314 0 122.221 9.95738 1217 90.668 990.975 471.316
315 0 121.228 9.59347 1163 93.4549 991.03 466.359
316 0 125.293 9.47381 1187 90.6007 989.93 465.552
317 0 127.166 9.33423 1187 92.4549 990.799 460.353
318 0 129.155 9.76347 1261 91.9604 990.215 457.947
319 1 270.356 13.8854 3754 97.9307 989.742 378.804
320 0 280.358 14.8738 4170 95.8293 988.978 374.377
321 0 288.637 15.5871 4499 93.052 989.672 368.93
322 0 294.478 15.1964 4475 95.0854 989.278 361.921
323 0 307.67 15.3606 4726 95.0724 989.919 358.583
324 1 65.2236 10.2417 668 79.8668 990.819 500.478
325 0 68.1077 10.9532 746 83.37 990.867 499.134
326 0 71.1572 11.2708 802 83.5449 990.438 496.824
327 0 70.0548 8.99296 630 73.2921 989.525 497.783
328 0 72.0995 9.65332 696 79.9397 989.675 498.603
329 0 75.0251 9.67676 726 79.9449 989.536 497.456
330 0 77.1012 10.2463 790 79.3608 989.006 496.137
331 0 80.0764 9.89056 792 80.3485 989.133 494.861
332 0 83.0905 10.2659 853 76.6483 989.686 491.823
333 0 86.1691 10.6767 920 76.725 988.999 490.6
334 0 91.1098 10.7453 979 77.9949 988.743 487.947
335 0 93.1329 11.0487 1029 78.1331 989.025 487.43
336 0 98.1639 11.8272 1161 75.6563 988.775 484.765
337 0 97.1274 11.2121 1089 78.427 988.761 483.44
338 0 101.232 12.3479 1250 78.196 988.948 479.79
339 0 105.094 12.3984 1303 77.9394 988.784 479.222
340 0 108.103 12.5806 1360 77.9287 988.728 477.416
341 0 112.121 12.7362 1428 76.3459 988.141 475.606
342 0 114.107 11.7871 1345 82.5204 988.784 473.342
343 0 117.104 12.126 1420 85.4577 988.309 472.723
344 0 121.072 13.0418 1579 86.7359 987.574 472.166
345 0 124.063 12.2115 1515 88.7485 987.723 468.443
346 0 128.175 13.0993 1679 87.8839 987.726 469.597
347 0 132.157 13.0148 1720 87.1651 987.583 467.652
348 0 134.102 12.6545 1697 85.5946 987.26 461.512
349 0 138.178 11.9049 1645 87.9927 986.789 461.757
350 0 144.213 12.3221 1777 86.3596 987.072 459.365
351 0 148.254 12.7011 1883 85.7276 986.691 457.011
352 1 83.1704 10.4244 867 74.6782 985.914 491.663
353 0 85.0996 10.3761 883 75.2809 986.966 494.17
354 0 87.0632 10.2225 890 77.7258 986.743 490.6
355 0 92.0626 11.5139 1060 83.2547 986.522 488.919
356 0 94.1176 10.2638 966 85.7443 986.634 487.589
357 0 97.1359 10.5728 1027 85.5648 987.415 486.305
358 0 100.056 10.654 1066 84.9944 987.123 484.35
359 0 102.108 10.293 1051 85.5385 987.701 482.457
360 0 105.146 10.3476 1088 83.8134 987.983 481.971
361 0 110.172 10.9193 1203 82.8894 987.101 481.169
362 0 112.174 10.8581 1218 82.8686 986.93 477.697
363 0 116.2 11.093 1289 81.9403 986.853 474.909
364 0 117.201 10.9384 1282 83.9766 987.15 470.892
365 0 121.256 10.8449 1315 83.508 987.648 471.194
366 0 124.245 10.6725 1326 86.1018 987.566 468.636
367 0 124.207 10.096 1254 87.9864 988.072 466.907
368 0 132.335 11.5691 1531 84.8328 987.852 467.291
369 1 70.1328 9.95255 698 81.7837 988.566 499.308
370 0 73.0663 11.1543 815 78.2699 988.508 497.706
371 0 74.1519 11.1528 827 82.468 988.792 493.688
372 0 73.1178 9.98389 730 84.5493 989.237 484.473
373 0 77.064 10.2772 792 83.4053 988.566 488.948
374 0 79.1058 10.4923 830 82.8265 988.6 487.381
375 0 81.0519 10.2774 833 84.0624 988.969 485.57
376 0 86.1364 11.0174 949 81.6291 989.084 484.475
377 0 89.1052 10.6054 945 83.3598 989.329 482.867
378 0 91.0801 10.7158 976 83.3391 989.458 479.971
379 0 96.1135 11.0598 1063 77.8457 989.615 486.722
380 0 99.0932 10.9997 1090 79.5073 989.783 483.008
381 0 102.057 11.0624 1129 79.7006 989.473 481.115
382 0 104.081 10.9626 1141 81.1043 988.716 479.568
383 0 108.113 11.5065 1244 82.3031 989.374 477.262
384 0 111.076 11.5056 1278 84.6432 989.292 476.828
385 0 115.155 11.6538 1342 85.4531 989.313 473.589
386 0 116.052 11.6327 1350 88.0222 989.6 470.945
387 0 123.201 11.9398 1471 87.4514 989.195 471.07
388 0 127.084 12.3776 1573 85.2384 989.584 469.259
389 0 131.102 12.0365 1578 90.2909 990.117 468.071
390 0 137.167 12.6415 1734 89.8864 989.79 465.085
391 0 139.188 12.5729 1750 88.2754 989.245 460.527
392 0 143.159 11.7981 1689 91.315 989.084 458.369
393 0 149.236 12.1352 1811 91.3843 989.086 455.461
394 1 76.3029 11.4543 874 90.5092 989.215 491.823
395 0 77.2701 11.5051 889 91.4736 989.443 488.189
396 0 78.2419 12.0012 939 93.6699 989.744 486.242
397 0 78.1461 11.4913 898 92.7639 989.913 484.411
398 0 76.1167 11.5218 877 93.171 990.141 478.846
399 0 79.1067 10.7197 848 87.4092 990.044 481.416
400 0 84.1347 9.75816 821 88.8684 989.32 478.79
401 0 88.0809 11.1602 983 86.1038 990.112 480.274
