time division length width area intensity CMx CMy
0 0 66.0666 13.108 866 115.515 920.778 494.719
1 0 68.0232 13.2749 903 111.502 920.305 494.484
2 0 70.0607 12.6462 886 113.052 920.305 493.155
3 0 73.0507 13.429 981 107.871 920.357 493.033
4 0 74.0582 13.0708 968 107.796 920.96 491.227
5 0 78.0196 13.4197 1047 103.429 920.648 490.526
6 0 80.0346 13.4442 1076 103.466 921.049 487.951
7 0 83.0602 12.9183 1073 103.486 920.609 488.401
8 1 42.0297 11.825 497 103.753 921.523 506.992
9 0 43.0546 12.2171 526 103.397 921.445 507.029
10 0 44.0452 12.7369 561 100.651 920.504 506.601
11 0 46.0254 12.7756 588 102.724 919.646 505.631
12 0 48.0196 13.0155 625 100.269 920.126 506.146
13 0 48.0695 13.2933 639 99.3005 919.172 505.476
14 0 46.0332 11.9045 548 92.1624 919.624 505.681
15 0 46.0131 12.2791 565 91.6991 919.354 505.163
16 0 49.0666 12.5136 614 88.4251 919.829 505.44
17 0 50.0219 12.5145 626 88.0527 919.641 504.32
18 0 51.1223 12.9298 661 87.7262 919.648 503.507
19 0 51.0663 12.6698 647 90.575 919.839 503.889
20 0 52.0405 12.1444 632 90.826 920.472 503.658
21 0 57.0905 13.2947 759 85.4071 920.178 501.107
22 0 57.0477 13.2871 758 86.1834 920.174 499.817
23 0 57.0405 12.9031 736 86.6304 918.681 501.258
24 0 61.0343 12.7142 776 86.982 919.174 498.58
25 0 62.0622 12.5197 777 86.9176 919.566 498.467
26 0 64.0461 12.8189 821 86.4129 919.415 498.274
27 0 66.0503 12.6722 837 86.2855 919.589 497.836
28 0 67.0397 12.4553 835 88.9904 920.036 495.742
29 0 69.056 12.8881 890 87.9607 920.26 495.053
30 0 71.0966 11.7165 833 90.9568 919.752 494.941
31 0 72.0379 12.5489 904 89.5 920.135 492.201
32 0 75.0241 12.4627 935 89.108 920.167 493.376
33 0 80.0374 12.8815 1031 86.6634 919.225 490.691
34 0 80.0836 12.9365 1036 87.1535 918.307 490.774
35 0 84.0643 12.8235 1078 86.7904 918.686 488.883
36 0 87.1521 13.0117 1134 86.5044 918.978 488.4
37 0 91.0664 13.0674 1190 85.8378 918.648 484.609
38 0 92.1075 12.6157 1162 86.636 918.399 482.04
39 1 49.0607 10.9252 536 86.5466 918.836 501.56
40 0 51.0671 12.0234 614 84.6384 918.407 500.208
41 0 53.0844 13.3184 707 85.4413 918.409 502.264
42 0 54.0717 12.6314 683 88.1054 918.004 500.534
43 0 56.0296 12.9396 725 86.4414 918.212 502.923
44 0 58.0334 12.6996 737 86.7815 918.273 500.917
45 0 61.0193 12.8484 784 87.8903 917.931 500.115
46 0 61.1232 12.892 788 89.3997 917.981 499.053
47 0 65.0217 13.0264 847 88.6198 917.642 497.037
48 0 67.1091 13.0981 879 89.2651 917.838 495.925
49 0 69.0417 13.0211 899 87.6251 917.926 496.55
50 0 72.0615 13.3636 963 87.3873 918.793 493.611
51 0 74.0498 13.2208 979 89.1267 918.436 492.003
52 0 76.0628 12.9893 988 90.2389 918.942 491.409
53 0 79.0385 13.3606 1056 90.0682 918.967 488.936
54 0 82.1109 13.701 1125 89.56 919.107 489.909
55 0 84.0916 13.2475 1114 91.5485 918.972 487.104
56 0 87.0598 13.8755 1208 90.9346 918.754 485.154
57 0 90.0905 13.6085 1226 93.0204 919.047 483.24
58 0 93.0927 14.1257 1315 91.8411 918.278 483.04
59 0 94.0752 13.6168 1281 94.6948 919.169 480.673
60 0 97.099 13.9239 1352 94.5754 919.393 479.394
61 0 101.062 13.5065 1365 96.2696 919.31 478.853
62 0 104.117 13.8498 1442 95.8828 919.205 476.223
63 0 110.151 13.9808 1540 94.7851 919.258 474.429
64 0 111.096 14.258 1584 95.9564 919.105 470.621
65 0 116.106 14.1594 1644 95.4471 918.504 470.431
66 0 117.13 13.4979 1581 97.6306 918.51 467.167
67 0 122.135 13.788 1684 97.5778 917.69 465.632
68 0 125.092 13.4861 1687 99.1482 918.35 463.872
69 1 70.0215 10.7824 755 90.6728 918.509 493.225
70 0 72.1158 11.8143 852 90.608 918.962 493.231
71 0 75.033 12.3945 930 92.6978 919.069 495.195
72 0 76.0276 12.2719 933 91.5648 919.811 493.642
73 0 78.0458 12.7489 995 91.792 919.304 492.095
74 0 82.0475 13.029 1069 90.8419 919.584 491.324
75 0 84.0605 13.2999 1118 92.7111 919.019 489.47
76 0 86.1191 12.773 1100 95.26 919.079 488.038
77 0 89.0679 12.4961 1113 94.9057 918.076 485.662
78 0 92.038 12.9077 1188 94.2222 919.092 484.436
79 0 96.0528 13.5759 1304 91.2469 919.03 481.15
80 0 98.095 13.2015 1295 92.9475 919.286 482.19
81 0 101.034 13.2035 1334 93.7669 919.802 477.897
82 0 105.034 12.5674 1320 94.4424 920.293 476.98
83 0 108.04 12.4953 1350 93.6378 919.995 474.192
84 0 112.075 13.2946 1490 90.6168 919.66 472.01
85 1 62.0436 11.234 697 87.34 919.733 499.244
86 0 64.0379 11.8836 761 84.1367 919.619 498.543
87 0 64.0406 11.7113 750 86.0293 920.048 496.304
88 0 63.1191 10.393 656 81.628 919.828 498.366
89 0 69.0527 11.5274 796 78.299 919.318 496.887
90 0 70.0598 11.4331 801 79.3895 919.472 496.767
91 0 71.0509 11.2455 799 80.5206 919.004 495.822
92 0 74.0867 11.1491 826 80.8099 919.271 493.062
93 0 78.1818 11.3581 888 81.8581 918.62 491.151
94 0 79.1198 11.1729 884 84.621 918.554 490.097
95 0 83.1118 11.659 969 83.9226 918.581 490.172
96 0 88.0913 12.3395 1087 83.943 918.638 486.152
97 0 90.0778 11.5567 1041 85.4448 918.272 486.05
98 0 92.0723 11.6322 1071 86.1354 918.157 483.777
99 0 98.0967 11.2644 1105 85.7747 918.088 482.27
100 0 101.043 11.886 1201 84.5296 917.998 480.139
101 0 105.084 11.4861 1207 85.029 917.93 477.239
102 0 104.152 10.9455 1140 86.7763 917.418 476.933
103 0 110.1 11.9619 1317 84.1944 917.976 475.199
104 1 56.0665 10.7373 602 87.6312 916.904 499.929
105 0 58.0631 10.833 629 86.5994 917.456 499.351
106 0 60.0247 10.9788 659 85.6282 917.789 499.974
107 0 60.0523 11.1236 668 85.762 917.835 497.184
108 0 63.0605 11.6713 736 84.4959 917.731 495.952
109 0 63.085 11.3498 716 86.3631 917.814 494.904
110 0 68.0407 11.8899 809 84.351 918.268 495.002
111 0 69.0582 11.7437 811 85.222 917.741 492.836
112 0 70.0613 11.7468 823 85.5298 917.7 493.173
113 0 74.0839 12.0269 891 84.7217 918.131 492.754
114 0 75.0356 11.9277 895 85.8961 917.552 490.678
115 0 75.0411 11.9535 897 127.594 917.575 490.538
116 0 79.0241 11.6294 919 87.1295 917.236 488.506
117 0 80.0764 11.6888 936 88.031 918.255 487.631
118 0 81.0352 11.1186 901 89.4573 917.802 486.152
119 0 87.0604 11.2566 980 89.0194 917.761 484.593
120 0 88.0322 11.7798 1037 88.2729 917.794 485.446
121 0 89.12 11.8043 1052 88.5646 917.2 483.207
122 0 93.0696 11.3786 1059 88.2021 917.331 481.68
123 0 98.0924 11.8154 1159 86.421 917.052 481.081
124 0 100.071 12.1713 1218 86.1716 917.567 478.139
125 0 101.057 11.7855 1191 87.0168 917.311 478.206
126 1 55.0258 9.65001 531 82.8964 917.098 501.211
127 0 58.0475 11.3872 661 77.9682 917.248 502.268
128 0 58.0705 10.9005 633 79.1975 917.458 501.466
129 0 62.1207 11.3167 703 75.9132 918.317 500.201
130 0 62.0942 11.5148 715 76.7231 917.248 498.862
131 0 64.0381 11.54 739 74.866 916.985 496.31
132 0 66.0783 12.7273 841 72.6956 918.216 496.144
133 0 67.0674 10.7653 722 72.6219 917.132 496.274
134 0 68.051 10.3893 707 73.0622 918.103 498.284
135 0 71.1209 10.672 759 72.2635 918.121 495.357
136 0 71.1131 10.4763 745 73.4859 917.87 494.918
137 0 76.1086 10.9712 835 72.8647 919.675 493.311
138 0 79.1262 10.5275 833 74.2209 918.786 492.385
139 0 80.1395 10.8436 869 74.5293 917.644 490.375
140 0 85.2025 11.4668 977 72.9887 917.561 490.156
141 0 86.1253 11.0188 949 74.2392 917.598 489.096
142 0 89.1479 11.666 1040 73.7894 917.572 487.895
143 0 92.1271 10.9088 1005 75.6846 918.24 485.173
144 0 97.1789 11.6795 1135 73.6969 918.222 483.125
145 0 98.1984 11.0389 1084 74.0129 918.442 482.109
146 0 101.248 11.6052 1175 76.8919 918.366 479.842
147 0 103.1 11.2124 1156 77.564 917.912 479.92
148 0 107.17 11.4398 1226 76.845 917.504 477.821
149 1 55.0784 10.8209 596 75.6728 917.384 503.047
150 0 56.1607 10.4878 589 74.5722 917.52 501.336
151 0 56.0496 10.5442 591 67.6734 918.161 503.854
152 0 57.0289 9.94234 567 68.5503 917.046 504.473
153 0 60.033 10.6608 640 67.2188 917.545 501.334
154 0 60.0201 9.68009 581 69.0809 917.47 501.446
155 0 63.0199 10.3618 653 68.1562 917.274 498.79
156 0 64.0498 9.50823 609 69.3481 917.332 499.519
157 0 67.0411 10.4712 702 68.49 917.546 496.249
158 0 70.0529 10.0781 706 69.3754 917.458 495.771
159 0 73.0254 11.0099 804 68.8532 917.281 493.908
160 0 74.0149 10.4168 771 70.5824 916.742 493.632
161 0 76.0478 10.283 782 73.546 917.077 489.349
162 0 78.0288 10.1373 791 74.646 917.575 490.118
163 0 81.0463 10.0313 813 77.0898 917.047 487.547
164 0 85.0711 11.3552 966 77.2629 917.542 485.714
165 0 88.0978 10.8062 952 78.0609 917.838 483.648
166 0 90.0741 10.9799 989 78.3266 918.21 481.239
167 1 46.0698 8.70419 401 73.6309 917.895 506.414
168 0 47.1064 9.12828 430 73.7279 918.349 506.481
169 0 50.2005 9.86047 495 72.0525 918.255 504.135
170 0 51.0466 9.67743 494 73.6437 918.186 503.765
171 0 54.0129 10.2568 554 72.1949 917.388 503.444
172 0 55.0417 11.4459 630 70.5206 918.075 501.746
173 0 57.0349 10.9757 626 71.508 918.372 501.415
174 0 59.1948 11.2341 665 79.9248 917.929 499.695
175 0 61.1177 11.1424 681 80.5815 917.577 498.564
176 0 64.081 11.0797 710 80.5 917.152 497.541
177 0 65.0829 11.7696 766 80.483 916.943 497.368
178 0 65.0626 11.22 730 81.8767 917.481 495.901
179 0 72.0887 12.4153 895 78.0089 917.921 495.954
180 0 73.1414 12.2092 893 80.2016 917.262 495.337
181 0 76.0663 12.7915 973 79.481 917.97 493.507
182 0 76.0663 12.8178 975 157.36 918.955 493.48
183 0 80.1368 13.0152 1043 81.5676 918.096 490.873
184 0 82.1143 13.2011 1084 82.3773 917.157 489.518
185 0 84.1366 13.2285 1113 82.7233 917.342 488.716
186 0 87.1491 13.299 1159 82.4098 917.786 487.021
187 0 90.1264 12.4381 1121 82.7217 917.49 486.965
188 0 94.1356 12.5882 1185 81.6473 917.039 483.852
189 0 97.402 12.2379 1192 81.1812 916.955 482.072
190 0 98.2207 12.5228 1230 82.8764 918.314 478.47
191 0 101.323 11.863 1202 85.7521 917.535 475.836
192 1 53.1566 10.7418 571 79.9107 917.541 502.722
193 0 56.1945 11.2644 633 81.5276 917.079 501.671
194 0 55.2386 11.4051 630 83.3079 916.536 498.217
195 0 58.1964 11.444 666 85.1111 917.309 499.198
196 0 60.0632 12.5035 751 83.1225 917.274 498.558
197 0 58.0767 10.6411 618 81.534 917.693 500.804
198 0 63.129 11.7696 743 79.1292 917.458 500.876
199 0 62.0376 11.1223 690 81.3464 917.574 499.783
200 0 66.0913 11.6657 771 79.9935 917.628 499.759
201 0 68.1475 12.0767 823 80.452 917.998 496.621
202 0 70.0883 12.0562 845 103.544 916.947 496.936
203 0 71.0407 11.8664 843 103.612 917.304 496.671
204 0 74.0754 11.5423 855 105.037 917.37 493.028
205 0 77.0306 12.5145 964 102.72 917.093 492.994
206 0 79.0552 12.0675 954 104.376 916.936 490.048
207 0 81.0621 11.9168 966 103.146 917.076 490.278
208 0 85.1103 12.0197 1023 101.238 917.083 489.152
209 0 87.0775 11.5529 1006 100.507 917.32 489.494
210 0 90.0235 11.6969 1053 100.787 916.826 486.008
211 0 92.0593 11.1776 1029 101.573 916.249 485.269
212 0 95.07 11.928 1134 102.551 915.836 482.276
213 0 98.0297 11.9556 1172 107.209 915.864 481.713
214 0 99.079 11.617 1151 108.783 916.463 480.43
215 0 101.092 11.9001 1203 103.444 915.438 480.139
216 0 106.054 12.1825 1292 102.938 915.614 478.168
217 1 54.0124 12.0528 651 101.3 915.186 502.559
218 0 57.0098 11.4542 653 100.054 914.879 502.06
219 0 57.0381 11.9219 680 99.9485 915.915 500.872
220 0 61.0151 11.8495 723 98.9156 915.201 500.252
221 0 63.0288 12.058 760 98.454 914.437 498.903
222 0 64.0451 11.648 746 100.071 914.631 498.534
223 0 66.0337 11.9636 790 98.9873 915.251 496.765
224 0 68.0365 11.5085 783 100.052 915.313 496.138
225 0 71.0484 11.64 827 99.2285 915.787 495.23
226 0 73.0383 11.8705 867 98.6805 915.627 494.83
227 0 76.0342 11.942 908 99.2885 915.63 492.803
228 0 75.0982 11.7579 883 102.386 915.572 491.048
229 0 79.1475 11.5481 914 101.633 915.782 491.306
230 0 83.1283 11.9213 991 101.74 915.133 490.008
231 0 85.1118 12.0312 1024 100.902 915.59 488.65
232 0 84.1055 11.4142 960 138.857 915.614 487.625
233 0 89.1283 11.4891 1024 101.552 915.707 485.079
234 0 92.1262 11.9619 1102 99.3203 915.534 483.955
235 1 46.0306 10.6451 490 92.3776 914.924 508.376
236 0 46.0179 10.3438 476 95.1282 914.538 506.792
237 0 48.0244 10.1823 489 94.5726 914.906 507.072
238 0 50.061 10.4672 524 92.1966 914.679 506.002
239 0 50.0719 10.425 522 84.9406 915.914 506.458
240 0 49.0757 11.0645 543 83.6151 916.015 505.494
241 0 52.0411 11.6062 604 82.3195 915.636 505.214
242 0 55.0815 12.1275 668 80.488 915.24 504.663
243 0 55.068 11.6583 642 83.3442 915.05 504.058
244 0 55.0699 11.2947 622 85.7926 914.775 502.773
245 0 58.0573 11.9193 692 85.2587 914.864 502.202
246 0 58.052 10.9729 637 89.6907 914.598 502.794
247 0 59.0606 10.7009 632 90.8845 914.549 503.337
248 0 61.0334 10.7318 655 90.9572 914.438 501.876
249 0 65.0725 11.6947 761 89.8016 914.699 500.29
250 0 65.126 11.2551 733 90.9454 915.371 499.988
251 0 67.067 11.1381 747 92.1124 916.055 498.523
252 0 68.0867 11.221 764 92.6453 915.988 498.344
253 0 69.0744 11.1474 770 93.2506 915.518 496.175
254 0 73.075 11.3445 829 92.2147 915.233 494.724
255 0 74.039 11.2373 832 91.8858 915.239 494.542
256 0 78.0622 12.0545 941 89.7662 915.463 492.604
257 0 79.0568 11.789 932 90.3315 915.398 493.473
258 0 81.0863 11.9256 967 91.484 916.058 488.692
259 0 83.0902 12.1555 1010 91.2327 915.472 489.358
260 0 85.0497 11.1582 949 94.7787 915.969 487.008
261 0 88.0279 11.6668 1027 95.1061 916.072 485.747
262 0 88.0583 11.6173 1023 96.1662 915.906 484.98
263 0 92.0793 11.729 1080 95.8343 915.817 484.075
264 0 95.0253 12.2283 1162 95.4217 915.698 482.018
265 0 96.018 11.5291 1107 98.9973 916.554 479.365
266 0 98.0666 11.2475 1103 100.398 915.871 478.968
267 0 103.094 11.8144 1218 99.2307 914.85 476.477
268 0 105.051 11.68 1227 99.445 915.219 475.056
269 0 108.074 12.1214 1310 98.8901 915.325 473.281
270 0 107.084 12.1961 1306 123.659 915.316 472.682
271 0 116.071 12.2942 1427 98.2306 915.532 470.362
272 0 119.097 12.2337 1457 99.6513 916.312 470.104
273 0 123.108 12.4768 1536 99.4674 915.906 465.548
274 0 129.149 12.9153 1668 99.0761 916.021 462.776
275 1 66.0763 11.6078 767 94.545 915.492 495.116
276 0 67.062 11.4372 767 95.5606 916.15 494.566
277 0 68.0612 11.8423 806 96.4988 915.115 493.589
278 0 71.0753 12.2687 872 96.0447 915.388 493.346
279 0 75.0543 12.4976 938 96.4691 914.93 492.71
280 0 77.051 12.7189 980 97.9031 915.043 489.814
281 0 79.0562 12.3836 979 98.8376 915.568 489.61
282 0 83.0413 13.2705 1102 94.9465 915.345 488.413
283 0 84.0715 12.5488 1055 97.7005 915.869 487.209
284 0 88.0224 13.2807 1169 94.6253 915.304 486.138
285 0 89.0548 12.2397 1090 97.7404 916.294 483.377
286 0 91.0429 12.1921 1110 95.9171 915.926 483.836
287 0 93.0282 12.6091 1173 93.8892 916.118 484.649
288 0 94.0486 12.1108 1139 96.5874 916.207 482.042
289 0 98.0225 12.1095 1187 95.4516 915.763 478.996
290 1 57.0179 10.6808 609 92.6897 915.982 499.79
291 0 58.0605 10.8508 630 93.1667 915.652 499.121
292 0 61.1028 11.3743 695 91.9755 915.288 499.304
293 0 62.0333 12.2515 760 91.2013 916.668 497.143
294 0 64.0873 12.0305 771 92.0921 916.515 496.729
295 0 65.0221 12.0421 783 91.2886 916.234 494.397
296 0 68.0518 12.2701 835 92.4132 916.553 495.908
297 0 70.0654 11.8889 833 90.6999 916.161 494.128
298 0 72.0336 11.4252 823 93.5759 915.435 491.54
299 0 75.049 12.6184 947 90.642 915.542 493.512
300 0 76.0796 11.9874 912 93.6294 914.942 491.739
301 0 79.0347 11.6405 920 94.6946 915.492 490.984
302 0 83.0719 12.3387 1025 93.4361 915.421 489.245
303 0 86.0374 12.4364 1070 93.814 915.78 488.039
304 0 87.0523 12.2225 1064 95.3177 915.861 486.797
305 0 91.0679 12.5071 1139 95.3161 915.278 485.326
306 0 94.0634 12.6617 1191 94.0823 915.526 484.654
307 0 96.0667 12.0854 1161 98.1576 915.09 483.751
308 0 99.1236 12.3079 1220 95.923 914.917 482.147
309 1 52.0172 10.5158 547 85.4333 914.567 506.539
310 0 54.0392 10.6959 578 83.1972 914.946 506.476
311 0 54.0166 11.1632 603 81.8988 915.896 505.224
312 0 58.0413 11.6986 679 79.1119 915.691 506.174
313 0 57.0294 11.9938 684 80.3962 916.076 504.287
314 0 60.0251 11.6285 698 80.0616 916.099 504.413
315 0 60.0228 11.8122 709 81.3498 916.121 503.811
316 0 61.0534 11.6947 714 80.9608 915.147 502.469
317 0 64.0848 11.9685 767 79.266 916.181 502.244
318 0 66.0703 11.291 746 80.0938 915.477 501.398
319 0 68.0636 11.5186 784 79.6926 915.268 499.723
320 0 72.0775 11.9871 864 78.8692 914.617 499.152
321 0 72.0396 11.6047 836 78.7237 915.145 498.48
322 0 76.1212 12.2305 931 77.4146 914.734 497.736
323 0 79.1245 12.4108 982 77.7658 915.536 496.244
324 0 82.044 11.957 981 87.108 915.585 494.591
325 0 84.0791 11.1086 934 89.7024 915.239 492.451
326 0 89.0784 12.1915 1086 87.0479 914.206 493.047
327 0 91.0987 11.976 1091 89.0257 913.988 491.409
328 1 45.0513 9.81103 442 88.2172 914.41 513.907
329 0 47.0833 10.4071 490 86.0306 914.076 513.545
330 0 48.0524 10.884 523 83.6654 913.446 513.004
331 0 50.0735 11.5031 576 82.526 913.554 510.234
332 0 53.1464 11.1579 593 79.661 914.16 508.894
333 0 53.1497 11.6275 618 81.5906 913.532 507.922
334 0 54.0271 10.1246 547 77.808 913.58 507.702
335 0 56.0171 10.7646 603 77.1625 913.783 506.746
336 0 60.0311 11.3774 683 75.6252 913.656 505.621
337 0 60.0978 11.7309 705 75.4326 913.532 505.414
338 0 64.0252 12.4951 800 74.6075 913.518 502.499
339 0 65.0772 12.2931 800 75.7362 913.498 504.262
340 0 67.035 12.4711 836 76.3995 913.572 502.289
341 0 67.0575 11.766 789 79.0558 912.973 502.901
342 0 71.0846 11.8732 844 81.0107 913.526 500.537
343 0 71.0707 12.1428 863 82.9142 913.081 501.093
344 0 75.1084 12.7682 959 81.049 912.392 499.162
345 0 76.0517 12.1891 927 84.7087 912.308 499.409
346 0 77.0493 11.6419 897 86.3389 912.356 497.419
347 0 81.0773 11.8159 958 85.1931 912.193 497.426
348 0 82.1115 11.8619 974 86.1283 912.044 494.572
349 0 86.0493 11.7607 1012 87.2757 911.54 493.854
350 0 89.0475 11.9375 1063 87.2164 911.976 492.674
351 0 90.0857 11.6112 1046 89.5382 911.903 490.882
352 0 94.1079 11.9862 1128 89.3147 911.381 488.624
353 0 98.0591 12.0947 1186 90.6071 912.053 487.046
354 0 101.132 12.0833 1222 90.712 911.694 486.35
355 0 104.094 11.9124 1240 91.5073 911.941 482.088
356 1 51.0368 9.75766 498 90.9458 911.747 510.143
357 0 54.0463 10.1395 548 91.0474 912.423 509.96
358 0 55.0368 11.0653 609 90.1461 911.693 506.087
359 0 56.0421 11.2237 629 88.8903 912.45 506.229
360 0 61.0712 11.1837 683 84.9649 912.674 504.938
361 0 62.0219 11.5927 719 86.2128 912.485 505.26
362 0 65.0374 11.6394 757 84.7556 912.312 503.443
363 0 61.0369 10.551 644 90.3323 912.654 505.261
364 0 66.0421 10.8567 717 89.5886 912.796 504.24
365 0 68.0848 11.1185 757 88.9472 913.221 502.707
366 0 69.0884 10.8701 751 91.6112 913.31 501.65
367 0 73.0262 11.4753 838 90.8628 913.777 499.658
368 0 76.1085 11.8384 901 90.5139 914.003 499.395
369 0 78.0691 12.2328 955 89.7644 914.249 498.563
370 0 79.077 11.8366 936 90.8622 914.126 499.007
371 0 82.0842 12.2801 1008 92.25 914.934 494.38
372 0 83.1339 11.4755 954 94.9581 914.525 496.425
373 0 85.0669 11.8495 1008 95.4663 914.395 494.374
374 0 89.0846 11.9886 1068 94.5084 914.36 493.251
375 0 92.0858 12.0431 1109 95.8242 914.695 490.855
376 0 97.0932 12.1224 1177 94.8692 914.652 487.193
377 0 100.208 12.3443 1237 94.4099 914.785 486.959
378 0 104.176 12.1909 1270 94.9087 914.782 484.128
379 1 57.063 11.3208 646 92.808 915.186 505.873
380 0 58.1724 11.0018 640 92.1812 914.552 500.819
381 0 58.1725 10.9158 635 89.4835 914.309 497.556
382 0 60.1061 11.2967 679 85.0324 913.891 504.969
383 0 60.062 11.6879 702 86.4843 914.44 504.03
384 0 63.1115 10.9647 692 82.9682 914.39 502.874
385 0 64.0225 10.1527 650 84.3354 914.343 502.029
386 0 67.0759 10.3614 695 82.8331 914.699 499.932
387 0 69.0571 9.80348 677 82.3678 914.168 499.902
388 0 72.0796 10.863 783 77.046 914.825 497.199
389 0 74.0729 10.5977 785 78.4739 915.059 495.763
390 0 76.0593 10.0842 767 80.9661 914.69 493.837
391 0 82.1077 11.6311 955 74.7832 914.555 493.34
392 0 85.0854 10.7539 915 77.1924 914.488 492.508
393 0 87.0993 11.2171 977 75.48 914.745 491.125
394 0 90.1832 11.2327 1013 76.5281 914.618 488.839
395 0 92.1701 11.4137 1052 79.2804 914.913 486.744
396 0 96.1175 11.5796 1113 80.1608 915.131 485.544
397 0 99.1556 11.7593 1166 79.5026 915.19 482.533
398 0 101.12 12.0451 1218 79.7365 914.961 481.833
399 0 104.128 12.1581 1266 79.8634 915.613 479.311
400 0 109.156 11.9645 1306 80.2052 914.693 475.763
401 0 113.117 12.5092 1415 78.6933 915.599 474.669
402 0 117.126 11.9871 1404 82.104 915.229 470.882
