time division length width area intensity CMx CMy
0 0 65.0885 13.0131 847 97.9445 246.723 508.955
1 0 66.0396 12.6136 833 98.437 246.186 507.17
2 0 68.0498 12.917 879 96.8294 245.43 506.117
3 0 70.0339 12.8938 903 95.7907 245.551 506.069
4 0 73.0354 12.6103 921 95.0727 245.483 504.575
5 0 74.0197 12.8885 954 93.0681 245.519 502.83
6 0 78.0728 12.8214 1001 92.7672 246.01 502.362
7 0 79.0458 12.6509 1000 92.466 245.63 502.105
8 0 82.0495 13.4431 1103 89.1469 246.084 501.5
9 0 86.0782 13.8363 1191 87.7515 245.739 498.982
10 0 87.0502 13.1878 1148 88.8571 245.725 497.941
11 0 90.0323 12.5288 1128 89.3475 244.801 494.952
12 0 94.027 12.422 1168 87.7397 245.366 495.802
13 0 98.048 12.5857 1234 86.9862 245.164 493.746
14 0 102.091 13.2431 1352 84.0481 245.317 495
15 0 105.109 12.9009 1356 83.9779 244.623 491.097
16 1 48.0594 11.0072 529 81.9981 244.578 518.94
17 0 50.0842 11.6005 581 82.4251 244.449 517.836
18 0 52.0544 12.4869 650 80.5677 244.269 516.651
19 0 52.0444 12.9889 676 79.9349 244.725 517.635
20 0 55.0629 12.7491 702 78.651 244.594 518.231
21 0 56.0297 12.8503 720 79.9111 244.312 517.033
22 0 58.0486 12.524 727 81.1114 244.22 514.978
23 0 60.0362 12.5091 751 80.2237 244.435 514.877
24 0 60.0409 12.3083 739 81.8471 244.118 513.934
25 0 62.029 12.204 757 82.1704 244.827 512.486
26 0 64.0367 12.0243 770 82.6688 243.674 511.794
27 0 67.075 12.1655 816 81.7598 243.869 510.93
28 0 67.0506 12.9604 869 81.2509 243.674 509.93
29 0 70.0477 12.363 866 82.8776 244.324 508.588
30 0 70.0685 12.6162 884 83.1923 244.071 506.786
31 0 74.1201 12.3044 912 83.2971 244.145 506.093
32 0 75.0585 12.4436 934 84.0407 244.496 503.935
33 0 81.0806 12.8761 1044 81.9339 243.882 501.516
34 0 82.087 12.2797 1008 84.502 243.767 499.571
35 0 86.1716 12.7884 1102 83.3466 243.672 498.995
36 0 89.0607 13.2831 1183 83.6492 243.59 496.739
37 0 93.0825 13.0744 1217 84.8998 243.467 495.533
38 0 98.0571 13.5023 1324 84.1518 243.154 491.835
39 0 100.156 12.6003 1262 86.519 243.959 491.118
40 0 106.151 13.3112 1413 84.2895 243.643 488.616
41 0 107.076 13.0001 1392 85.7557 243.844 487.501
42 0 111.161 13.1971 1467 85.773 243.53 486.185
43 0 116.072 12.6904 1473 86.9844 243.686 486.642
44 0 119.235 13.6201 1624 84.5653 243.654 480.842
45 0 123.257 13.4597 1659 85.3641 243.181 477.521
46 0 126.131 12.828 1618 87.9592 243.389 476.734
47 0 131.243 12.8617 1688 88.1931 243.037 474.105
48 0 136.162 12.6834 1727 88.9716 242.884 471.395
49 0 141.184 13.7409 1940 86.9113 242.861 467.555
50 0 148.154 13.7763 2041 86.317 242.981 468.271
51 1 76.1122 11.3254 862 87.3074 243.276 505.01
52 0 80.0715 12.264 982 84.6752 243.344 504.547
53 0 83.1084 12.2611 1019 85.4279 244.023 502.281
54 0 85.1148 12.7475 1085 84.377 243.818 501.614
55 0 87.0583 13.198 1149 83.597 244.285 499.049
56 0 90.0792 12.4335 1120 83.7366 244.704 498.873
57 0 90.075 11.8346 1066 84.9681 243.91 496.544
58 0 94.0982 12.1575 1144 83.403 244.407 495.747
59 0 96.1012 12.414 1193 83.5775 243.898 491.883
60 0 99.0905 11.5248 1142 84.7084 243.682 492.102
61 0 101.117 11.5411 1167 85.1662 243.817 489.155
62 0 108.089 11.5645 1250 84.0816 243.26 487.496
63 1 52.0497 9.99045 520 82.0481 243.888 513.144
64 0 57.0224 11.6796 666 85.1922 243.36 516.186
65 0 57.0841 12.1925 696 84.1307 243.878 519.075
66 0 59.0241 12.012 709 84.5529 243.612 519.585
67 0 60.0369 11.3264 680 87.5721 243.25 518.412
68 0 64.052 11.881 761 85.8555 243.828 517.022
69 0 66.0253 11.8742 784 86.0625 243.622 516.517
70 0 68.0354 12.0378 819 86.58 243.026 515.918
71 0 70.0421 11.9928 840 87.5893 243.185 515.596
72 0 73.0246 12.2424 894 87.0738 243.606 512.93
73 0 75.0755 11.9613 898 87.9532 243.488 510.322
74 0 77.2348 11.2902 872 89.7706 244.558 509.498
75 0 79.1366 11.7897 933 89.7674 244.384 509.277
76 0 81.1376 12.1275 984 89.1911 244.958 507.794
77 0 84.1317 11.7673 990 89.701 244.815 506.497
78 0 86.081 11.7796 1014 90.071 244.579 505.136
79 1 49.0799 10.758 528 89.5928 244.805 522.686
80 0 48.0639 10.3196 496 85.1734 245.026 520.76
81 0 48.0334 10.2845 494 82.832 245.18 518.988
82 0 51.0184 11.4272 583 80.3328 244.72 524.88
83 0 52.0495 11.0087 573 82.2077 244.34 522.944
84 0 52.0492 11.0472 575 83.8591 244.452 522.437
85 0 53.0603 10.9121 579 83.8636 243.995 522.459
86 0 57.0499 11.4812 655 82.2046 244.745 522.408
87 0 58.0443 11.1983 650 84.1215 244.289 520.354
88 0 60.0544 11.3897 684 83.5585 244.629 519.509
89 0 61.0427 11.1889 683 84.4305 244.357 518.972
90 0 64.0308 11.7443 752 83.4043 244.384 517.612
91 0 67.0326 11.7107 785 84.3452 244.66 516.676
92 0 68.0223 11.9079 810 84.5111 244.011 515.556
93 0 69.0478 11.9338 824 86.4345 243.892 514.421
94 0 73.0566 11.5664 845 87.4544 243.787 513.225
95 0 76.0506 11.9263 907 87.2591 243.772 512.241
96 0 76.069 12.0023 913 88.2519 244.159 511.114
97 0 79.0779 11.9502 945 88.4878 244.453 510.59
98 0 81.1075 11.5526 937 90.0961 244.244 510.039
99 1 41.0244 10.2622 421 89.4418 243.518 527.366
100 0 43.0236 10.5059 452 90.0996 243.347 526.529
101 0 45.0262 11.7931 531 88.2241 243.33 526.586
102 0 45.1033 11.4404 516 80.5969 244.672 526.039
103 0 44.0186 10.6091 467 83.7388 243.959 527.306
104 0 45.0256 10.6606 480 83.6896 243.496 528.11
105 0 47.0298 10.9505 515 85.1476 244 526.047
106 0 48.0491 11.4466 550 84.8927 244.1 524.938
107 0 47.0517 11.1367 524 85.9561 243.468 525.126
108 0 49.0147 11.0171 540 87.013 243.917 523.507
109 0 51.0193 11.231 573 86.8185 243.574 523.709
110 0 52.031 11.8006 614 86.6352 244.586 522.829
111 0 53.0261 11.5981 615 87.7837 244.665 522.366
112 0 56.0445 12.0083 673 86.1917 244.614 521.593
113 0 57.0407 11.3778 649 88.2018 244.051 521.567
114 0 58.0617 11.4189 663 89.6063 243.505 519.17
115 0 59.0148 11.0989 655 90.8656 243.183 519.627
116 0 62.016 11.755 729 88.9506 243.652 519.737
117 0 63.0486 12.2128 770 89.6805 243.784 518.109
118 0 67.0445 12.5588 842 88.3931 244.135 517.314
119 0 70.0982 12.8106 898 88.735 243.753 514.45
120 0 70.0146 12.6402 885 90.7729 243.846 515.208
121 0 72.0867 12.5127 902 92.0399 244.416 513.649
122 0 75.0424 12.7661 958 92.0209 243.766 511.237
123 0 78.0711 12.6551 988 92.6144 243.977 510.724
124 0 80.0564 13.3156 1066 92.7758 244.213 510.272
125 0 82.0429 12.7007 1042 95.8397 243.646 508.267
126 0 83.0779 12.5424 1042 97.9079 244.318 507.513
127 0 86.0534 12.9571 1115 97.2628 244.111 506.227
128 0 90.0866 13.4093 1208 94.6573 243.651 506.604
129 0 92.0644 13.3494 1229 96.7152 243.928 504.612
130 0 93.0546 13.4975 1256 98.2691 244.118 501.896
131 0 97.0473 13.0452 1266 97.6185 244.121 501.576
132 0 98.0703 13.5311 1327 97.2163 243.931 499.833
133 0 103.055 13.9731 1440 95.3604 243.985 498.339
134 0 104.104 13.5057 1406 97.9331 243.58 496.526
135 0 106.038 13.9384 1478 97.4682 243.894 495.603
136 0 110.07 13.7458 1513 98.4798 244.688 494.373
137 0 113.044 13.6849 1547 98.2999 244.499 491.955
138 0 118.078 14.211 1678 97.8093 244.934 490.505
139 0 120.054 13.9603 1676 98.6891 244.505 488.703
140 0 124.105 14.2782 1772 97.3606 244.548 488.392
141 0 130.1 14.7501 1919 100.886 244.828 484.502
142 0 131.071 14.4197 1890 102.908 243.248 483.878
143 0 137.141 13.9929 1919 103.434 243.748 479.809
144 0 143.079 14.8729 2128 100.054 243.613 478.151
145 0 147.12 14.3897 2117 100.63 244.168 475.734
146 0 149.122 13.3046 1984 95.9753 244.079 469.188
147 0 154.066 13.2411 2040 101.936 243.457 470.58
148 0 158.077 13.8161 2184 101.666 244.469 466.267
149 0 164.093 13.2547 2175 104.071 243.535 466.85
150 0 170.126 14.407 2451 101.67 242.677 466.096
151 0 174.199 14.1103 2458 103.258 243.06 460.784
152 0 181.161 13.9213 2522 103.197 243.583 458.293
153 0 187.162 14.2497 2667 102.552 243.216 455.372
154 0 191.117 14.0804 2691 103.619 243.704 453.339
155 0 198.163 14.4477 2863 102.533 243.164 449.571
156 0 204.147 14.3377 2927 101.299 243.076 448.828
157 0 211.144 13.8673 2928 101.357 243.51 446.247
158 0 217.165 13.6993 2975 101.732 243.635 442.991
159 0 224.235 14.1281 3168 101.426 243.571 440.153
160 0 232.25 14.0538 3264 100.984 242.878 434.27
161 1 177.163 13.3832 2371 100.809 242.429 462.853
162 0 183.141 13.3995 2454 99.2584 242.152 456.172
163 0 189.095 13.1786 2492 98.0494 242.275 452.862
164 0 195.115 12.7771 2493 98.0754 242.744 449.083
165 0 201.195 12.893 2594 97.0143 242.759 446.752
166 0 207.205 12.7072 2633 98.4337 242.994 441.248
167 0 215.198 12.7603 2746 95.882 243.871 439.224
168 0 224.221 13.3217 2987 94.8822 243.833 436.044
169 0 230.128 13.071 3008 96.6536 243.526 430.232
170 0 237.253 13.2222 3137 96.4281 243.462 426.798
171 0 245.225 13.5264 3317 96.1685 242.899 421.947
172 0 255.217 13.561 3461 96.1676 243.522 417.632
173 0 263.348 12.8119 3374 95.3927 243.765 412.706
174 1 205.191 10.7315 2202 87.3124 243.861 451.188
175 0 213.205 12.3121 2625 93.533 243.328 442.621
176 0 218.212 12.3137 2687 94.54 242.419 438.44
177 0 224.219 12.7866 2867 93.7583 241.79 433.824
178 0 231.218 13.0915 3027 91.8342 242.356 431.342
179 0 237.222 12.7729 3030 91.1215 242.698 428.497
180 0 245.234 14.321 3512 83.8317 243.2 419.705
181 0 245.224 16.3646 4013 69.3641 243.207 409.938
182 0 242.603 16.8424 4086 66.011 243.45 412.686
183 0 243.484 17.2865 4209 62.4557 243.383 406.137
184 0 243.507 17.133 4172 59.4926 243.538 404.325
185 1 323.656 10.4648 3387 63.9241 243.252 393.22
186 0 321.675 10.1065 3251 60.7447 243.26 398.171
187 0 318.501 8.30767 2646 59.8806 242.591 414.654
188 0 314.402 7.82756 2461 56.72 242.597 413.696
189 0 77.107 17.547 1353 96.8352 241.152 177.846
190 0 79.0548 17.0388 1347 99.1648 241.11 177.134
191 0 81.0603 17.1477 1390 100.48 241.683 175.347
192 0 85.0846 18.2994 1557 97.1952 241.698 174.468
193 0 87.2 17.4541 1522 99.9481 241.359 174.341
194 0 91.1005 18.54 1689 97.1368 242.329 173.136
195 0 94.1756 19.1238 1801 95.1532 241.632 171.115
