time division length width area intensity CMx CMy
0 0 49.0301 11.9314 585 92.3265 999.446 513.785
1 0 50.0507 12.1477 608 91.3322 998.836 513.211
2 0 52.0463 12.681 660 89.2409 998.206 512.012
3 0 52.0713 12.118 631 90.9525 998.331 512.453
4 0 54.0702 12.3358 667 90.2774 998.289 512.088
5 0 56.0647 12.2359 686 89.5175 998.421 510.776
6 0 58.065 13.0027 755 87.155 998.735 509.464
7 0 61.0842 12.0489 736 88.1005 998.443 509.985
8 0 62.1052 12.3983 770 87.4117 998.968 508.553
9 0 63.1343 12.6239 797 87.3036 998.532 508.09
10 0 65.0739 12.3091 801 88.598 998.567 507.845
11 0 69.1425 12.6406 874 87.1419 997.598 505.142
12 0 69.1425 12.6839 877 140.425 997.621 505.184
13 0 73.0801 12.9037 943 87.4369 997.944 503.766
14 0 76.1192 12.5067 952 88.6702 997.97 502.275
15 0 78.028 13.085 1021 87.5886 997.208 501.116
16 0 81.0486 12.7331 1032 88.1521 997.221 497.843
17 0 85.0495 12.8043 1089 87.1341 997.166 497.767
18 0 85.0346 13.1358 1117 87.5828 997.13 497.201
19 0 90.0562 13.6915 1233 86.2393 997.744 496.928
20 0 92.0952 13.4209 1236 88.0793 997.662 494.768
21 0 94.056 13.9917 1316 88.133 997.471 494.418
22 0 99.1322 13.7392 1362 88.2203 997.5 492.75
23 1 47.0209 11.6118 546 91.9158 997.165 516.839
24 0 50.0135 11.6169 581 91.1566 996.888 515.275
25 0 50.1185 12.5303 628 91.0526 998.334 514.952
26 0 51.0483 11.9103 608 85.1135 997.184 515.484
27 0 51.0288 12.5223 639 83.0767 996.881 515.587
28 0 53.0115 12.3558 655 82.9527 996.84 514.151
29 0 56.0262 12.4585 698 82.1991 997.804 513.62
30 0 58.0189 12.3236 715 82.4294 997.515 513.176
31 0 58.0261 12.3048 714 83.2213 997.478 511.901
32 0 62.0708 13.1946 819 81.0452 997.857 511.088
33 0 63.0676 12.8434 810 81.6704 997.112 510.305
34 0 66.0603 12.8367 848 82.0083 997.026 509.787
35 0 67.1158 12.62 847 83.4345 996.932 508.171
36 0 70.098 13.5525 950 87.3863 996.819 505.425
37 0 73.043 14.0191 1024 85.9971 996.811 504.764
38 0 75.0288 13.7414 1031 86.6702 996.431 502.242
39 0 77.0247 13.3723 1030 87.0544 997.154 503.116
40 0 78.0523 13.1066 1023 88.0987 996.79 500.715
41 0 79.0251 13.2996 1051 86.9058 996.962 499.201
42 0 82.1094 13.1897 1083 86.1237 996.595 499.626
43 0 85.0429 13.0875 1113 86.212 996.747 496.708
44 0 87.0656 13.1625 1146 86.4607 996.536 495.258
45 0 89.1605 13.5935 1212 85.8045 996.112 494.195
46 0 92.1371 13.1652 1213 86.4097 996.433 493.708
47 0 94.115 13.271 1249 86.5845 996.056 491.887
48 0 97.1062 13.2638 1288 86.3626 995.872 490.377
49 0 100.106 13.7654 1378 85.9122 995.909 488.784
50 0 103.044 13.2759 1368 87.1623 996.141 486.797
51 0 106.097 13.3369 1415 87.2622 996.71 484.948
52 0 111.066 14.1538 1572 85.3817 996.616 483.386
53 1 60.0229 11.9454 717 85.2678 997.142 510.833
54 0 60.0727 12.7346 765 85.1255 996.926 508.699
55 0 63.0569 13.2261 834 83.2962 997.253 506.811
56 0 65.0484 12.4676 811 83.7645 997.564 506.797
57 0 68.0419 12.7422 867 82.346 996.404 504.197
58 0 69.065 12.452 860 83.4046 997.296 503.794
59 0 72.0266 12.0927 871 83.2193 996.712 502.258
60 0 73.0461 12.2799 897 82.5897 996.642 501.518
61 0 77.1446 12.6256 974 81.2331 996.637 500.107
62 0 79.0669 12.4957 988 81.1336 996.346 497.135
63 0 82.0663 12.6605 1039 80.3523 997.314 496.458
64 0 86.0754 13.1048 1128 78.6543 997.144 493.737
65 0 86.066 11.8397 1019 81.3337 997.548 492.845
66 0 90.0621 12.5025 1126 79.7211 997.368 491.481
67 0 93.0497 11.9399 1111 80.9838 996.918 489.797
68 0 96.1002 12.1228 1165 79.1554 997.561 488.842
69 0 100.17 12.2491 1227 78.5354 996.957 484.76
70 0 100.114 11.8165 1183 79.2029 996.323 483.948
71 0 105.111 12.0635 1268 78.6144 996.677 482.071
72 1 51.0556 10.5375 538 75.0335 996.814 506.206
73 0 53.0746 11.1164 590 74.1339 997.125 505.432
74 0 55.1078 11.6862 644 73.2655 997.719 505.034
75 0 58.0305 11.1493 647 73.1576 997.161 505.941
76 0 61.06 11.4478 699 72.568 997.403 505.371
77 0 63.0396 11.469 723 73.491 997.227 502.124
78 0 65.0952 11.3219 737 73.901 997.037 501.558
79 0 68.0756 11.8251 805 74.4099 997.59 500.209
80 0 70.0616 11.5327 808 75.3502 997.249 499.214
81 0 74.0755 11.7043 867 75.7209 997.204 498.159
82 0 74.0155 11.3355 839 77.4887 998.317 495.243
83 0 80.075 12.0762 967 75.9731 998.126 496.037
84 0 81.1898 11.8734 964 77.8185 998.218 495.386
85 0 84.1328 11.6482 980 79.3786 997.751 493.554
86 0 86.0611 12.189 1049 78.7264 998.553 491.396
87 0 90.0895 11.644 1049 79.47 997.968 489.346
88 0 92.1002 11.7264 1080 79.5982 998.318 487.189
89 0 94.0606 11.886 1118 80.1252 998.011 486.616
90 0 98.1646 12.2244 1200 79.93 998.128 484.682
91 0 103.125 12.8679 1327 79.266 998.385 485.418
92 0 106.088 12.3105 1306 79.3009 997.599 482.723
93 0 109.096 11.9161 1300 80.7338 997.307 480.219
94 0 116.037 11.7635 1365 79.9971 997.602 477.286
95 1 60.0552 10.3571 622 72.2299 997.431 507.211
96 0 63.0426 9.676 610 71.0213 997.325 506.831
97 0 63.0429 10.136 639 71.3568 997.571 505.687
98 0 65.0815 10.894 709 71.6939 997.855 506.582
99 0 67.0631 11.3326 760 71.7026 997.322 504.757
100 0 70.0911 11.0856 777 71.9382 997.063 504.257
101 0 73.0973 11.1906 818 71.2445 997.044 504.143
102 0 74.0776 10.84 803 71.3126 997.088 502.364
103 0 74.0582 10.2487 759 73.1041 997 501.431
104 0 78.0916 10.1547 793 73.1854 996.546 500.709
105 0 81.0288 10.5395 854 73.0059 996.936 498.582
106 0 82.0752 10.8803 893 73.9541 997.402 497.923
107 0 84.1328 11.1372 937 74.0395 997.133 496.793
108 0 88.0514 11.3229 997 73.9398 997.228 493.513
109 0 91.073 10.9253 995 74.4714 996.996 493.539
110 0 92.0701 10.4594 963 76.1433 997.813 490.009
111 0 97.1039 10.8955 1058 74.3526 997.773 489.719
112 0 98.0964 10.3164 1012 74.7164 997.699 489.15
113 0 102.089 10.6378 1086 73.7081 997.279 488.479
114 0 106.056 11.7203 1243 73.1207 996.741 483.266
115 0 107.13 11.556 1238 74.4645 996.249 483.118
116 0 112.098 11.4275 1281 75.7315 996.613 481.088
117 0 116.212 11.2811 1311 78.6056 996.798 479.386
118 0 118.101 11.2107 1324 78.719 996.877 476.341
119 0 125.134 11.7633 1472 77.7874 996.536 472.729
120 0 128.112 12.4344 1593 77.1563 996.701 472.038
121 0 132.157 12.0841 1597 78.2173 997.176 469.518
122 0 136.142 11.7598 1601 78.777 996.409 468.359
123 0 141.142 11.8462 1672 78.0006 996.597 466.455
124 0 145.15 12.4354 1805 77.2227 996.971 463.465
125 0 148.254 12.0739 1790 78.8899 996.442 461.093
126 0 151.249 11.6431 1761 81.816 997.036 456.234
127 0 156.296 12.0156 1878 81.7045 996.674 456.19
128 0 160.264 12.4919 2002 82.4351 996.331 453.638
129 0 165.195 12.5549 2074 83.0887 996.605 450.786
130 0 171.289 12.9606 2220 82.9721 996.858 448.642
131 0 174.247 12.6487 2204 84.4832 996.802 444.279
132 0 180.258 13.4086 2417 84.0492 996.612 442.679
133 0 183.148 13.1205 2403 85.9322 996.673 440.279
134 0 189.232 12.7674 2416 87.3854 996.185 437.938
135 0 196.299 13.1432 2580 87.0969 996.531 433.981
136 0 202.192 13.4031 2710 86.2122 997.251 432.061
137 0 206.226 13.0003 2681 87.1936 997.036 428.482
138 0 213.337 13.1576 2807 87.8618 997.391 425.897
139 0 216.243 12.3149 2663 91.4822 996.952 421.237
140 0 227.156 13.4489 3055 89.6655 997.029 420.926
141 0 233.264 13.3583 3116 90.1293 997.528 419.562
142 1 182.216 10.3778 1891 91.6468 996.119 447.269
143 0 188.239 11.1826 2105 90.258 996.767 443.77
144 0 196.244 12.3469 2423 88.3772 996.488 438.155
145 0 202.347 12.2265 2474 89.7829 997.071 435.515
146 0 207.229 11.9047 2467 90.4751 996.775 432.404
147 0 215.299 12.8937 2776 89.2821 996.37 426.388
148 0 222.424 13.1506 2925 89.373 997.049 423.944
149 0 228.451 12.6154 2882 90.5625 996.104 422.411
150 0 237.377 12.6718 3008 91.9229 995.398 415.609
151 0 244.404 12.6757 3098 92.734 995.513 410.904
152 0 254.39 12.4494 3167 93.4228 995.858 406.691
153 0 264.371 12.8796 3405 93.1789 995.585 402.575
154 0 272.535 13.1029 3571 93.4828 996.005 396.2
155 1 87.2118 10.1821 888 76.1216 996.195 494.575
156 0 90.2404 9.84038 888 76.3671 996.116 492.681
157 0 94.1602 10.3228 972 69.7315 996.48 492.016
158 0 95.2226 10.3337 984 69.185 996.95 491.779
159 0 101.299 10.4542 1059 75.3352 997.183 488.61
160 0 103.133 10.1326 1045 74.4995 996.52 486.064
161 0 105.198 9.98118 1050 74.0895 995.865 481.069
162 0 108.242 9.68197 1048 73.8139 995.749 482.268
163 0 110.207 9.70898 1070 74.0037 995.98 479.554
164 0 116.219 10.3254 1200 72.0933 996.272 476.987
165 0 119.352 10.3057 1230 72.7065 996.258 474.463
166 0 125.346 10.8979 1366 72.5212 996.247 472.362
167 0 126.229 10.0135 1264 74.0878 997.143 468.85
168 0 130.231 10.9268 1423 73.6212 996.916 469.287
169 0 135.171 11.5039 1555 74.3595 996.697 463.918
170 0 140.214 11.1401 1562 76.3348 996.716 461.207
171 0 146.335 12.7652 1868 71.7628 995.944 454.36
172 0 150.299 12.1225 1822 73.5928 996.456 457.733
173 0 153.187 11.0322 1690 70.2225 996.456 455.659
174 0 157.279 10.3574 1629 67.6028 996.548 459.533
175 1 88.1544 10.1526 895 72.0156 996.645 493.648
176 0 93.1528 10.4237 971 71.8012 995.856 492.513
177 0 94.1418 10.6754 1005 67.4915 994.349 489.705
178 0 98.2236 9.5191 935 71.1102 995.443 488.452
179 0 102.287 10.4021 1064 67.8656 995.442 486.825
180 0 105.212 10.9114 1148 68.2692 995.584 486.132
181 0 108.109 10.5726 1143 70.0901 995.757 485.676
182 0 111.198 11.1153 1236 70.6125 996.118 482.779
183 0 115.089 11.0263 1269 71.8282 996.269 481.481
184 0 118.107 11.0069 1300 72.2338 996.6 479.903
185 0 122.218 11.7414 1435 72.5359 996.996 474.041
186 0 124.297 10.9978 1367 75.1624 996.808 470.247
187 0 128.337 11.3997 1463 74.9563 996.05 470.813
188 0 131.318 11.2703 1480 74.4899 995.836 470.428
189 0 136.326 11.3552 1548 74.6182 996.191 465.314
190 0 139.326 11.5915 1615 74.579 996.307 464.762
191 0 143.349 12.487 1790 72.7749 996.651 463.374
192 0 147.194 11.4814 1690 74.1775 996.524 463.166
193 1 79.1737 9.64967 764 71.356 996.046 498.945
194 0 84.1592 10.7653 906 72.2682 996.52 497.957
195 0 88.1996 10.8277 955 75.5979 996.095 492.358
196 0 89.2503 11.2381 1003 76.7438 995.333 490.443
197 0 93.3229 11.487 1072 75.875 995.195 488.694
198 0 94.1033 10.8498 1021 75.6131 995.557 489.787
199 0 96.1553 10.1294 974 69.9014 994.882 489.462
200 0 102.082 10.6385 1086 69.825 995.497 487.416
201 0 103.033 10.3559 1067 70.8875 995.612 487.38
202 0 108.133 10.5148 1137 90.8285 995.281 485.482
203 0 110.128 10.2789 1132 90.129 995.193 481.255
204 0 114.104 11.1828 1276 88.5243 994.654 480.373
205 0 116.189 10.6465 1237 92.6952 994.204 478.508
206 0 118.207 10.414 1231 94.0877 993.994 477.659
207 0 124.2 11.2239 1394 91.8199 993.979 476.883
208 0 128.224 11.2772 1446 93.7483 994.603 473.341
209 0 133.16 11.6251 1548 93.6835 994.954 471.722
210 1 72.0158 9.92838 715 92.3888 994.845 503.448
211 0 75.0344 10.3286 775 91.1677 995.243 503.812
212 0 75.0189 11.0506 829 88.1918 995.353 501.02
213 0 78.0488 11.4159 891 89.5724 995.515 500.492
214 0 80.0528 10.6805 855 89.0058 994.434 500.695
215 0 79.1012 10.3665 820 90.3256 994.802 499.813
216 0 85.0478 11.323 963 86.5929 994.775 499.081
217 0 85.0555 10.9811 934 88.2034 995.301 496.124
218 0 88.0418 10.7335 945 87.7704 995.139 495.326
219 0 92.0529 10.885 1002 87.4062 995.417 493.32
220 0 96.0509 11.4835 1103 86.0925 995.723 492.125
221 0 99.0401 11.7225 1161 84.9001 995.035 490.491
222 0 102.04 11.8188 1206 85.6036 996.123 489.119
223 0 104.068 11.3291 1179 87.0509 995.449 488.915
224 0 107.069 11.5907 1241 87.1797 995.019 486.637
225 0 111.052 11.6072 1289 86.5617 995.021 484.213
226 0 114.091 11.447 1306 88.098 995.39 481.461
227 0 116.079 11.8626 1377 87.9572 995.277 480.83
228 0 119.092 12.419 1479 87.9466 995.516 479.913
229 0 124.071 12.0979 1501 88.557 995.787 478.574
230 0 126.137 12.2565 1546 89.5149 996.274 476.03
231 0 129.163 12.3333 1593 90.7351 995.466 471.84
232 0 135.112 12.3823 1673 93.4328 994.971 470.543
233 0 138.113 11.9612 1652 93.7349 994.969 469.103
234 0 144.116 11.8099 1702 92.1204 994.197 467.679
235 1 76.091 10.2377 779 89.3954 994.807 500.216
236 0 77.0791 10.0027 771 90.9196 995.029 497.156
237 0 81.0486 11.1785 906 85.5519 996.009 497.132
238 0 83.103 11.6843 971 85.5273 995.823 494.753
239 0 86.1746 12.1846 1050 88.341 995.734 493.558
240 0 87.2317 11.8993 1038 90.9961 995.397 491.34
241 0 87.0899 12.1828 1061 92.1904 996.301 492.98
242 0 90.1 12.3973 1117 91.6356 996.18 491.121
243 0 94.0454 12.4408 1170 91.8632 995.418 489.178
244 0 94.0801 12.2874 1156 93.7803 995.554 487.203
245 0 98.0491 12.4631 1222 93.8944 995.651 486.326
246 0 102.126 12.4944 1276 93.9099 994.545 482.541
247 0 103.028 12.2782 1265 94.5644 994.741 482.709
248 0 107.129 12.6296 1353 93.4619 995.599 480.306
249 0 108.051 12.4478 1345 95.8126 994.569 478.798
250 0 111.109 12.5913 1399 95.4596 994.466 478.338
251 0 113.049 12.9325 1462 94.249 995.112 475.88
252 0 119.093 13.6279 1623 88.3185 996.171 476.007
253 0 120.057 12.9189 1551 91.2553 995.812 473.281
254 0 124.096 13.0785 1623 90.7505 995.904 471.281
255 0 126.075 12.9368 1631 91.8197 996.502 469.559
256 0 132.091 13.0289 1721 91.3167 995.744 468.973
257 0 136.037 13.8271 1881 89.9564 995.192 465.896
258 0 137.089 13.1082 1797 93.2031 994.56 462.835
259 0 143.079 13.6149 1948 91.365 994.8 460.236
260 0 148.08 13.594 2013 91.7248 994.599 456.009
261 0 149.072 12.8796 1920 95.2177 994.451 455.28
262 0 157.092 13.5462 2128 93.2904 994.73 451.023
263 1 80.037 10.0079 801 95.7853 994.434 487.868
264 0 82.0936 11.4625 941 92.7535 994.471 485.713
265 0 87.0693 12.3235 1073 93.027 995.078 484.259
266 0 88.0549 11.913 1049 95.0038 995.56 484.804
267 0 91.0448 11.3461 1033 89.8529 995.851 487.751
268 0 93.0647 10.8849 1013 91.843 995.184 486.23
269 0 96.0521 11.5875 1113 90.3702 995.066 484.835
270 0 99.1307 12.0144 1191 89.5382 994.19 481.961
271 0 98.0756 11.5625 1134 92.2019 994.524 481.186
272 0 102.046 11.5928 1183 92.7016 994.407 479.918
273 0 105.046 11.8234 1242 91.8816 994.791 478.233
274 0 111.086 12.1347 1348 90.618 994.105 475.912
275 0 112.073 12.0725 1353 91.4789 994.17 474.618
276 0 117.058 12.2846 1438 91.0104 994.822 472.22
277 0 119.068 11.9512 1423 92.033 994.328 468.033
278 0 125.124 12.2199 1529 91.1504 993.909 465.932
279 0 126.082 11.7384 1480 94.0149 993.866 463.464
280 0 130.099 11.914 1550 94.2387 994.184 458.535
281 0 132.093 11.9688 1581 95.3017 993.775 456.266
282 0 137.151 11.7462 1611 96.1868 994.44 454.814
283 1 71.0566 9.96388 708 93.3983 994.674 487.6
284 0 73.0484 10.8695 794 91.3615 994.121 484.054
285 0 81.1362 11.4745 931 90.9989 993.826 488.197
286 0 82.0857 10.5134 863 91.117 995.278 489.258
287 0 87.0531 10.7865 939 90.5666 995.463 487.709
288 0 87.1068 10.5847 922 92.6518 995.439 486.302
289 0 88.0774 10.1048 890 93.2034 994.824 483.225
290 0 92.0716 10.2529 944 93.5477 994.435 479.684
291 0 95.0667 10.7714 1024 92.8008 995.093 478.938
292 0 99.1409 10.7423 1065 93.3117 994.068 477.831
293 0 106.079 10.9352 1160 91.5362 994.432 476.888
294 0 107.159 10.1345 1086 94.1713 994.567 475.938
295 0 109.11 10.9614 1196 93.2993 994.459 473.416
296 0 115.095 10.4609 1204 93.8264 994.429 473.542
297 0 120.069 11.3601 1364 91.6884 994.729 470.225
298 1 66.0317 8.84424 584 92.2449 995.231 499.312
299 0 68.0398 8.70079 592 91.8243 994.934 498.449
300 0 65.0905 9.2333 601 89.9667 994.591 493.431
301 0 74.1377 10.9931 815 85.8405 991.596 499.286
302 0 78.0766 11.1301 869 88.9528 992.46 498.606
303 0 80.1098 11.1472 893 89.5711 992.616 497.634
304 0 81.0983 11.1346 903 90.1539 993.009 496.483
305 0 85.135 10.8651 925 90.7081 993.25 496.074
306 0 87.1164 11.41 994 90.9527 993.642 494.329
307 0 88.1115 11.2698 993 92.9466 993.928 492.44
308 0 92.1065 11.4976 1059 92.5694 994.704 490.968
309 0 94.2515 11.9468 1126 91.9307 993.472 492.151
310 0 97.2411 12.1656 1183 91.6281 993.34 488.982
311 0 100.138 11.9036 1192 92.177 993.989 489.877
312 0 102.216 11.7888 1205 92.478 993.378 488.498
313 0 106.186 11.7624 1249 92.0416 994.288 487.318
314 0 108.175 11.9343 1291 90.7986 993.603 485.167
315 0 111.177 11.4862 1277 92.4573 994.36 483.738
316 0 114.236 11.9665 1367 91.6796 994.127 482.721
317 1 64.1856 9.62832 618 87.754 992.843 510.283
318 0 65.1869 10.7383 700 84.8643 992.59 510.007
319 0 68.1735 10.8693 741 82.309 992.656 507.104
320 0 69.1306 10.1113 699 88.0029 992.265 507.926
321 0 71.2126 10.897 776 85.5876 992.348 507.857
322 0 73.1439 11.033 807 86.2838 992.602 505.67
323 0 75.1485 11.2311 844 85.9645 992.694 506.884
324 0 77.2002 11.114 858 87.3508 992.605 504.712
325 0 78.1844 10.731 839 88.7557 993.068 503.449
326 0 81.1489 10.4992 852 89.4965 992.751 502.045
327 0 81.2063 10.7997 877 89.1197 992.928 502.011
328 0 85.1595 10.3453 881 88.6061 992.485 502.426
329 0 85.1848 11.2696 960 89.3104 992.578 499.653
330 0 90.325 11.7575 1062 88.4397 991.646 498.26
331 0 90.325 11.7133 1058 136.283 990.637 498.272
332 0 93.0934 11.0212 1026 86.8002 993.087 495.295
333 0 97.1021 10.9987 1068 87.1105 993.233 493.254
334 1 52.0439 9.95313 518 85.7915 993.324 517.625
335 0 52.0824 10.6946 557 83.4919 993.548 516.056
336 0 54.0351 10.9003 589 82.9966 992.849 515.526
337 0 56.0848 10.6446 597 83.8325 992.883 513.015
338 0 59.049 10.2965 608 88.6891 992.327 513.612
339 0 59.0794 10.6128 627 88.2919 992.396 512.408
340 0 60.063 10.6888 642 89.0732 992.612 512.626
341 0 62.0265 11.1888 694 86.9424 992.925 514.646
342 0 63.0642 11.2742 711 88.4712 992.615 513.068
343 0 66.0594 11.5956 766 86.6906 992.636 513.381
344 0 65.0386 11.5777 753 88.5126 992.576 512.753
345 0 68.0255 12.5247 852 85.6197 991.669 512.366
346 0 70.059 12.0042 841 87.2438 990.584 510.616
347 0 71.0422 11.9788 851 87.6545 990.364 510.249
348 0 71.0656 11.5808 823 89.9089 991.053 508.95
349 0 76.0356 12.0338 915 88.4175 990.124 508.445
350 0 76.0325 12.2579 932 88.4807 991.033 507.327
351 0 78.0322 12.1873 951 90.51 991.701 504.915
352 0 79.0772 12.5953 996 90.253 991.278 505.643
353 0 82.0648 12.2464 1005 92.2159 991.32 503.551
354 0 84.049 11.9573 1005 92.5015 990.296 502.25
355 0 85.0537 12.1218 1031 92.9185 989.771 501.655
356 0 89.051 12.3749 1102 92.4138 989.948 499.839
357 0 90.0895 11.977 1079 93.8128 991.298 499.041
358 0 94.0891 12.35 1162 94.5112 991.373 496.986
359 0 98.1604 12.663 1243 93.1939 991.282 496.168
360 1 51.0112 11.5465 589 88.8302 992.066 520.261
361 0 51.0188 11.0939 566 90.6696 991.756 518.519
362 0 52.0445 11.6055 604 87.0878 992.007 519.002
363 0 57.0286 11.8712 677 95.5214 992.185 517.62
364 0 55.0418 12.2089 672 97.186 992.362 515.912
365 0 60.0934 11.9813 720 94.8778 992.578 516.067
366 0 60.0238 12.5617 754 94.2812 992.239 515.154
367 0 63.0359 12.5801 793 93.3115 992.825 513.858
368 0 63.0209 12.9005 813 92.0049 993.176 514.062
369 0 65.0148 12.6279 821 91.5286 992.248 513.989
370 0 66.0179 12.4815 824 92.1942 992.619 510.608
371 0 70.0172 13.0539 914 89.7265 992.563 510.033
372 0 70.0496 12.1914 854 92.2272 992.357 510.064
373 0 72.0495 12.6163 909 90.9604 992.644 509.238
374 0 75.0229 13.7158 1029 87.1584 992.695 508.29
375 0 77.1038 12.9955 1002 83.6497 991.899 505.881
376 0 79.038 13.1709 1041 83.5207 992.005 505.426
377 0 83.053 13.1362 1091 83.8598 991.848 504.691
378 0 84.082 12.8565 1081 86.4015 992.652 502.421
379 0 86.0909 13.0444 1123 90.5102 992.715 500.849
380 0 90.08 12.6887 1143 90.1898 992.808 498.698
381 0 93.1197 12.339 1149 90.0139 992.733 497.362
382 1 47.0711 10.4735 493 87.0588 992.984 519.507
383 0 49.0941 10.6734 524 86.563 992.916 519.334
384 0 51.0644 10.8099 552 85.6123 992.208 517.993
385 0 52.111 11.7634 613 84.2692 992.055 516.804
386 0 55.0869 11.7632 648 92.7068 992.242 514.011
387 0 58.0802 11.949 694 91.4251 992.399 513.546
388 0 60.083 11.817 710 91.2366 992.656 511.873
389 0 61.0924 12.3583 755 89.5709 992.6 511.183
390 0 64.0621 11.9884 768 90.8906 992.768 509.141
391 0 65.0274 12.4255 808 89.3849 993.398 508.464
392 0 67.0499 11.8867 797 91.1757 993.486 508.351
393 0 70.0597 11.7471 823 92.2576 992.807 506.444
394 0 72.0892 13.1643 949 89.7682 992.867 504.007
395 0 74.0567 13.1251 972 90.8076 993.232 504.128
396 0 75.0739 12.4944 938 93.4243 993.349 502.946
397 0 79.0458 12.7521 1008 93.5575 993.026 501.358
398 0 80.044 12.9054 1033 93.9148 992.956 500.594
399 0 82.0596 13.0027 1067 94.0984 992.87 499.073
