time division length width area intensity CMx CMy
0 0 44.024 9.88097 435 97.1701 924.616 515.343
1 0 48.0494 10.6349 511 94.0352 923.959 513.614
2 0 49.0214 11.444 561 92.1747 923.187 512.549
3 0 50.0071 12.0583 603 90.665 923.328 512.536
4 0 51.0424 11.5786 591 90.3316 923.235 512.387
5 0 54.0217 12.569 679 88.5052 923.156 511.115
6 0 54.0066 11.7393 634 92.4543 923.401 510.973
7 0 56.0239 11.9413 669 91.6413 923.602 510.972
8 0 58.0208 12.6334 733 89.9181 924.057 509.577
9 0 61.0539 12.7592 779 89.4724 923.761 507.647
10 0 62.0727 12.1632 755 91.604 923.717 509.024
11 0 64.0172 12.934 828 91.0918 922.868 506.481
12 0 64.0172 12.9809 831 131.716 922.875 506.434
13 0 67.0263 12.428 833 84.8151 923.072 507.636
14 0 70.068 12.074 846 86.1903 923.213 506.097
15 0 72.0451 12.2701 884 86.6109 922.455 504.712
16 0 75.0456 12.4058 931 86.2331 922.546 503.971
17 0 77.0667 12.7422 982 86.2149 922.381 502.489
18 0 81.0641 12.8294 1040 85.5558 922.346 502.792
19 0 82.0795 12.5123 1027 88.1188 922.951 501.296
20 0 86.0644 12.5836 1083 87.8569 922.851 500.269
21 0 87.0931 12.4579 1085 89.6618 922.524 498.966
22 0 90.1547 12.0571 1087 90.6569 922.463 497.396
23 1 47.0513 12.1569 572 91.049 922.633 517.469
24 0 50.0692 12.8222 642 89.2757 922.223 515.972
25 0 49.1473 12.6355 621 91.1417 922.924 515.055
26 0 49.0676 11.7593 577 86.9809 921.537 518.381
27 0 50.0825 12.1 606 86.1419 921.589 517.087
28 0 52.0102 11.8054 614 86.4088 921.412 516.966
29 0 53.0534 12.0445 639 86.6275 922.03 515.213
30 0 56.0413 12.2053 684 86.2149 921.754 514.333
31 0 59.016 12.8101 756 85.7619 921.802 512.492
32 0 61.0558 12.5623 767 85.7575 922.123 513.319
33 0 63.0568 12.7345 803 85.1544 921.512 511.273
34 0 65.034 12.8241 834 85.3142 921.357 510.505
35 0 66.0257 12.6314 834 86.8094 921.254 509.046
36 0 69.0718 13.0444 901 86.3285 921.209 509.117
37 0 72.0436 12.7562 919 86.8651 921.194 507.123
38 0 75.0351 13.7402 1031 85.2473 920.828 504.047
39 0 76.0765 12.9475 985 87.735 921.61 503.761
40 0 79.025 13.4135 1060 86.5708 921.415 502.03
41 0 82.082 13.3525 1096 85.8714 921.583 501.139
42 0 83.0754 13.0484 1084 87.3681 921.419 500.742
43 0 88.0676 13.1717 1160 86.0155 921.633 499.146
44 0 90.0765 12.8113 1154 86.7036 921.33 496.956
45 0 93.0509 12.9069 1201 85.8243 920.795 495.065
46 0 96.0656 12.4394 1195 86.6619 921.08 495.074
47 1 53.0091 12.1111 642 87.6822 920.726 513.316
48 0 57.0678 12.564 717 86.6569 920.386 510.41
49 0 56.038 12.8841 722 82.4072 920.428 511.5
50 0 57.0142 12.2776 700 82.61 920.706 511.341
51 0 60.0128 11.6308 698 83.6304 921.325 509.342
52 0 63.0891 12.5378 791 80.1138 921.198 510.128
53 0 65.0278 12.5946 819 80.7057 921.827 507.962
54 0 68.0306 12.7884 870 80.4103 921.663 508.316
55 0 70.0536 12.8759 902 81.1408 922.012 506.415
56 0 73.0401 12.5411 916 81.4367 922.005 504.773
57 0 75.0334 12.5944 945 81.8032 921.166 503.119
58 0 77.0531 12.9262 996 81.9769 921.715 502.074
59 0 79.0536 12.1437 960 84.0375 921.12 500.254
60 0 85.0351 12.4772 1061 81.18 920.865 500.035
61 0 87.0476 12.3496 1075 82.4251 921.039 497.048
62 0 90.0875 12.7099 1145 82.0568 920.713 495.671
63 0 93.0712 12.6247 1175 82.0868 921.744 494.94
64 0 95.107 12.8066 1218 81.835 921.524 492.645
65 1 50.0547 10.7283 537 83.9572 921.959 515.33
66 0 54.0719 11.5217 623 82.61 921.831 514.331
67 0 56.0377 11.7242 657 82.1294 921.204 511.994
68 0 53.0772 11.2478 597 78.3618 921.903 513.152
69 0 56.0424 11.295 633 77.1422 921.613 512.596
70 0 58.0736 12.157 706 75.3938 921.228 511.71
71 0 61.0338 12.0589 736 75.034 921.458 511.25
72 0 63.0407 11.8654 748 75.3222 921.707 508.455
73 0 66.0485 11.8852 785 74.8331 921.712 507.613
74 0 66.0195 12.1631 803 75.1482 922.314 505.63
75 0 69.06 12.0041 829 75.5066 922.099 505.91
76 0 72.052 12.1579 876 75.2169 922.405 504.263
77 0 73.0362 11.9256 871 76.1228 922.18 502.034
78 0 77.0424 12.5645 968 74.9039 921.968 500.973
79 0 81.021 12.0956 980 75.2837 922.564 499.083
80 0 81.0624 11.2012 908 77.0496 922.213 497.376
81 0 85.0824 12.1059 1030 76.535 922.135 495.996
82 0 90.041 12.5832 1133 75.5552 923.172 492.994
83 0 94.0887 12.552 1181 75.8916 922.899 491.856
84 0 97.0804 12.742 1237 76.5901 922.981 490.208
85 0 99.0685 13.3342 1321 76.0401 922.563 488.122
86 1 50.0476 10.5899 530 75.3679 923.351 512.689
87 0 52.0645 10.9672 571 74.6287 922.844 512.299
88 0 54.0335 10.8451 586 72.7133 922.968 512.027
89 0 52.0107 10.7862 561 71.8984 922.349 514.346
90 0 54.0388 9.95582 538 72.6282 922.394 514.872
91 0 55.0891 10.2924 567 73.3298 922.575 512.383
92 0 57.035 9.87113 563 73.032 921.895 511.508
93 0 59.0844 10.5612 624 71.742 921.801 509.92
94 0 60.034 10.2942 618 71.9498 921.515 507.015
95 0 64.0646 10.6767 684 70.9137 921.104 508.675
96 0 67.0548 10.6182 712 70.8933 921.475 506.684
97 0 66.0797 10.6235 702 72.3348 921.741 504.316
98 0 67.038 10.0988 677 74.6854 921.944 503.511
99 0 70.0285 10.51 736 73.6114 921.315 503.067
100 0 74.0396 10.0622 745 72.7383 921.166 501.063
101 0 79.1202 11.4762 908 69.8326 921.149 501.154
102 0 81.0357 11.7479 952 70.0525 921.762 498.914
103 0 85.121 11.3955 970 70.135 921.573 498.415
104 0 87.0826 11.3456 988 71.0567 921.012 497.175
105 0 90.0758 11.0129 992 72.0232 921.47 495.091
106 1 50.034 10.0332 502 69.8267 921.878 516.179
107 0 49.0276 10.6471 522 68.9598 921.554 515.458
108 0 51.0456 11.2644 575 68.2817 921.36 514.6
109 0 52.0231 11.5526 601 68.3611 921.048 513.659
110 0 50.0109 10.3178 516 64.905 922.32 517.37
111 0 52.0708 10.697 557 65.0413 922.303 514.932
112 0 53.0243 10.0897 535 65.3477 922.308 515.217
113 0 55.0398 10.665 587 65.0767 921.881 514.555
114 0 55.0842 10.8743 599 65.3105 921.366 512.806
115 0 59.0504 10.7705 636 64.9906 920.928 513.201
116 0 60.0428 10.5258 632 66.0111 921.321 512.801
117 0 62.0695 10.6655 662 65.6375 921.577 512.014
118 0 63.0694 10.0524 634 66.1688 921.872 511.246
119 0 65.0464 10.8845 708 65.7698 921.38 508.363
120 0 65.0148 9.84392 640 67.9484 921.597 508.502
121 0 69.0441 10.6454 735 66.7279 922.117 508.254
122 0 70.0304 10.6668 747 68.2289 921.303 504.922
123 0 74.06 10.6805 791 67.9848 921.75 504.638
124 0 75.0239 10.0368 753 69.8194 922.086 505.523
125 0 76.1001 10.4468 795 71.0906 921.628 504.01
126 0 79.0632 10.6118 839 72.708 922.375 501.557
127 0 81.0494 10.216 828 74.5423 921.821 499.314
128 0 83.0636 11.726 974 73.5924 921.556 498.671
129 0 86.0571 10.923 940 75.8085 921.736 497.402
130 0 88.0679 11.2754 993 77.2205 922.014 496.765
131 0 91.0672 11.2335 1023 77.7762 921.848 496.31
132 0 94.0527 11.7062 1101 79.0109 921.605 495.259
133 0 96.0687 11.4293 1098 81.7942 921.634 490.77
134 0 101.101 11.1472 1127 83.7409 921.271 491.355
135 0 105.122 11.7958 1240 83.304 921.74 489.714
136 0 107.128 12.051 1291 84.316 922.414 489.168
137 0 112.112 12.773 1432 82.4064 922.106 487.749
138 0 115.066 12.2886 1414 84.976 922.593 485.213
139 0 117.169 12.1961 1429 84.697 921.889 482.815
140 0 125.179 13.9799 1750 84.3349 921.896 478.809
141 0 127.232 13.5579 1725 84.4354 922.292 475.733
142 0 133.351 13.4907 1799 85.7004 920.555 474.322
143 0 138.314 14.1851 1962 84.712 921.239 469.273
144 0 143.235 14.1725 2030 84.031 921.124 463.436
145 0 147.471 13.6298 2010 86.1149 921.761 462.851
146 0 151.373 14.5271 2199 83.7171 921.468 458.69
147 0 152.307 12.744 1941 88.5574 921.098 457.692
148 0 157.322 13.2658 2087 88.093 921.747 454.208
149 0 163.249 14.0521 2294 85.6892 920.857 450.704
150 0 165.171 14.2337 2351 85.977 920.06 444.589
151 0 173.247 14.4591 2505 85.2032 920.242 443.488
152 0 177.297 14.5124 2573 85.6592 920.616 441.392
153 0 182.254 14.8365 2704 85.4878 920.393 438.708
154 0 187.222 14.7686 2765 85.8282 920.911 437.668
155 0 189.165 14.1252 2672 88.9158 920.505 433.035
156 0 196.229 14.4678 2839 87.571 920.349 430.777
157 0 206.205 14.6117 3013 86.1065 920.728 428.451
158 0 210.237 14.555 3060 86.3997 921.079 425.588
159 0 215.231 13.4786 2901 89.9252 920.96 422.549
160 0 224.333 13.3106 2986 90.3734 920.368 419.914
161 1 43.0523 9.94139 428 67.4065 920.386 511.867
162 0 48.0438 10.8443 521 73.9424 920.925 516.555
163 0 47.0414 10.4164 490 67.0878 920.545 519.022
164 0 49.021 10.0365 492 67.126 920.935 517.823
165 0 48.0544 10.176 489 68.0552 921.063 516.129
166 0 52.0138 10.1319 527 68.5674 920.962 515.497
167 0 53.0415 10.1242 537 68.6816 921.851 514.67
168 0 55.046 11.0271 607 67.7446 921.628 513.267
169 0 56.0753 10.3611 581 69.6764 921.348 512.594
170 0 57.0161 10.6812 609 69.8686 921.425 510.87
171 0 60.0753 10.0707 605 69.7719 920.959 511.302
172 0 61.0634 9.92411 606 69.7277 921.729 509.947
173 0 65.0797 9.92629 646 66.8978 921.991 509.093
174 0 66.0608 10.1876 673 62.3804 921.691 506.871
175 1 35.011 9.79691 343 69.4344 922.035 523.122
176 0 35.0116 10.3965 364 69.283 921.201 522.113
177 0 36.026 9.35437 337 70.4303 920.611 521.905
178 0 40.0222 9.86951 395 68.1038 921.142 520.937
179 0 41.0875 10.1491 417 64.8945 920.396 520.254
180 0 39.0066 9.48557 370 67.4243 920.416 520.751
181 0 43.028 10.3189 444 65.3198 921.135 519.146
182 0 40.0386 9.94042 398 67.7337 921.113 519.729
183 0 41.0282 9.04256 371 69.628 921.067 520.445
184 0 42.0155 9.3299 392 70.1122 921.357 519.707
185 0 44.0324 9.24319 407 70.8772 921.231 518.187
186 0 46.0285 10.2545 472 69.9428 921.08 517.843
187 0 46.0478 10.3588 477 71.5262 920.413 516.683
188 0 48.033 10.472 503 71.5765 920.475 516.157
189 0 51.0433 10.6772 545 70.745 920.616 516.71
190 0 52.0288 11.3399 590 71.3203 920.749 515.546
191 0 54.055 11.0443 597 72.1072 921.149 514.226
192 0 55.0213 10.6141 584 73.899 921.483 513.885
193 0 57.0526 11.7435 670 72.4731 921.228 513.603
194 0 58.0322 11.4764 666 73.8604 921.925 512.386
195 0 61.1286 11.713 716 74.9316 921.253 510.522
196 0 62.0361 11.3966 707 76.925 920.728 509.279
197 0 64.0477 11.4758 735 76.3048 920.725 508.737
198 0 68.0684 12.0761 822 76.2968 920.917 507.443
199 0 71.1092 12.8253 912 75.2972 920.522 505.569
200 0 72.0516 12.8519 926 75.9968 921.131 503.744
201 0 76.0626 13.4889 1026 80.5068 921.156 502.057
202 0 79.066 12.9386 1023 103.859 920.719 501.937
203 0 80.0855 12.6989 1017 103.034 920.696 500.616
204 0 83.0716 12.5795 1045 104.119 920.184 498.487
205 1 40.1002 10.6234 426 101.899 919.991 518.425
206 0 42.082 11.24 473 99.3171 919.167 518.956
207 0 43.0064 11.7889 507 89.9053 918.625 520.12
208 0 43.0367 11.4553 493 88.9412 919.548 520.298
209 0 43.0617 11.2397 484 89.9236 919.847 520.533
210 0 44.0103 11.8836 523 88.7973 920.159 519.394
211 0 46.0255 11.4285 526 89.8593 920.249 518.578
212 0 47.0241 11.3133 532 91.0639 919.652 518.517
213 0 48.0299 12.2632 589 89.2988 919.323 517.783
214 0 49.0781 11.9401 586 90.8328 918.628 516.474
215 0 51.0263 11.9742 611 90.9722 919.16 516.205
216 0 53.05 12.4034 658 90.6672 919.234 515.483
217 0 53.0236 12.1455 644 91.5683 919.587 515.079
218 0 55.047 12.7891 704 89.9545 919.242 514.075
219 0 58.0247 12.5119 726 89.6322 919.698 513.372
220 0 60.0469 12.8733 773 88.6662 919.859 512.34
221 0 61.0565 12.9061 788 88.9213 919.22 510.773
222 0 63.1001 12.3772 781 89.7734 920.333 510.329
223 0 66.0594 12.8067 846 88.5993 919.579 508.728
224 0 67.0459 12.2304 820 90.6561 919.295 507.994
225 0 69.1128 12.4 857 91.3279 919.433 506.027
226 0 71.1131 13.2184 940 89.784 919.805 504.896
227 0 72.0706 13.3758 964 90.0809 919.881 503.693
228 0 74.0535 12.8016 948 93.3133 920.096 502.474
229 0 77.0692 12.9364 997 93.2909 920.232 502.202
230 0 79.0428 12.9803 1026 93.7134 920.674 501.232
231 0 81.1342 12.769 1036 95.8523 919.949 498.466
232 0 82.0423 12.8714 1056 96.7367 919.327 497.797
233 0 87.1082 13.5004 1176 96.1624 919.446 497.713
234 0 88.0746 13.3183 1173 98.237 918.611 495.098
235 0 91.0701 13.8684 1263 96.8931 918.637 494.574
236 0 94.0719 13.8086 1299 96.6836 918.71 494.073
237 0 94.0789 13.3186 1253 99.6026 919.988 491.747
238 0 100.069 14.1403 1415 96.2254 919.729 490.711
239 0 102.107 13.6425 1393 98.6856 919.939 489.378
240 0 107.064 14.0196 1501 98.6216 919.753 487.182
241 0 108.066 13.6583 1476 101.553 919.959 485.556
242 0 114.063 13.738 1567 101.03 919.902 482.952
243 0 116.107 13.8751 1611 100.963 919.297 481.279
244 0 119.094 13.7119 1633 103.289 919.437 478.816
245 0 123.042 14.1659 1743 104.226 919.529 477.197
246 0 127.041 13.6963 1740 105.384 919.001 475.58
247 0 131.153 13.7092 1798 105.729 918.739 474.065
248 0 137.153 13.9188 1909 105.323 919.624 471.618
249 0 139.15 13.604 1893 108.612 919.22 467.639
250 0 145.099 13.9215 2020 108.766 919.934 466.527
251 0 148.126 13.9813 2071 109.621 919.548 466.225
252 0 154.161 14.0762 2170 109.553 920.765 461.989
253 0 160.094 14.5727 2333 108.994 920.555 459.846
254 0 165.151 14.3444 2369 110.636 920.604 458.564
255 0 172.114 14.688 2528 108.517 921.094 454.144
256 0 176.17 14.1624 2495 109.51 920.438 451.905
257 0 181.152 13.7399 2489 110.282 919.843 450.047
258 0 186.308 13.8212 2575 110.594 919.223 446.438
259 0 192.186 13.9865 2688 110.108 919.297 444.375
260 0 194.291 13.5261 2628 113.204 919.328 440.159
261 0 202.238 14.2159 2875 111.622 919.101 435.437
262 0 210.24 14.1172 2968 111.627 919.646 431.691
263 0 215.229 14.0037 3014 113.911 919.502 427.502
264 0 221.266 13.712 3034 114.497 919.465 423.976
265 0 231.216 14.1816 3279 113.27 919.802 417.294
266 0 237.195 13.6723 3243 115.779 920.087 413.666
267 0 245.377 13.5995 3337 116.438 919.755 409.744
268 0 254.271 14.1621 3601 115.259 919.114 405.054
269 0 263.357 14 3687 116.42 918.982 400.432
270 0 272.374 14.146 3853 116.718 918.09 396.581
271 0 282.356 14.1878 4006 117.1 918.387 389.966
272 0 292.308 14.5121 4242 116.806 918.375 385.507
273 0 302.366 14.3634 4343 117.536 918.759 381.438
274 0 312.326 14.3088 4469 118.203 918.36 371.953
275 0 323.356 14.4639 4677 117.978 918.766 366.235
276 1 95.0794 7.75142 737 96.1954 919.46 493.621
277 0 95.0361 9.83836 935 93.8278 919.465 490.583
278 0 99.0587 10.1455 1005 93.1423 918.675 488.645
279 0 101.054 10.6082 1072 91.3834 918.956 484.661
280 0 105.094 10.9806 1154 91.234 918.549 484.163
281 0 106.065 10.5218 1116 92.5941 917.849 481.125
282 0 112.065 10.0299 1124 92.3843 918.44 479.182
283 0 115.065 10.4636 1204 93.6046 918.959 478.02
284 0 121.168 10.8857 1319 101.809 919.069 474.918
285 0 126.1 10.8406 1367 101.492 918.974 472.546
286 0 129.102 10.5033 1356 102.808 919.011 470.104
287 0 133.206 10.968 1461 99.7433 919.164 469.107
288 0 136.13 10.7985 1470 101.597 919.79 467.381
289 0 140.11 11.4053 1598 101.64 919.256 463.187
290 0 144.149 11.4188 1646 102.578 918.246 460.781
291 0 148.092 11.0809 1641 96.0817 919.47 460.434
292 0 149.135 10.8895 1624 96.9495 917.504 460.138
293 0 152.095 10.7893 1641 99.7112 917.731 457.896
294 0 150.121 13.569 2037 86.6058 918.326 433.464
295 0 153.133 12.1985 1868 94.3501 918.37 433.778
296 0 170.154 12.9412 2202 89.5568 918.27 439.958
297 0 177.181 13.8221 2449 86.8657 918.426 436.687
298 0 180.193 12.9639 2336 90.9118 918.49 433.55
299 0 186.203 13.1738 2453 91.1912 918.336 431.011
300 0 194.216 13.243 2572 91.7111 917.895 429.619
301 0 198.195 13.1083 2598 94.276 917.143 425.552
302 0 207.229 14.0473 2911 91.3531 918.097 423.822
303 0 212.279 13.5152 2869 94.5605 918.119 420.129
304 0 218.25 13.7869 3009 95.987 918.347 419.183
305 0 225.268 13.4063 3020 97.7268 918.143 415.58
306 0 231.291 14.4969 3353 96.2025 918.628 411.144
307 0 238.213 14.0295 3342 98.292 918.818 406.089
308 0 241.299 13.4563 3247 101.13 919.403 397.693
309 0 243.247 13.8954 3380 101.352 918.248 395.413
310 0 248.333 13.7477 3414 102.535 918.083 393.566
311 0 256.265 13.9699 3580 103.274 918.781 389.33
312 0 264.198 13.8987 3672 104.681 918.118 384.385
313 0 271.331 14.2814 3875 104.532 919.04 379.736
314 0 279.314 14.797 4133 102.325 918.254 377.322
315 0 285.357 14.3224 4087 107.318 918.983 368.977
316 0 295.384 14.3644 4243 107.226 918.617 367.097
317 0 306.515 14.0613 4310 108.686 918.08 361.014
318 0 311.376 14.3364 4464 109.121 917.854 358.11
319 1 161.131 9.14782 1474 110.906 918.062 435.959
320 0 171.091 10.6084 1815 110.471 918.016 437.98
321 0 175.123 10.3299 1809 111.196 918.012 436.133
322 0 176.258 11.1711 1969 110.371 917.791 432.926
323 0 184.302 11.3401 2090 111.176 917.95 427.674
324 0 193.122 12.0235 2322 109.779 917.945 427.847
325 0 192.093 11.3226 2175 114.145 918.159 422.842
326 0 200.23 11.6066 2324 112.604 917.795 416.775
327 0 208.184 12.7051 2645 111.158 917.507 394.336
328 0 215.223 12.4243 2674 109.792 917.159 399.846
329 0 225.195 12.4914 2813 106.187 917.132 406.817
330 0 230.188 12.985 2989 103.607 916.081 408.589
331 0 230.189 13.0154 2996 153.924 915.09 408.74
332 0 229.297 10.3577 2375 112.15 916.383 411.014
333 0 217.292 8.57372 1863 116.953 916.765 406.157
334 0 221.375 8.24395 1825 116.759 916.573 408.836
335 0 72.0506 7.74456 558 82.767 915.45 500.944
336 0 73.0359 8.33837 609 80.7373 914.903 502.113
337 0 76.0475 8.79714 669 76.6069 914.888 501.04
338 0 77.1291 8.37556 646 70.4861 914.892 500.042
339 0 80.1156 8.68744 696 69.8678 915.108 498.907
340 0 81.1487 8.73705 709 70.0536 915.33 499.918
341 0 82.1276 8.5842 705 69.7035 915.769 498.301
342 0 84.1254 9.7949 824 72.9041 914.933 498.069
343 0 87.1889 9.38193 818 71.6809 915.229 496.121
344 0 90.1224 9.39832 847 74.2231 914.936 496.132
345 0 92.1012 9.80443 903 73.7176 914.288 495.702
346 0 92.0919 9.37107 863 73.9548 913.014 492.453
347 0 96.051 9.54701 917 74.1025 912.9 489.904
348 0 98.1297 10.1091 992 73.8105 913.969 489.356
349 0 99.0836 9.84018 975 74.5549 913.027 485.455
350 0 103.066 10.5661 1089 72.6612 913.898 487.642
351 0 102.17 9.29821 950 75.5263 914.886 481.228
352 0 103.088 9.71017 1001 74.7243 914.522 482.774
353 0 103.145 9.16184 945 77.0518 914.656 479.121
354 0 94.106 8.95798 843 79.8031 913.93 472.783
355 0 101.091 8.982 908 80.011 913.328 475.051
356 0 100.072 9.0235 903 80.5504 913.525 471.214
357 0 103.12 9.552 985 80.3706 914.609 470.478
358 0 102.086 8.4243 860 83.9826 914.786 467.899
359 0 106.048 8.70365 923 84.1549 914.74 467.93
360 0 112.144 9.7642 1095 82.8648 915.688 462.24
361 0 109.074 9.03056 985 83.9239 915.61 457.803
362 0 110.106 9.38185 1033 83.6467 916.056 453.738
363 1 121.069 10.589 1282 82.1974 915.75 456.264
364 0 124.103 10.1851 1264 84.9842 916.449 453.123
365 0 127.131 10.847 1379 84.0464 916.748 455.885
366 0 128.135 9.93486 1273 88.2765 916.324 450.712
367 0 133.077 10.618 1413 87.3107 916.924 447.674
368 0 134.079 10.285 1379 89.81 917.303 445.001
369 0 137.091 9.67972 1327 91.9246 916.327 441.005
370 0 141.094 10.5249 1485 90.604 916.758 440.067
371 0 145.099 10.7719 1563 91.4491 916.757 434.45
372 0 151.132 11.1624 1687 90.0071 916.704 435.574
373 0 158.1 10.8855 1721 90.1639 916.977 432.354
374 0 161.157 11.2809 1818 89.0875 916.975 431.859
375 0 165.102 11.0235 1820 91.7126 916.163 421.792
376 0 179.125 11.3273 2029 88.8773 916.425 428.392
377 0 184.169 11.7772 2169 87.9092 916.255 425.393
378 0 189.155 12.006 2271 87.3937 917.14 422.28
379 0 191.267 11.7584 2249 88.3828 917.208 416.482
380 0 197.255 12.0808 2383 88.1318 917.407 415.554
381 0 200.217 10.9981 2202 90.0227 917.127 407.691
382 0 200.116 10.5739 2116 90.4253 917.37 409.702
383 1 40.0633 5.41644 217 53.3502 918.152 509.677
384 0 38.0458 4.10032 156 55.6346 917.59 503.962
385 0 38.0511 6.78036 258 54.2287 917.655 506.492
386 0 50.0341 8.47421 424 53.5826 917.653 510.158
387 0 53.0142 9.48803 503 55.493 916.038 515.579
388 0 52.0466 8.14655 424 58.3255 916.347 516.302
389 0 53.0263 8.90124 472 58.5191 916.621 515.667
390 0 53.1012 8.47438 450 59.8378 917.442 515.491
391 0 54.0344 7.99491 432 60.713 917.965 514.093
392 0 56.0263 8.74589 490 60.6612 918.08 512.053
393 0 58.0352 8.805 511 60.683 917.362 512.245
394 0 58.036 8.37411 486 61.8128 917.628 510.768
395 0 61.0336 9.35551 571 60.9142 917.925 511.201
396 0 63.0319 9.18582 579 62.076 918.009 509.596
397 0 64.0381 9.10396 583 63.2573 917.648 509.503
398 0 66.0408 8.96416 592 63.5709 917.53 508.709
399 0 68.0782 8.90153 606 64.5347 917.383 507.947
400 0 71.0248 8.99686 639 65.2817 917.34 504.873
401 0 73.0813 9.41417 688 64.9273 917.844 502.631
