time division length width area intensity CMx CMy
0 0 60.0689 14.55 874 124.47 1150.36 505.33
1 0 62.0292 14.6705 910 123.342 1149.86 504.637
2 0 65.126 14.6332 953 122.389 1149.07 504.027
3 0 65.0732 14.6143 951 123.862 1149.26 503.047
4 0 68.0183 14.8048 1007 122.184 1149.21 502.076
5 0 71.0885 15.0376 1069 119.651 1149.28 501.453
6 0 75.0428 14.7116 1104 119.992 1149.71 501.027
7 0 75.0578 14.8019 1111 121.058 1149.34 500.878
8 0 79.1097 14.8275 1173 114.953 1149.93 500.663
9 0 79.0968 14.7794 1169 114.95 1149.46 500.34
10 0 83.0681 14.3978 1196 114.673 1149.53 500.069
11 0 84.3494 14.4518 1219 114.998 1148.55 497.729
12 0 84.3204 14.3263 1208 173.855 1147.56 497.751
13 0 93.1531 14.5567 1356 115.049 1148.84 493.754
14 1 47.0407 13.0951 616 115.578 1148.87 516.526
15 0 47.0403 13.0314 613 116.251 1147.99 515.498
16 0 48.0589 12.9841 624 116.809 1148.05 514.279
17 0 51.0481 13.5362 691 113.661 1148.04 513.061
18 0 53.0084 13.1488 697 108.267 1147.98 513.03
19 0 55.0157 13.7597 757 105.954 1148.58 512.505
20 0 55.0789 13.3445 735 107.644 1148.56 511.43
21 0 59.0489 12.9723 766 107.668 1148.21 510.902
22 0 61.0187 13.3566 815 107.883 1148.11 508.958
23 0 62.0208 13.3504 828 106.899 1148.41 508.012
24 0 65.0196 13.4575 875 105.761 1148.15 506.834
25 0 67.0391 13.9023 932 103.589 1148.94 506.302
26 0 70.0204 13.339 934 104.729 1147.81 505.915
27 0 71.0197 13.3766 950 104.081 1147.9 504.306
28 0 73.0272 13.4744 984 104.307 1147.71 503.602
29 0 76.0703 13.1852 1003 104.846 1148.32 502.177
30 0 80.0405 13.9679 1118 102.619 1147.94 500.893
31 0 82.0248 13.9348 1143 102.779 1148.03 500.241
32 0 83.0412 13.4632 1118 104.377 1148.27 498.725
33 0 85.0668 13.8362 1177 102.585 1147.67 496.878
34 0 90.0943 13.7634 1240 101.227 1147.52 496.785
35 0 92.1026 13.2461 1220 103.02 1147.35 494.052
36 0 95.0545 13.9289 1324 101.026 1147.18 493.739
37 0 97.0452 13.097 1271 103.92 1147.2 491.277
38 0 101.067 13.4268 1357 103.185 1146.87 488.445
39 0 105.07 13.4292 1411 103.505 1147.6 488.257
40 0 109.084 13.265 1447 104.858 1147.11 484.663
41 1 56.0204 11.9599 670 100.696 1147.4 512.309
42 0 57.0243 12.1878 695 101.016 1147.28 510.778
43 0 59.0212 12.5548 741 99.6397 1147.4 510.067
44 0 61.0065 13.4412 820 96.7646 1147.04 509.187
45 0 64.0201 12.746 816 97.9498 1146.7 506.848
46 0 66.0433 13.5366 894 95.6767 1146.99 506.353
47 0 68.0248 13.5686 923 95.1333 1146.7 504.511
48 0 69.0456 12.4121 857 93.14 1146.26 503.811
49 0 71.0262 12.6995 902 91.7384 1146.28 503.829
50 0 73.0775 13.2599 969 90.6821 1146.56 501.149
51 0 77.0649 13.002 1002 91.0768 1147.14 500.809
52 0 79.0606 13.028 1030 90.8903 1146.97 499.509
53 0 81.0763 13.1851 1069 91.8176 1147.51 498.428
54 0 83.0708 13.2297 1099 92.5578 1147.3 496.326
55 0 86.0949 13.0089 1120 92.3679 1147.65 496.663
56 0 90.1684 13.2419 1194 91.5335 1147.94 493.918
57 1 45.043 11.8109 532 88.8553 1146.74 516.231
58 0 46.0255 11.7543 541 86.4806 1147.29 516.209
59 0 49.0433 12.071 592 84.3108 1146.99 515.642
60 0 48.063 11.7554 565 85.8938 1146.72 515.333
61 0 53.0261 12.4279 659 83.5584 1146.81 514.47
62 0 54.0396 12.5279 677 84.74 1146.61 512.541
63 0 54.0515 12.6176 682 85.8372 1147.54 512.043
64 0 57.066 12.3541 705 86.7716 1147.33 511.411
65 0 59.0252 13.1469 776 85.9549 1147.84 511.311
66 0 61.09 13.1936 806 86.072 1147.64 511.514
67 0 62.0279 12.8007 794 87.67 1147.32 510.382
68 0 64.0389 12.3987 794 89.267 1148.1 508.951
69 0 68.0424 13.5945 925 86.4043 1147.79 507.926
70 0 69.019 13.3007 918 87.3442 1147.33 507.736
71 0 69.0723 12.5231 865 89.6266 1147.78 507.666
72 0 72.0457 13.2832 957 88.8694 1148.1 505.852
73 0 76.053 13.0435 992 90.5252 1147.96 503.135
74 0 78.0612 13.3997 1046 90.3442 1148.58 502.992
75 0 78.0301 12.8412 1002 94.3234 1148.5 501.034
76 0 82.0544 12.9061 1059 92.8546 1148.67 499.801
77 0 84.0532 13.4796 1133 93.1553 1148.45 497.787
78 0 86.1075 13.216 1138 94.0852 1148.12 496.88
79 0 91.0753 13.5492 1234 93.9157 1148.7 494.242
80 0 94.043 12.9622 1219 94.8786 1148.24 493.232
81 0 96.0952 12.7998 1230 94.5585 1148.09 491.482
82 1 49.0216 11.3827 558 83.8674 1149.11 516.516
83 0 51.0424 11.1672 570 84.2842 1149 514.523
84 0 52.0319 11.1854 582 81.8144 1148.69 515.091
85 0 53.0485 10.6318 564 82.9397 1148.26 514.996
86 0 56.0305 11.2439 630 81.0143 1149.03 513.922
87 0 56.0529 10.9183 612 81.8954 1148.43 512.618
88 0 60.0326 11.9269 716 79.0587 1148.88 510.486
89 0 61.0781 11.2315 686 80.9111 1148.55 510.134
90 0 63.0508 10.7215 676 81.8994 1148.54 509.151
91 0 65.06 11.6047 755 80.755 1148.92 508.262
92 0 68.0221 11.0846 754 81.8806 1148.32 506.832
93 0 69.0645 11.6123 802 81.7456 1148.1 504.727
94 0 73.0283 12.2555 895 80.5251 1147.82 505.674
95 0 75.0604 12.0703 906 81.8996 1147.35 503.108
96 0 77.0882 12.4792 962 81.8222 1147.67 504.149
97 0 78.0725 12.0145 938 84.2825 1147.93 502.613
98 0 81.1022 12.5521 1018 85.4352 1148.1 499.503
99 0 86.1278 13.0968 1128 90.1844 1147.4 498.168
100 0 87.0816 12.9074 1124 92.0285 1147.24 497.369
101 1 47.0887 11.3403 534 88.9981 1146.75 517.622
102 0 45.0791 10.8032 487 93.3244 1147.52 516.39
103 0 49.0702 11.5753 568 91.912 1147.48 515.669
104 0 51.0512 12.2426 625 91.5184 1147.69 515.968
105 0 53.042 12.7635 677 91.5022 1147.95 514.297
106 0 54.0534 13.1351 710 94.031 1148.27 512.804
107 0 55.0559 12.7325 701 95.5877 1147.99 511.629
108 0 58.0505 12.5753 730 95.4575 1148.02 511.247
109 0 59.0379 12.5682 742 96.2102 1147.66 510.619
110 0 59.0422 12.4148 733 97.9318 1148.54 510.192
111 0 62.0908 12.8521 798 96.3972 1148.62 508.645
112 0 63.0527 12.4499 785 98.3185 1148.35 508.087
113 0 65.0542 12.4819 812 98.5874 1148.02 507.096
114 0 67.1139 13.2312 888 96.9212 1147.51 506.315
115 0 70.0883 13.112 919 97.3275 1146.99 506.075
116 0 73.0791 13.2049 965 96.8736 1147.34 505.37
117 0 75.0492 13.6311 1023 96.4008 1147.76 504.291
118 0 76.0942 13.2336 1007 97.999 1147.85 502.214
119 0 78.0658 13.2324 1033 97.9894 1147.37 501.138
120 0 80.0816 13.4238 1075 97.9042 1147.46 499.891
121 0 83.0718 13.5425 1125 96.4764 1147.98 500.169
122 0 86.0659 13.2573 1141 97.0762 1147.19 498.223
123 0 89.1451 12.934 1153 92.0598 1147.47 496.81
124 0 91.0639 13.0019 1184 94.0194 1147.77 495.78
125 1 47.0725 11.2805 531 92.9718 1147.08 516.959
126 0 48.0529 11.3208 544 93.7647 1147.76 516.642
127 0 52.0844 11.7502 612 92.1062 1147.24 515.394
128 0 53.0981 12.1473 645 90.9892 1147.05 514.629
129 0 54.0509 12.2477 662 90.2674 1147.35 514.13
130 0 54.0246 12.1056 654 92.4587 1147.64 513.211
131 0 56.0711 12.7695 716 90.5922 1147.46 512.487
132 0 58.0373 12.1646 706 92.704 1147.32 511.95
133 0 59.0405 12.3983 732 93.2828 1147.36 510.735
134 0 60.0405 12.2751 737 93.1058 1146.88 510.417
135 0 65.0327 13.2703 863 89.5041 1147.45 508.615
136 0 67.0853 12.581 844 91.4822 1148.22 507.525
137 0 69.0725 12.6534 874 91.9199 1148.06 506.208
138 0 71.0325 13.346 948 90.8787 1148.51 504.448
139 0 74.1096 13.4665 998 90.5822 1148.1 504.516
140 0 75.0503 13.2311 993 91.708 1148.25 504.958
141 0 77.0832 13.1157 1011 93.8497 1148.62 502.61
142 0 81.0387 13.0308 1056 93.2197 1146.87 501.123
143 0 83.0914 12.757 1060 92.2755 1147.2 499.783
144 0 86.0957 12.579 1083 92.4524 1146.94 497.422
145 0 87.0858 13.0791 1139 92.791 1147.78 496.965
146 0 90.1123 12.8506 1158 93.177 1147.63 496.696
147 0 91.0673 12.8257 1168 97.1712 1147.49 495.008
148 0 94.0535 12.344 1161 99.2024 1148.19 492.09
149 0 98.0518 12.7688 1252 96.6142 1147.38 491.246
150 0 100.104 12.8766 1289 96.5081 1146.57 489.166
151 0 104.05 12.6959 1321 96.7782 1146.76 487.464
152 0 108.101 12.3958 1340 97.2515 1147.04 486.356
153 0 110.084 12.9264 1423 97.4631 1146.81 485.158
154 0 115.108 13.0833 1506 97.8997 1146.92 483.096
155 1 58.0396 11.8367 687 96.4905 1146.86 510.767
156 0 62.0636 12.4388 772 95.408 1146.83 510.158
157 0 63.0787 12.3021 776 97.4098 1147.2 508.278
158 0 64.0311 12.2909 787 97.216 1147.74 508.635
159 0 67.0691 12.6288 847 89.3577 1147.57 507.09
160 0 69.0345 12.5155 864 89.6447 1147.01 505.723
161 0 71.0642 12.3972 881 89.647 1146.32 505.236
162 0 74.0899 12.3094 912 90.8092 1146.51 503.163
163 0 76.1006 12.5229 953 96.0577 1146.64 502.738
164 0 78.0521 12.671 989 95.5986 1146.99 500.198
165 0 80.1322 13.303 1066 94.7092 1146.97 498.375
166 0 82.0286 12.9345 1061 96.1932 1146.92 496.946
167 0 86.1338 12.7244 1096 94.2436 1147.79 496.477
168 0 88.177 13.076 1153 92.8699 1147.57 495.52
169 0 89.1114 12.8715 1147 95.1962 1147.3 492.894
170 0 93.0881 12.5258 1166 94.0823 1147.31 492.334
171 0 96.1173 12.6096 1212 92.8342 1146.76 489.985
172 0 100.162 12.959 1298 92.7604 1147.5 487.919
173 0 104.122 12.3125 1282 90.4758 1147.83 486.44
174 0 108.105 12.9966 1405 84.4641 1147.51 483.952
175 1 58.0481 11.3182 657 91.4871 1147.72 509.764
176 0 59.1155 11.5029 680 90.7544 1146.85 510.301
177 0 59.0817 11.9326 705 87.9418 1145.95 506.223
178 0 57.0799 10.5116 600 83.2233 1145.84 509.69
179 0 59.0234 11.2159 662 82.2447 1146.69 508.476
180 0 63.0652 11.9083 751 80.5646 1146.81 507.25
181 0 63.0286 11.6772 736 82.1658 1147.18 507.035
182 0 66.0448 11.2802 745 83.247 1147.3 505.736
183 0 69.0256 11.8362 817 81.9572 1147.36 506.01
184 0 72.026 11.9818 863 82.3442 1147.44 503.608
185 0 72.1118 11.6902 843 84.6821 1146.73 499.622
186 0 75.1242 12.3396 927 83.4207 1146.77 499.147
187 0 77.0594 12.3282 950 83.9674 1146.63 499.956
188 0 81.0322 12.9702 1051 83.7507 1146.57 496.916
189 0 82.0397 12.1648 998 81.6513 1146.88 497.692
190 0 86.0424 12.3311 1061 80.7276 1146.83 495.202
191 0 88.044 12.1871 1073 80.6328 1147.29 492.899
192 0 91.0651 12.3318 1123 81.2484 1147.5 491.421
193 0 93.0568 12.4655 1160 80.1905 1147.1 491.594
194 0 95.0792 12.6421 1202 79.3178 1147.73 490.338
195 0 99.0483 12.4989 1238 80.227 1147.08 487.211
196 0 103.118 12.6263 1302 79.9324 1146.39 487.2
197 0 106.08 12.8111 1359 79.5004 1146.23 485.611
198 0 107.135 12.8996 1382 80.7605 1146.34 483.359
199 0 111.131 12.9127 1435 80.3728 1145.8 481.291
200 0 115.208 13.1067 1510 80.0132 1146.47 478.842
201 0 118.112 12.8099 1513 80.3615 1146.68 476.775
202 0 122.132 12.5356 1531 103.515 1146.45 475.864
203 0 126.121 12.7735 1611 101.483 1146.39 473.783
204 0 131.104 12.6159 1654 101.843 1146 471.034
205 0 135.161 12.8957 1743 101.804 1145.66 470.441
206 0 138.187 12.0344 1663 105.208 1145.46 466.39
207 0 143.179 13.5634 1942 102.236 1145.39 466.391
208 0 148.12 13.5296 2004 102.606 1146.06 463.342
209 0 152.128 13.4426 2045 102.887 1146.38 458.09
210 0 159.194 13.6626 2175 102.196 1146.43 454.574
211 0 161.324 12.9491 2089 107.587 1146.4 451.738
212 0 168.286 13.8277 2327 104.868 1145.7 449.61
213 0 173.327 13.8986 2409 104.159 1145.37 446.979
214 0 179.21 14.045 2517 103.626 1144.77 442.901
215 0 185.322 13.4253 2488 104.998 1145.22 442.342
216 0 190.143 13.6424 2594 104.993 1145.13 436.325
217 0 195.176 13.5211 2639 105.2 1145.52 433.396
218 0 198.149 13.5555 2686 103.389 1145.14 426.037
219 0 204.154 14.1168 2882 101.989 1145.47 422.887
220 1 58.0184 10.2898 597 90.3233 1145.32 502.633
221 0 60.0433 11.2752 677 90.7622 1145.08 502.424
222 0 63.0616 11.5918 731 86.0192 1145.66 505.163
223 0 63.13 11.31 714 88.7927 1144.91 503.746
224 0 67.0855 11.0009 738 89.2534 1144.57 503.55
225 0 68.0572 11.4756 781 90.242 1144.77 502.406
226 0 72.1011 12.2606 884 88.4423 1145.07 500.438
227 0 74.0888 12.0531 893 89.86 1145.04 499.437
228 0 78.1034 12.317 962 90.0333 1145.26 497.296
229 0 78.0756 12.0524 941 93.2115 1145.4 495.731
230 0 84.0734 12.4653 1048 92.4313 1145.87 495.542
231 0 87.1177 12.7643 1112 94.5827 1145.17 493.763
232 0 89.0772 11.8661 1057 94.3548 1145.3 494.46
233 0 94.0812 11.9896 1128 91.4867 1145.53 492.692
234 0 95.0809 11.1589 1061 93.1838 1144.92 491.992
235 0 99.0811 11.4048 1130 94.4009 1144.93 490.081
236 1 50.0933 9.98138 500 88.41 1145.67 514.264
237 0 50.0068 10.6186 531 88.2693 1146.6 513.467
238 0 55.0178 10.9601 603 83.2239 1146.13 513.166
239 0 53.0538 11.2904 599 83.5042 1145.06 514.354
240 0 53.0557 11.3089 600 85.7717 1145.02 511.823
241 0 56.0393 11.2421 630 84.7841 1145.37 512.844
242 0 56.0676 10.8441 608 85.8141 1145.46 511.627
243 0 58.1054 11.7545 683 84.0791 1144.94 510.482
244 0 59.062 11.1408 658 86.0836 1144.99 509.274
245 0 60.1042 11.114 668 87.7605 1145.22 508.765
246 0 63.0349 11.8982 750 85.516 1144.54 506.908
247 0 66.1094 11.723 775 85.4194 1143.97 507.275
248 0 68.0256 11.8485 806 84.8958 1144.86 505.151
249 0 69.1076 11.8366 818 85.0061 1144.44 503.961
250 0 71.0732 11.1434 792 85.7778 1145.11 504.2
251 0 73.0542 11.6078 848 85.1262 1144.73 501.92
252 0 76.1208 11.6394 886 82.947 1145.98 502.633
253 0 79.0994 11.5298 912 84.1382 1145.75 500.278
254 0 82.0719 12.4403 1021 82.3673 1145.84 499.652
255 1 41.055 10.2545 421 82.4846 1145.9 519.838
256 0 43.0807 11.374 490 80.7939 1145.33 518.165
257 0 44.0087 11.1342 490 79.651 1145.35 517.592
258 0 46.0556 11.3124 521 78.8388 1145.82 517.635
259 0 45.0545 11.0755 499 76.0381 1144.78 516.635
260 0 47.0301 11.1843 526 76.0133 1144.86 516.679
261 0 47.0309 11.9496 562 75.3452 1144.73 516.078
262 0 50.0614 10.7468 538 76.171 1145.3 515.823
263 0 50.0181 11.6358 582 75.4674 1145.29 514.1
264 0 52.021 12.0144 625 73.5296 1145.45 514.067
265 0 53.0164 12.4678 661 73.2481 1145.78 511.989
266 0 52.0251 11.8597 617 74.9692 1146.15 512.379
267 0 55.0858 12.0721 665 74.2677 1145.79 511.686
268 0 55.0275 11.9758 659 75.7086 1145.24 510.684
269 0 56.0683 12.0567 676 76.6331 1145.17 510.209
270 0 58.0669 11.9862 696 77.4483 1144.49 510.19
271 0 61.0369 12.4843 762 77.3189 1144.88 509.074
272 0 62.0168 12.6901 787 77.7548 1145.04 507.75
273 0 64.0998 11.8721 761 79.9974 1145.52 508.745
274 0 64.0211 12.1054 775 80.7264 1145.21 509.339
275 0 67.0578 12.6458 848 81.1297 1145.68 506.538
276 0 69.0333 12.4578 860 82.5372 1146.16 505.136
277 0 70.0565 12.5756 881 83.1124 1145.7 504.111
278 0 72.0746 12.8617 927 82.9353 1145.3 503.661
279 0 73.0658 13.1252 959 84.9531 1145.28 502.139
280 0 76.0938 12.9971 989 87.7644 1145.53 500.874
281 0 81.0549 13.0159 1055 87.4664 1145.01 499.318
282 0 82.0421 12.8592 1055 87.9905 1145.47 497.453
283 0 83.1205 12.6443 1051 88.1056 1145.66 496.707
284 0 87.1879 12.2379 1067 88.5745 1144.9 493.915
285 0 90.1129 13.1502 1185 86.2835 1144.87 494.254
286 1 46.0703 10.2018 470 86.5128 1145.01 514.406
287 0 47.1528 10.8159 510 86.5274 1144.88 512.339
288 0 48.2187 10.4938 506 87.4605 1144.84 513.022
289 0 49.2278 10.9288 538 87.7788 1144.43 510.513
290 0 52.2297 11.5643 604 84.9305 1144.01 509.863
291 0 53.1235 11.765 625 84.9104 1144.96 508.73
292 0 54.0124 12.2009 659 79.7754 1144.23 509.879
293 0 54.0236 11.7171 633 82.7694 1144.22 509.577
294 0 56.0679 11.6109 651 84.1398 1144.52 508.823
295 0 59.0746 12.0018 709 84.1918 1144.47 507.75
296 0 59.0594 12.208 721 84.7337 1144.71 507.226
297 0 63.0551 11.8944 750 84.4547 1144.89 506.155
298 0 62.0335 11.4454 710 87.6268 1145.04 505.816
299 0 65.0317 11.7327 763 87.1533 1144.89 505.827
300 0 69.0616 12.4092 857 86.1902 1144.56 504.069
301 0 71.0373 12.416 882 88.1304 1143.8 503.073
302 0 74.0359 11.5755 857 88.7024 1144.81 501.781
303 0 77.078 12.1436 936 88.4359 1144.85 500.67
304 0 78.062 11.7471 917 90.8233 1145.05 498.816
305 0 80.1165 12.045 965 91.5762 1144.98 498.113
306 0 85.0349 12.2185 1039 91.898 1145.49 496.832
307 0 87.0834 11.644 1014 94.1982 1145.79 495.611
308 0 91.0636 12.5407 1142 92.521 1146.23 494.11
309 0 95.0862 12.1364 1154 98.9931 1145.05 493.082
310 1 48.0581 10.9035 524 95.9943 1144.99 514.611
311 0 51.0407 11.1284 568 95.0563 1145.52 516.019
312 0 52.0291 11.7819 613 95.2463 1144.87 514.884
313 0 55.0527 12.4426 685 91.162 1145.85 514.216
314 0 55.0504 11.8982 655 93.5817 1144.78 513.812
315 0 58.0902 12.5322 728 88.6744 1145.22 513.261
316 0 60.1175 12.3758 744 89.2809 1145.06 512.203
317 0 60.1199 12.4418 748 89.6738 1144.32 512.556
318 0 63.0499 11.5781 730 91.8904 1144.04 511.09
319 0 65.085 12.4299 809 89.8134 1143.58 510.298
320 0 67.105 12.4134 833 92.0744 1143.33 509.078
321 0 71.2786 12.8089 913 90.0372 1143.38 508.041
322 0 73.1257 13.0871 957 90.5256 1143.52 507.048
323 0 73.0869 12.5193 915 94.9934 1143.7 505.882
324 0 76.1291 12.0585 918 96.5654 1143.48 504.302
325 0 78.1022 13.0342 1018 94.109 1143.78 504.582
326 0 79.0763 11.9758 947 98.2186 1143.35 501.889
327 0 85.0686 13.0718 1112 95.4775 1143.49 500.709
328 0 86.1233 12.5634 1082 98.0545 1142.9 499.493
329 0 89.1082 12.4568 1110 97.7757 1143.05 497.693
330 0 93.164 12.7946 1192 97.2819 1142.01 494.693
331 0 93.1599 12.763 1189 162.282 1142 494.708
332 0 101.051 12.0731 1220 96.6123 1142.7 493.611
333 1 49.0326 11.7065 574 88.2404 1142.93 519.97
334 0 49.0276 11.7893 578 88.9844 1142.86 520.078
335 0 49.0135 11.2418 551 92.6352 1143.12 518.501
336 0 50.0093 11.7978 590 91.0712 1142.59 517.78
337 0 53.0268 11.447 607 90.5717 1142.72 517.774
338 0 52.0262 11.1098 578 93.2215 1142.11 515.657
339 0 53.016 11.4871 609 92.7504 1142.27 515.038
340 0 58.031 11.9591 694 89.9553 1142.6 514.993
341 0 59.0926 11.7612 695 90.4144 1142.99 514.442
342 0 60.0144 11.8472 711 92.0056 1142.58 514.205
343 0 61.0376 12.0581 736 90.803 1142.7 514.327
344 0 64.1672 12.3272 791 91.2238 1142.83 512.853
345 0 67.0546 12.4078 832 90.9471 1142.08 511.03
346 0 69.0315 12.2118 843 91.8683 1140.93 510.572
347 0 70.0332 12.7797 895 90.829 1140.78 509.76
348 0 71.1096 12.319 876 92.5936 1141.41 507.908
349 0 74.054 12.8285 950 91.4032 1140.59 507.705
350 0 77.0613 12.821 988 90.6579 1141.41 506.424
351 0 76.1189 12.7695 972 93.1235 1142.23 504.645
352 0 80.0475 13.2421 1060 90.6906 1141.92 504.193
353 0 83.0583 12.8705 1069 91.8185 1141.98 501.063
354 0 86.0229 13.136 1130 91.4965 1141.35 500.205
355 0 88.0811 13.1243 1156 92.7595 1140.86 498.229
356 0 92.1 13.127 1209 92.5012 1140.94 497.609
357 0 93.1075 12.7595 1188 94.0976 1141.84 496.486
358 0 96.0767 12.7086 1221 94.0663 1141.82 494.31
359 0 100.046 13.254 1326 94.3869 1141.8 493.454
360 0 101.058 13.0816 1322 96.5877 1142.6 491.452
361 1 52.0257 9.36076 487 89.883 1142.6 516.287
362 0 57.0414 11.1147 634 85.459 1142.86 514.727
363 0 57.0421 10.8867 621 86.7424 1142.69 514.734
364 0 60.0716 12.1688 731 92.3776 1142.91 512.439
365 0 60.0157 11.4803 689 93.6038 1143.49 512.231
366 0 64.0264 11.9794 767 92.5593 1143.05 510.722
367 0 67.0268 12.2638 822 91.2238 1143.91 508.523
368 0 68.0422 12.8156 872 90.9633 1144.01 508.667
369 0 70.0582 12.1042 848 92.9847 1143.06 507.443
370 0 71.02 12.0811 858 94.6189 1143.6 506.057
371 0 73.0539 12.0596 881 95.8558 1143.57 504.405
372 0 75.0468 12.2857 922 97.2701 1143.47 503.218
373 0 78.0615 12.4005 968 97.907 1143.77 502.525
374 0 81.107 13.1308 1065 95.8563 1143.64 502.097
375 0 83.0845 12.6016 1047 94.0802 1142.88 500.69
376 0 83.0685 12.7606 1060 96.5698 1142.97 498.906
377 0 88.0739 12.762 1124 98.1023 1142.78 498.098
378 0 91.0554 12.9482 1179 99.5895 1143.59 497.026
379 0 95.0659 13.0015 1236 99.1699 1143.69 493.646
380 1 49.0711 10.2097 501 93.7485 1143.94 517.828
381 0 49.0819 11.0631 543 89.7385 1143.31 516.12
382 0 51.1179 11.2485 575 89.7444 1143.42 515.045
383 0 52.0635 11.3899 593 89.7184 1143.97 516.676
384 0 52.0284 11.2439 585 93.4769 1143.17 514.697
385 0 55.0107 11.1251 612 92.2239 1143.11 515.19
386 0 55.0329 10.8299 596 94.0755 1143.4 514.23
387 0 57.028 10.9771 626 93.8179 1143.23 514.037
388 0 58.0368 11.441 664 93.7545 1143.88 511.059
389 0 61.0572 11.6776 713 91.5133 1143.9 510.888
390 0 63.0344 11.9776 755 91.5404 1144.16 510.06
391 0 65.0535 11.6366 757 92.3765 1144.6 508.317
392 0 67.033 11.6062 778 91.9139 1144.71 507.563
393 0 67.1149 11.7709 790 93.6253 1143.84 506.706
394 0 70.0815 12.0574 845 93.0627 1143.96 504.537
395 0 71.1261 12.3443 878 94.5399 1144.3 502.891
396 0 76.3387 12.3135 940 94.3766 1144.33 499.96
397 0 80.1222 11.9817 960 92.9198 1144.13 499.757
398 0 82.0715 11.6971 960 92.5573 1144.35 498.624
399 0 84.0237 12.0204 1010 89.4604 1144.29 498.26
400 0 86.0493 12.272 1056 87.2197 1144.18 494.416
401 0 88.0357 12.1428 1069 87.6052 1144.41 494.526
402 0 89.0887 10.7084 954 91.6887 1144.79 492.345
