time division length width area intensity CMx CMy
0 0 53.0313 13.69 726 96.4669 277.595 508.632
1 0 54.032 14.1953 767 93.9087 278.416 506.546
2 0 56.0342 14.2056 796 93.4309 278.492 506.472
3 0 58.0501 14.4358 838 91.7052 278.067 506.178
4 0 60.0282 14.16 850 90.6706 278.296 505.396
5 0 60.0249 13.9942 840 141.539 279.289 505.483
6 0 61.0558 13.7743 841 88.6243 278.22 504.818
7 0 63.0593 13.8441 873 88.6987 278.316 504.722
8 0 65.0503 13.6664 889 89.622 278.313 502.868
9 0 68.0566 13.9884 952 89.9769 277.285 502.505
10 0 70.0234 14.1953 994 89.3088 278.872 501.824
11 0 71.0152 13.9407 990 91.4838 277.418 500.022
12 0 75.0713 14.1066 1059 94.5373 278.004 500.057
13 0 76.0687 13.869 1055 96.4133 277.867 497.523
14 0 80.0302 14.557 1165 88.7974 277.748 498.18
15 1 39.0278 11.9658 467 95.3019 277.764 517.3
16 0 41.0526 12.6423 519 93.6031 277.25 515.742
17 0 43.0348 12.7571 549 92.1785 277.02 514.362
18 0 43.0213 13.2492 570 89.6702 277.156 515.872
19 0 43.0216 13.3189 573 90.1972 276.278 515.984
20 0 45.0249 13.326 600 92.435 276.412 514.885
21 0 48.0125 13.8714 666 91.5646 276.625 514.057
22 0 48.0148 13.8707 666 91.6231 277.107 514.012
23 0 51.0474 14.1829 724 90.3439 276.519 512.767
24 0 53.0347 13.8966 737 90.5088 277.217 511.961
25 0 54.0089 13.9051 751 90.984 276.43 510.815
26 0 54.0199 13.7727 744 92.336 276.591 512.148
27 0 55.0492 13.7695 758 92.9208 276.189 509.769
28 0 58.0347 13.9744 811 91.3921 275.716 509.681
29 0 61.0363 13.8934 848 90.6026 276.356 509.058
30 0 63.0383 13.8646 874 91.3341 275.476 507.931
31 0 64.0462 14.0836 902 92.1596 275.639 506.569
32 0 67.0327 14.3064 959 91.4348 274.977 506.073
33 0 69.0509 14.8441 1025 91.6956 276.086 504.478
34 0 72.039 15.3667 1107 90.4146 275.167 504.456
35 0 72.0461 14.9071 1074 94.3603 275.803 503.037
36 0 76.0514 14.7926 1125 94.9351 275.239 502.236
37 0 78.0296 15.084 1177 94.3781 275.359 501.124
38 0 81.0566 14.8785 1206 95.0365 274.907 498.908
39 0 82.0899 14.6059 1199 96.9066 275.644 497.563
40 1 44.0552 12.4843 550 95.3636 274.893 517.32
41 0 45.0556 12.9174 582 96.768 275.098 515.969
42 0 45.0556 12.873 580 165.493 275.076 516.012
43 0 45.0456 13.6306 614 97.184 275.322 515.505
44 0 49.0411 13.4173 658 96.8176 275.854 515.017
45 0 51.0154 13.741 701 96.8787 275.755 512.138
46 0 52.0161 13.8226 719 96.5299 276.22 512.812
47 0 54.0221 13.6426 737 97.943 275.322 510.616
48 0 55.1144 13.8439 763 97.1494 275.63 509.965
49 0 58.0458 13.7822 800 96.595 275.219 509.18
50 0 60.024 14.0277 842 96.0558 276.184 507.596
51 0 62.0246 13.9461 865 96.0173 275.274 505.607
52 0 63.0445 14.4342 910 95.3055 274.884 506.525
53 0 66.0308 14.1903 937 95.8239 274.898 504.593
54 0 68.052 14.151 963 95.6127 275.383 503.733
55 0 70.0992 14.8789 1043 94.3806 275.993 503.278
56 0 73.0418 14.1289 1032 94.9922 276.736 503.032
57 0 74.0576 14.7588 1093 95.0421 276.377 500.779
58 0 76.0234 14.6665 1115 102.022 275.848 502.08
59 0 80.0641 14.0013 1121 96.8947 275.288 499.897
60 0 82.0525 14.2835 1172 97.8976 276.305 499.078
61 0 85.0672 14.2946 1216 100.14 276.604 495.294
62 0 89.0336 14.7922 1317 98.1549 275.704 494.762
63 0 90.073 14.3328 1291 101.467 274.921 493.924
64 1 48.0157 12.4751 599 100.379 275.783 515.476
65 0 49.0123 12.8335 629 100.626 275.984 514.095
66 0 51.0387 12.853 656 100.375 276.297 513.338
67 0 50.0224 13.1941 660 100.191 275.886 511.732
68 0 53.0727 13.0576 693 98.847 276.296 511.723
69 0 54.0155 13.0518 705 98.8851 277.296 511.047
70 0 56.0144 13.3894 750 98.0493 277.268 510.307
71 0 57.028 13.1339 749 99.1682 277.254 509.587
72 0 60.0524 13.4716 809 97.5043 276.638 508.654
73 0 62.0261 12.8978 800 98.7412 276.431 506.988
74 0 64.0451 13.631 873 96.8602 277.255 506.045
75 0 67.0182 14.2648 956 95.5889 277.461 505.027
76 0 68.0949 14.0392 956 95.6674 276.631 503.493
77 0 71.0403 13.4853 958 97.7745 277.099 501.704
78 0 73.0948 13.7493 1005 97.1731 277.386 500.281
79 0 74.0552 13.4899 999 98.3834 277.805 500.051
80 0 77.0541 13.4711 1038 98.2505 277.551 498.531
81 0 80.033 14.2441 1140 95.914 278.087 498.029
82 0 81.0798 14.0602 1140 96.4868 277.131 497.326
83 0 84.0495 13.8014 1160 97.0483 277.591 495.341
84 0 86.0613 13.5369 1165 98.7614 277.335 493.223
85 0 90.1135 13.9935 1261 96.2665 276.996 492.255
86 0 92.121 13.6234 1255 96.5522 277.1 490.229
87 0 96.1122 13.5571 1303 96.1543 276.917 488.855
88 0 100.137 13.3517 1337 95.647 277.365 487.224
89 0 103.113 13.1992 1361 95.4379 277.674 485.004
90 1 52.0739 11.4837 598 94.0736 277.729 510.814
91 0 53.0274 11.2395 596 95.6426 276.924 508.205
92 0 54.0244 11.1986 605 96.7041 277.866 507.306
93 0 57.0174 12.768 728 92.2404 277.556 506.207
94 0 57.1011 12.2414 699 90.2074 277.349 507.422
95 0 58.0638 12.0902 702 90.8077 276.604 507.463
96 0 61.0612 12.1026 739 90.2747 276.238 507.64
97 0 63.0628 12.0356 759 89.8287 275.53 506.059
98 0 64.0694 11.8777 761 90.4915 276.332 504.715
99 0 67.062 12.4512 835 89.1832 276.83 503.043
100 0 68.0751 12.6625 862 89.2935 275.777 502.154
101 0 71.0348 12.1912 866 86.3672 276.717 501.748
102 0 72.0206 11.9827 863 87.2735 275.893 500.279
103 0 73.049 11.7182 856 87.2266 276.812 499.96
104 0 77.042 12.2141 941 85.5473 276.382 498.694
105 0 79.1218 12.6261 999 84.6226 277.123 497.128
106 0 79.1181 12.6393 1000 127.176 278.119 497.088
107 0 84.0464 12.0648 1014 85.4477 275.943 495.16
108 0 85.0598 11.7917 1003 85.662 275.275 491.883
109 0 89.0403 11.3207 1008 85.37 276.039 492.14
110 0 91.1144 11.0191 1004 86.3735 276.547 490.232
111 0 95.0521 12.6036 1198 82.717 276.523 488.286
112 0 98.0679 12.471 1223 83.5397 276.628 487.244
113 0 101.05 12.2415 1237 84.8779 277.09 486.233
114 0 104.069 12.6935 1321 84.5572 276.707 484.471
115 1 61.0592 11.3988 696 84.75 276.024 506.77
116 0 63.0607 11.5603 729 86.4198 276.106 506.007
117 0 65.1186 12.101 788 85.2157 275.514 504.052
118 0 65.0471 11.5147 749 78.9172 275.55 504.777
119 0 68.0279 11.5688 787 79.0584 275.201 502.236
120 0 71.0549 11.7796 837 78.6201 276.047 503.287
121 0 72.0383 11.6605 840 79.8702 276.186 502.001
122 0 76.0403 11.5334 877 80.5884 276.182 500.624
123 0 77.0519 12.7317 981 79.6718 276.262 498.335
124 0 80.1159 12.457 998 82.2264 276.511 496.816
125 0 83.0521 12.1008 1005 83.5005 276.188 495.846
126 0 86.0184 13.2879 1143 82.7822 276.147 494.451
127 0 89.0285 12.7487 1135 83.5604 276.462 493.112
128 0 91.0463 12.1477 1106 84.7957 275.687 491.763
129 0 95.0258 12.0915 1149 85.2098 275.749 490.708
130 0 97.0333 12.81 1243 83.9775 276.46 489.331
131 0 98.1437 12.176 1195 86.1004 276.781 486.729
132 0 103.184 12.3275 1272 85.0794 276.966 484.903
133 0 104.044 12.1488 1264 85.765 276.261 485.418
134 1 58.0377 11.8888 690 76.6087 276.358 510.591
135 0 59.0303 11.0282 651 80.1444 276.18 509.247
136 0 60.0554 12.0222 722 81.3643 276.49 507.92
137 0 59.0534 10.5836 625 80.5984 275.867 508.611
138 0 61.0318 11.2728 688 80.1642 276.262 507.269
139 0 63.0326 11.7875 743 78.1023 276.151 507.587
140 0 66.0361 11.4937 759 78.307 276.238 507.287
141 0 68.0488 11.286 768 79.3151 276.298 505.897
142 0 69.0324 11.1687 771 80.3645 276.83 504.521
143 0 71.0225 11.1655 793 81.3178 275.786 504.074
144 0 74.0242 11.9826 887 80.0237 275.475 502.61
145 0 77.0763 11.8324 912 80.5132 275.412 502.38
146 0 77.032 12.4364 958 80.858 276.057 500.428
147 0 82.0701 12.1847 1000 81.141 276.051 499.191
148 0 82.0195 12.4361 1020 82.6245 276.085 497.306
149 0 85.0605 12.2854 1045 83.1493 276.388 495.964
150 0 87.0843 12.1032 1054 85.1831 276.072 495.337
151 0 90.0792 12.1449 1094 85.6179 276.01 493.57
152 0 92.0698 12.6643 1166 85.6141 275.541 492.148
153 0 95.1158 12.7213 1210 85.781 275.654 491.392
154 0 99.0561 13.4166 1329 83.4199 275.348 490.407
155 0 102.041 13.23 1350 83.9622 274.688 489.248
156 0 104.081 12.8746 1340 85.4246 275.447 487.646
157 0 106.076 12.8964 1368 85.2164 274.831 484.66
158 0 109.077 13.165 1436 84.9965 275.778 485.005
159 0 111.079 13.2518 1472 84.9681 275.952 483.302
160 0 117.142 12.5831 1474 84.6275 276.318 479.841
161 0 120.124 12.9033 1550 83.9245 275.586 478.935
162 0 123.104 12.6884 1562 85.5403 275.15 478.328
163 0 128.07 13.1257 1681 85.4111 275.562 474.734
164 1 66.0572 11.1721 738 84.9146 275.747 504.984
165 0 68.0149 12.409 844 82.9716 275.554 502.97
166 0 71.0711 11.8191 840 86.6881 275.84 502.488
167 0 72.075 11.6962 843 92.331 275.359 501.811
168 0 76.1047 12.4828 950 90.2295 275.947 498.02
169 0 79.0595 12.6487 1000 89.872 275.905 498.716
170 0 81.0683 12.4216 1007 90.7319 276.321 498.624
171 0 81.0992 12.1703 987 91.996 275.865 496.072
172 0 86.0484 13.2832 1143 89.1584 275.008 494.412
173 0 86.0722 12.6638 1090 92.4101 274.769 493.891
174 0 90.1043 12.6076 1136 92.1347 274.941 493.279
175 0 93.0747 13.0325 1213 91.5779 275.143 490.971
176 0 95.0745 13.0424 1240 91.4782 276.023 490.842
177 0 98.092 12.9368 1269 92.6218 275.905 491.129
178 0 99.1024 13.3498 1323 92.8057 275.992 489.144
179 0 103.076 12.7867 1318 94.8619 275.86 487.265
180 0 104.116 12.486 1300 95.5569 274.876 485.002
181 1 55.0306 11.6481 641 93.2153 274.936 510.19
182 0 57.0398 11.8689 677 91.5716 274.48 509.233
183 0 59.0329 12.5015 738 89.7574 275.622 508.993
184 0 59.0292 12.6378 746 91.5523 276.472 508.05
185 0 62.0578 12.8267 796 92.0452 275.974 506.803
186 0 65.0214 12.7804 831 93.3947 275.995 504.712
187 0 66.0623 13.0483 862 92.5371 275.449 504.297
188 0 67.0573 13.138 881 93.3802 275.757 502.647
189 0 71.0699 13.6908 973 90.9209 275.222 502.182
190 0 73.1239 13.525 989 92.5794 274.804 500.338
191 0 75.1086 13.5537 1018 92.7976 274.699 500.042
192 0 78.1062 14.0066 1094 92.0759 274.172 499.363
193 0 79.1423 13.3178 1054 95.5427 275.124 497.716
194 0 80.1175 12.9684 1039 99.9182 274.956 496.361
195 0 83.1051 13.0798 1087 100.317 275.488 495.397
196 0 87.1191 13.5676 1182 98.2741 275.205 494.618
197 0 87.1039 13.0763 1139 100.338 275.45 492.946
198 0 92.2194 14.1619 1306 96.6217 275.293 491.613
199 0 94.2676 14.1088 1330 97.3203 274.558 490.135
200 0 97.2027 13.2301 1286 100.781 274.139 488.051
201 0 99.2239 13.6661 1356 100.133 274.444 487.306
202 0 99.2239 13.6761 1357 175.362 275.438 487.317
203 0 106.233 13.9316 1480 126.268 275.153 482.653
204 0 109.19 13.8291 1510 126.652 274.834 481.634
205 0 112.124 14.0023 1570 127.696 274.524 480.331
206 0 117.061 14.0866 1649 125.378 275.158 479.254
207 0 120.063 13.4013 1609 118.978 273.758 479.393
208 0 126.138 13.8658 1749 118.632 273.659 476.13
209 1 65.0329 11.2097 729 117.97 273.646 505.888
210 0 68.0689 12.2229 832 112.267 274.058 505.708
211 0 67.0267 11.0851 743 102.878 274.211 501.518
212 0 69.0638 11.0333 762 102.852 274.591 500.748
213 0 72.0445 11.1875 806 103.872 275.223 499.407
214 0 74.0616 11.3824 843 103.176 275.059 498.123
215 0 76.0239 11.2333 854 104.678 274.774 495.905
216 0 81.0518 12.3378 1000 109.885 274.952 497.864
217 0 82.1004 12.5212 1028 110.982 274.305 496.614
218 0 87.1131 12.6617 1103 109.692 274.296 495.062
219 0 88.0695 12.1495 1070 113.689 274.093 492.224
220 0 91.038 12.4783 1136 112.801 274.606 492.365
221 0 94.0459 12.7704 1201 119.949 274.868 489.251
222 0 96.0489 12.806 1230 119.747 274.619 488.518
223 0 101.048 12.6573 1279 118.318 275.042 486.311
224 0 103.035 12.8403 1323 118.073 274.54 484.09
225 0 106.065 12.9261 1371 116.966 274.236 482.333
226 1 56.0454 10.5093 589 110.37 273.615 507.616
227 0 56.0434 10.9915 616 104.372 274.352 506.792
228 0 61.0497 11.4333 698 101.665 273.809 506.62
229 0 63.067 11.4164 720 100.382 274.511 505.356
230 0 65.0303 10.9795 714 100.985 274.409 505.077
231 0 64.0464 11.3043 724 102.669 274.41 504.45
232 0 68.0293 11.642 792 99.7854 275.138 503.938
233 0 71.0736 11.9594 850 112.435 274.48 501.804
234 0 73.0942 11.492 840 113.629 274.513 499.477
235 0 76.109 11.1156 846 115.157 274.585 499.152
236 0 75.0884 11.4399 859 116.126 273.952 498.559
237 0 77.1203 11.6052 895 115.511 274.323 498.011
238 0 81.0924 12.233 992 112.73 273.431 496.601
239 0 82.1002 12.0341 988 113.295 274.104 495.654
240 0 85.0853 11.3181 963 114.55 274.226 493.803
241 0 88.116 11.8253 1042 112.432 274.75 493.607
242 0 91.0858 11.9009 1084 110.896 274.412 492.698
243 0 93.0912 11.6982 1089 109.714 273.874 492.479
244 0 95.119 11.6486 1108 110.277 273.96 490.062
245 0 97.0822 11.3306 1100 111.133 274.288 488.908
246 0 99.1652 10.8808 1079 110.173 274.476 488.688
247 0 104.062 11.1664 1162 108.139 274.083 487.027
248 0 106.101 10.9235 1159 108.377 274.444 483.923
249 1 56.0371 9.61863 539 103.635 274.315 510.026
250 0 60.0936 11.2158 674 98.3412 274.19 508.013
251 0 60.1038 11.1973 673 99.7221 273.41 506.759
252 0 62.0889 11.4674 712 98.6096 273.972 506.295
253 0 63.054 11.9263 752 99.2181 274.569 504.33
254 0 65.0504 11.3758 740 92.5568 274.938 504.134
255 0 67.0304 11.1293 746 93.6314 273.932 503.748
256 0 68.0461 10.5517 718 97.0599 274.653 503.847
257 0 69.0259 10.7786 744 97.6452 274.652 503.555
258 0 71.0415 10.6698 758 98.033 274.106 501.997
259 0 74.021 11.9966 888 96.6712 274.171 499.36
260 0 77.0718 11.3012 871 98.3594 274.209 499.116
261 0 80.0241 10.9217 874 101.906 273.736 496.662
262 0 83.0755 11.1465 926 102.598 273.165 495.913
263 0 84.033 11.3646 955 104.496 273.519 494.82
264 0 90.0646 11.5362 1039 105.151 273.294 493.11
265 0 91.0247 11.3705 1035 106.706 273.185 491.187
266 0 93.0256 11.9107 1108 108.134 274.194 488.947
267 0 97.0706 11.5998 1126 108.1 273.807 488.238
268 0 99.0693 11.6282 1152 109.964 274.12 487.22
269 0 103.089 12.6201 1301 106.772 274.092 486.302
270 0 106.049 12.2114 1295 108.831 273.788 481.858
271 0 111.027 12.4295 1380 108.176 273.552 481.86
272 1 59.0243 11.3682 671 109.958 273.106 507.325
273 0 58.0473 11.2839 655 111.776 273.472 506.861
274 0 63.0322 12.1049 763 107.748 273.045 505.325
275 0 64.1233 12.3512 792 107.721 272.827 504.015
276 0 65.0587 12.4964 813 99.9594 273.872 505.335
277 0 67.0493 12.4386 834 101.107 274.092 504.881
278 0 69.0504 12.4547 860 102.801 273.608 502.417
279 0 70.0467 12.6059 883 103.077 274.37 501.678
280 0 73.0744 12.5899 920 103.492 273.699 501.182
281 0 75.0589 13.0164 977 101.736 273.515 499.924
282 0 76.0358 12.3889 942 103.926 273.373 499.045
283 0 80.0378 13.1063 1049 101.708 273.922 497.51
284 0 83.0833 13.5045 1122 101.328 273.144 496.519
285 0 85.0452 12.7814 1087 104.122 272.737 495.009
286 0 90.0529 12.8591 1158 102.421 273.066 492.392
287 0 92.0723 13.2287 1218 102.943 273.066 490.714
288 0 94.024 13.5178 1271 102.191 273.631 489.986
289 0 96.0749 13.4166 1289 103.825 273.911 487.132
290 0 97.1049 13.2331 1285 103.71 274.236 486.56
291 0 101.046 13.38 1352 103.529 273.479 486.151
292 0 104.072 12.7604 1328 106.928 274.18 483.431
293 1 56.0248 11.4414 641 106.387 273.822 506.986
294 0 56.0287 11.3692 637 107.735 273.061 505.229
295 0 58.0974 12.961 753 104.671 271.872 505.426
296 0 58.0176 11.0656 642 104.154 271.813 507.347
297 0 60.0655 11.8371 711 101.329 273.108 508.494
298 0 60.0264 12.128 728 102.641 273.588 505.937
299 0 63.0477 12.0068 757 103.638 272.993 505.297
300 0 66.0234 12.5864 831 101.225 273.253 505.223
301 0 68.0485 12.2854 836 103.109 273.711 504.434
302 0 69.0246 12.3579 853 104.152 272.982 503.7
303 0 72.0482 12.8525 926 104.923 273.658 503.296
304 0 72.077 12.334 889 109.285 272.317 501.615
305 0 75.0772 13.4795 1012 106.871 272.81 500.838
306 0 77.0417 12.6165 972 109.89 273.129 499.979
307 0 80.113 13.1564 1054 108.278 273.558 499.46
308 0 81.0882 13.0598 1059 109.519 274.002 498.055
309 0 86.091 12.208 1051 111.554 273.716 496.892
310 0 85.0986 13.361 1137 108.191 273.863 495.927
311 0 88.0799 12.9087 1137 109.389 273.382 496.347
312 0 90.043 12.383 1115 112.401 273.03 494.591
313 0 93.0398 13.2094 1229 109.998 272.478 492.317
314 0 96.0644 13.1578 1264 109.826 272.604 492.074
315 0 97.1092 12.9648 1259 109.715 272.871 491.03
316 0 100.106 12.5967 1261 109.918 273.656 489.902
317 0 104.057 12.7334 1325 108.846 273.599 488.383
318 0 105.124 12.6612 1331 110.333 273.061 487.072
319 0 111.111 13.158 1462 105.562 273.696 484.817
320 0 114.186 13.2679 1515 105.408 273.406 484.036
321 0 119.113 13.0464 1554 105.669 273.144 482.12
322 1 62.1684 11.2919 702 106.973 272.714 509.715
323 0 66.2269 12.0495 798 105.695 271.687 506.083
324 0 66.1002 12.3146 814 104.656 271.882 508.453
325 0 68.1115 12.1419 827 105.336 272.762 507.374
326 0 70.1152 12.0231 843 104.501 273.066 506.14
327 0 71.0626 12.7071 903 104.466 272.623 507.122
328 0 73.1163 11.9536 874 106.888 272.94 506.161
329 0 75.0758 12.0811 907 105.897 272.75 504.526
330 0 79.1131 12.6781 1003 104.275 272.587 503.294
331 0 81.1154 12.8459 1042 104.125 272.016 502.486
332 0 83.0972 12.3109 1023 106.147 271.756 501.537
333 0 85.1588 12.2477 1043 107.699 271.688 499.591
334 0 88.1124 12.3252 1086 108.849 271.532 497.029
335 0 93.1428 13.1196 1222 106.379 272.115 496.819
336 0 95.1054 12.7122 1209 110.519 271.759 495.137
337 1 47.0504 10.5419 496 106.869 271.548 518.417
338 0 48.0693 10.8177 520 103.721 272.381 517.469
339 0 51.0273 11.5428 589 99.0917 271.443 515.749
340 0 51.0202 11.5641 590 98.9254 271.512 515.776
341 0 53.0151 11.7514 623 99.0803 270.856 515.509
342 0 53.0808 11.1905 594 103.542 270.742 516.125
343 0 54.0305 12.3264 666 100.461 271.156 516.176
344 0 57.0554 11.8131 674 100.665 271.184 514.924
345 0 56.0303 11.2082 628 104.447 271.396 515.89
346 0 57.0369 11.3611 648 104.691 271.154 513.937
347 0 61.0405 11.7954 720 102.564 271.153 513.067
348 0 63.0226 11.5038 725 104.619 269.477 512.651
349 0 65.0124 11.7824 766 105.638 269.46 511.644
350 0 66.0425 12.0226 794 105.611 269.466 511.436
351 0 68.0476 12.1239 825 106.375 269.959 509.618
352 0 72.0677 11.8638 855 107.964 270.404 508.05
353 0 75.0475 12.1257 910 108.385 270.162 506.9
354 0 77.0763 11.7416 905 109.861 271.597 505.169
355 0 79.0642 12.0029 949 110.488 270.839 503.384
356 0 83.0299 12.1763 1011 108.88 270.845 502.856
357 0 86.0618 12.3283 1061 108.861 272.299 500.552
358 0 89.0571 12.4527 1109 109.93 271.535 499.857
359 0 91.0781 12.363 1126 111.853 270.743 498.678
360 1 52.057 11.4874 598 112.722 271.043 517.582
361 0 52.0241 11.4562 596 114.273 271.767 515.3
362 0 53.0284 12.6536 671 109.142 271.817 516.091
363 0 54.0287 12.4564 673 109.196 272.214 515.673
364 0 56.0475 12.4894 700 106.557 271.596 514.804
365 0 54.0575 11.6173 628 108.105 272.29 516.74
366 0 55.0566 11.9695 659 110.106 272.437 515.263
367 0 59.1101 11.487 679 109.381 272.458 514.984
368 0 60.0786 11.4517 688 110.581 272.012 515.469
369 0 65.0642 11.5424 751 104.617 271.38 513.039
370 0 65.0698 11.4031 742 107.009 270.787 511.567
371 0 66.0188 11.2544 743 107.599 270.005 512.098
372 0 68.0499 11.9618 814 108.63 271.275 508.157
373 0 72.1041 11.1644 805 109.738 271.544 508.378
374 0 74.0598 11.7338 869 106.732 271.247 508.557
375 0 76.0827 11.9081 906 108.457 271.8 506.317
376 0 78.0529 12.4787 974 109.407 271.594 503.263
377 0 81.092 11.8877 964 110.424 271.858 503.213
378 0 85.0878 12.2932 1046 109.338 270.889 501.218
379 0 86.1047 12.3571 1064 110.763 271.152 499.697
380 0 91.0885 12.3945 1129 112.137 270.84 496.881
381 1 49.0875 10.6137 521 116.708 270.768 517.207
382 0 50.0937 11.2789 565 117.756 270.611 515.855
383 0 51.0816 10.9628 560 120.304 271.248 515.632
384 0 53.0289 11.6729 619 119.339 271.651 514.165
385 0 55.0695 11.9667 659 116.046 271.724 514.3
386 0 57.0239 12.486 712 117.08 272.15 512.184
387 0 60.029 12.444 747 115.301 271.562 511.983
388 0 61.0356 12.4354 759 128.373 271.149 509.125
389 0 64.0572 12.1766 780 127.691 270.635 508.662
390 0 65.034 12.3781 805 128.143 271.041 507.348
391 0 67.0317 12.412 832 125.834 271.373 508.062
392 0 68.0276 12.6566 861 125.055 271.639 506.364
393 0 71.031 12.2904 873 125.603 271.677 504.993
394 0 72.0111 12.873 927 124.053 271.351 503.967
395 0 75.0244 12.5826 944 122.938 271.406 503.036
396 0 78.0217 12.3555 964 123.298 271.668 501.493
397 0 80.0242 12.4837 999 121.413 271.661 500.087
398 0 82.098 11.6812 959 124.084 272.18 500.308
399 0 84.0786 12.7024 1068 120.723 270.99 498.216
400 0 87.0866 12.1144 1055 122.287 271.56 496.264
401 0 89.1432 11.9919 1069 123.281 270.699 493.547
