time division length width area intensity CMx CMy
0 0 71.0316 14.585 1036 83.5714 578.801 498.173
1 0 74.06 14.6368 1084 83.0046 579.588 495.928
2 0 74.055 14.9889 1110 83.1595 579.713 495.32
3 0 74.0992 14.9529 1108 84.213 579.261 494.705
4 0 77.021 13.9832 1077 84.8802 579.5 494.093
5 0 77.021 13.9702 1076 167.178 579.505 494.125
6 0 80.0567 14.6271 1171 83.5781 579.369 491.744
7 0 83.0576 14.7247 1223 83.9836 579.475 491.413
8 0 84.0521 15.1573 1274 83.2645 579.506 490.639
9 0 87.0264 14.9725 1303 83.5602 578.524 489.86
10 0 91.0387 15.2463 1388 81.6081 580.076 490.038
11 0 92.0212 15.1161 1391 82.6312 578.617 488.069
12 0 96.0397 15.4415 1483 80.797 579.228 488.217
13 0 98.0595 15.4396 1514 81.6156 579.142 485.464
14 0 101.068 15.7518 1592 81.0597 578.933 484.455
15 0 106.052 15.1907 1611 81.5369 579.063 482.652
16 0 107.059 14.7582 1580 83.257 578.782 481.918
17 0 109.068 14.2296 1552 84.5045 578.384 480.356
18 0 113.062 14.4434 1633 83.4207 578.457 478.506
19 0 116.059 14.777 1715 82.1539 577.57 477.714
20 0 120.096 14.6134 1755 83.3225 577.625 475.847
21 0 124.094 14.5051 1800 84.3417 577.841 474.777
22 0 128.094 14.7938 1895 83.439 578.329 472.897
23 0 132.077 14.6506 1935 83.8506 577.634 471.129
24 0 137.156 15.2308 2089 83.6415 578.409 467.825
25 0 141.132 15.0498 2124 83.8729 577.559 465.35
26 0 145.15 15.1016 2192 84.0068 577.837 464.761
27 0 148.131 14.2914 2117 86.8682 577.395 461.949
28 0 152.134 14.829 2256 85.3657 576.896 460.947
29 0 156.077 14.3711 2243 85.8025 577.45 457.405
30 0 160.162 14.2543 2283 85.9873 576.579 457.91
31 0 165.186 14.6684 2423 85.0487 576.751 455.734
32 0 173.13 14.7519 2554 84.3771 576.031 452.298
33 0 176.173 14.2474 2510 86.8514 577.111 449.972
34 0 181.11 13.7099 2483 88.1248 576.174 445.944
35 0 186.106 13.9276 2592 89.1385 576.814 443.08
36 0 192.087 13.3741 2569 89.687 576.285 441.589
37 0 201.21 14.1743 2852 87.501 576.402 435.817
38 0 207.136 13.7494 2848 88.4709 575.785 432.75
39 0 216.211 14.1482 3059 86.8441 576.47 430.99
40 0 221.132 13.4218 2968 89.0088 575.701 425.841
41 0 231.27 14.2517 3296 86.0407 576.025 423.85
42 0 231.27 14.269 3300 156.391 577.024 424.022
43 1 191.205 13.2266 2529 90.1526 576.081 439.692
44 0 198.13 13.9706 2768 88.8129 576.756 434.705
45 0 206.142 13.8933 2864 88.1658 576.738 430.809
46 0 211.16 13.549 2861 89.9147 577.212 425.01
47 0 219.118 13.6365 2988 89.6707 576.308 423.483
48 0 226.142 13.5976 3075 90.1041 576.679 419.636
49 0 234.147 13.2011 3091 91.5781 576.251 414.919
50 0 244.134 13.939 3403 90.7161 577.073 411.638
51 0 252.181 13.8194 3485 90.7954 576.231 405.015
52 0 261.201 13.8323 3613 90.2939 575.917 402.089
53 1 58.0126 10.5322 611 73.1342 576.543 502.795
54 0 59.0575 11.8867 702 76.0328 576.879 503.583
55 0 62.0186 12.5608 779 75.2003 577.453 502.135
56 0 63.0742 12.4774 787 76.0648 577.934 502.318
57 0 64.0582 11.7862 755 72.6146 577.711 502.928
58 0 67.0499 12.4832 837 76.644 577.325 502.489
59 0 67.0383 12.1722 816 71.2574 576.789 501.266
60 0 71.02 12.757 906 69.9128 577.881 498.967
61 0 73.0613 12.1952 891 71.367 578.102 498.059
62 0 76.0184 12.2733 933 71.3644 577.275 497.817
63 0 78.0296 11.9314 931 72.9431 576.534 496.714
64 0 80.0491 11.8302 947 72.9071 577.455 495.627
65 0 83.0802 11.7597 977 73.087 577.856 493.904
66 0 86.0383 11.6925 1006 71.508 577.706 494.372
67 0 91.0837 12.2744 1118 71.483 577.495 490.064
68 1 47.1503 10.8377 511 76.546 577.845 511.117
69 0 47.1456 10.8176 510 75.2 578.594 509.453
70 0 49.0689 11.1068 545 74.8477 578.75 510.734
71 0 52.0685 10.9471 570 77.2368 577.949 510.126
72 0 53.0423 11.3117 600 77.5967 577.333 507.822
73 0 53.0548 11.2148 595 78.2286 577.17 507.385
74 0 56.0788 12.1258 680 75.8221 578.028 506.332
75 0 58.0716 12.2091 709 75.6135 578.461 507.315
76 0 59.0406 12.4491 735 75.3197 577.742 505.283
77 0 61.0536 11.8748 725 78.429 578.228 504.549
78 0 61.0489 11.9412 729 79.7339 578.468 504.08
79 0 64.1214 12.4919 801 78.1323 578.969 503.659
80 0 66.1408 12.3676 818 77.846 578.793 503.251
81 0 66.0673 12.684 838 78.6062 579.28 503.604
82 0 67.0639 12.1973 818 80.165 578.326 501.881
83 0 70.1081 12.7089 891 79.3984 578.824 499.851
84 0 73.1019 12.5852 920 80.3152 578.483 498.916
85 0 76.1177 13.4397 1023 77.8485 578.232 498.214
86 0 76.0649 12.5551 955 80.9686 578.245 497.227
87 0 79.0501 13.1056 1036 80.5695 578.263 495.045
88 0 80.1291 13.0415 1045 81.356 578.757 494.198
89 0 84.078 12.5241 1053 82.4435 579.05 493.444
90 0 85.0542 12.3216 1048 78.8845 578.405 493.09
91 0 88.0652 11.9003 1048 80.4714 577.821 492.004
92 1 46.0461 11.445 527 80.0664 578.638 511.323
93 0 47.0648 10.7724 507 80.9034 578.392 511.878
94 0 48.0632 12.2963 591 76.6294 578.127 510.171
95 0 48.0485 12.2793 590 76.5932 577.308 509.142
96 0 50.0404 12.33 617 76.3566 576.921 509.353
97 0 50.0359 11.6716 584 78.3151 576.32 509.457
98 0 52.0367 12.9716 675 75.8193 577.037 508.243
99 0 54.0486 12.2667 663 77.0196 577.523 507.222
100 0 55.0681 12.8023 705 76.4582 576.525 506.569
101 0 58.0358 12.7508 740 77.0068 577.896 505.365
102 0 59.0242 12.3339 728 78.2775 577.055 504.641
103 0 60.0488 12.4898 750 79.1867 577.952 503.637
104 0 62.0579 12.4239 771 79.7523 577.595 502.773
105 0 64.0221 12.7768 818 79.5721 578.209 502.758
106 0 64.0221 12.7925 819 141.569 578.227 502.654
107 0 66.0409 13.1434 868 81.3214 577.143 501.122
108 0 70.0434 12.9777 909 80.6612 576.441 499.578
109 0 71.0985 12.5882 895 82.4782 577.181 497.51
110 0 72.0397 13.2288 953 82.3148 577.645 497.478
111 0 74.0691 13.5009 1000 81.181 577.605 494.919
112 0 79.0331 13.1844 1042 81.4156 577.635 493.925
113 0 81.0655 13.3719 1084 81.3921 578.078 491.885
114 0 84.0131 13.236 1112 81.3192 577.496 489.424
115 0 87.0681 13.9431 1214 79.6425 576.772 490.884
116 0 87.0381 13.4194 1168 81.6259 576.947 489.515
117 0 89.0715 13.5509 1207 82.3852 576.353 487.155
118 0 92.055 13.1986 1215 82.3004 577.036 485.83
119 0 95.0648 12.6125 1199 81.5663 576.466 485.038
120 0 98.0573 12.9822 1273 81.8437 577.372 481.435
121 0 100.086 12.3094 1232 81.3312 577.433 481.838
122 0 103.063 13.4772 1389 78.941 577.346 478.576
123 0 104.067 13.0205 1355 79.8583 577.528 475.616
124 0 108.092 13.4237 1451 78.3494 577.901 474.116
125 0 111.107 13.0594 1451 78.1475 577.454 473.092
126 0 111.061 12.4165 1379 79.2901 577.432 471.133
127 0 117.047 12.4309 1455 78.6158 577.619 468.797
128 0 123.086 12.9665 1596 76.5075 577.001 468.125
129 0 126.111 13.3851 1688 76.2838 577.001 466.288
130 0 129.128 12.5225 1617 77.551 577.54 464.134
131 0 133.268 12.8013 1706 77.2298 577.559 462.095
132 0 137.154 12.5698 1724 77.1816 577.796 459.172
133 0 142.106 12.927 1837 76.3827 577.231 458.25
134 0 147.197 12.3848 1823 77.4591 577.479 456.059
135 0 151.11 12.2361 1849 77.4997 577.297 450.364
136 0 160.15 12.7006 2034 75.6563 577.603 450.779
137 0 165.115 12.4519 2056 76.6055 577.167 450.34
138 0 171.265 13.3419 2285 75.8013 577.343 444.055
139 0 177.102 12.7271 2254 76.799 577.181 441.805
140 0 184.193 13.2361 2438 76.2305 577.239 440.425
141 0 192.151 13.1616 2529 76.4563 577.242 437.079
142 0 199.113 12.8018 2549 77.1538 577.815 432.328
143 1 145.173 12.1785 1768 78.6968 576.703 459.597
144 0 150.164 12.7128 1909 78.7025 576.404 456.88
145 0 156.23 12.9617 2025 77.9368 576.289 456.408
146 0 160.111 13.8529 2218 78.6492 577.033 456.986
147 0 166.224 13.1389 2184 79.353 576.812 451.757
148 0 172.124 13.4321 2312 78.6799 576.582 446.015
149 1 61.0631 10.6611 651 67.9508 577.797 503.115
150 0 63.0422 11.8492 747 73.3909 577.483 504.13
151 0 66.1002 12.7534 843 69.892 577.396 503.394
152 0 68.038 12.0815 822 68.4039 576.583 502.408
153 0 69.089 12.3174 851 68.3843 576.772 501.96
154 0 73.0552 12.2099 892 67.7926 576.383 500.261
155 0 75.0921 12.6245 948 67.5506 575.776 498.579
156 0 76.023 11.4702 872 69.9427 576.604 498.22
157 0 78.0719 11.6815 912 70.2928 576.141 496.285
158 0 82.0698 12.0263 987 70.5198 577.02 496.25
159 0 84.0724 12.1205 1019 71.6045 577.11 494.194
160 0 87.0943 12.0444 1049 71.5043 577.491 492.723
161 0 88.0973 11.2149 988 72.8927 576.61 490.417
162 0 91.1452 12.1893 1111 72.0207 576.132 491.063
163 0 95.0448 12.2469 1164 72.7466 576.426 489.713
164 0 97.1609 12.0933 1175 75.4834 576.524 487.16
165 0 101.163 12.2475 1239 75.2825 576.43 487.34
166 0 102.113 12.3393 1260 79.0968 576.613 483.739
167 0 107.167 11.9533 1281 80.484 576.697 482.693
168 1 53.1084 11.034 586 74.6007 577.578 506.391
169 0 53.147 10.4051 553 72.0705 577.425 503.749
170 0 56.13 11.2774 633 75.9463 577.872 504.585
171 0 56.0612 11.0415 619 71.5202 577.913 507.609
172 0 57.0635 10.5321 601 72.6522 577.012 506.383
173 0 61.0448 11.123 679 71.0869 576.56 504.8
174 0 62.0329 11.0748 687 71.8195 576.603 504.59
175 0 64.0351 11.1501 714 72.2115 576.831 502.817
176 0 66.0459 10.7501 710 73.2479 577.568 503.9
177 0 69.0758 11.0893 766 72.8721 577.495 502.882
178 0 71.0565 11.1601 793 73.5107 577.544 501.686
179 0 74.0418 11.6826 865 73.6659 577.371 499.131
180 0 76.1042 11.7076 891 70.9259 575.724 498.221
181 0 79.0967 11.8463 937 69.8623 575.762 496.799
182 0 83.1026 11.179 929 70.183 575.164 495.103
183 0 85.1027 11.633 990 69.4525 576.23 494.706
184 1 44.0327 10.9237 481 70.0083 576.694 514.212
185 0 47.0525 10.4352 491 69.165 576.619 513.448
186 0 47.0191 10.8679 511 69.6849 577.489 511.851
187 0 48.0756 11.2739 542 68.2491 577.511 511.506
188 0 49.0403 11.1541 547 68.9122 577.258 511.205
189 0 47.0664 10.4321 491 72.277 576.519 511.177
190 0 48.0466 10.136 487 72.3409 575.893 511.125
191 0 52.0479 10.1253 527 71.0512 575.909 510.283
192 0 54.0269 10.6243 574 69.4059 575.401 510.538
193 0 53.0428 10.1993 541 71.342 576.355 508.494
194 0 54.1399 10.1035 547 71.7166 576.126 509.777
195 0 57.0609 10.6378 607 71.4992 576.555 507.675
196 0 59.037 11.1286 657 69.4034 576.272 507.149
197 0 60.0366 10.6768 641 69.5601 576.445 506.228
198 0 61.066 10.7916 659 69.5584 576.473 504.375
199 0 63.0842 10.0818 636 69.467 575.7 505.55
200 0 65.0684 11.0806 721 69.3259 575.351 502.563
201 0 68.1543 10.9898 749 68.6943 575.595 502.207
202 0 68.1543 10.9457 746 135.105 575.586 502.273
203 0 74.0191 12.5238 927 83.8177 576.272 499.875
204 0 74.0317 11.6707 864 86.6227 576.043 497.389
205 0 76.0549 11.781 896 86.0346 575.498 498.27
206 0 80.0366 11.4198 914 86.4431 576.136 496.701
207 0 82.0179 11.595 951 86.164 574.87 494.965
208 0 86.0724 11.8505 1020 85.7226 574.841 493.56
209 0 88.0699 11.7634 1036 86.7027 574.542 493.53
210 0 91.06 11.8164 1076 91.7491 575.014 490.157
211 0 93.0697 12.2489 1140 91.0561 575.03 489.784
212 0 94.0963 11.6689 1098 93.6157 575.119 488.472
213 0 96.0556 10.6709 1025 94.1561 575.756 487.984
214 0 99.0768 9.95187 986 93.6836 575.594 486.409
215 0 102.06 10.7975 1102 93.1189 575.604 483.055
216 1 50.0835 10.0033 501 86.7984 575.733 510.188
217 0 52.0262 10.437 543 85.1087 575.074 509.479
218 0 56.0686 10.0769 565 83.9168 575.069 507.147
219 0 56.0347 10.3864 582 86.8608 574.809 505.629
220 0 59.034 11.8914 702 87.0812 575.43 505.437
221 0 62.0453 10.863 674 89.3294 575.513 502.831
222 0 64.0298 11.1354 713 88.986 575.464 503.215
223 0 64.046 11.3981 730 90.789 575.942 501.122
224 0 69.0381 12.3845 855 88.8094 575.384 500.685
225 0 72.0595 12.3925 893 90.7682 575.339 498.937
226 0 72.0952 12.747 919 93.7889 574.394 497.047
227 0 74.0882 12.6876 940 97.1479 575.231 496.17
228 0 77.0702 12.7546 983 97.292 574.778 495.279
229 0 79.0713 12.6721 1002 98.505 575.437 493.447
230 0 83.0442 13.3182 1106 95.5208 575.254 493.01
231 0 84.0639 12.7641 1073 98.0214 575.256 493.71
232 0 87.0982 12.8935 1123 98.4586 576.102 491.606
233 0 90.2536 13.2405 1195 96.8034 575.566 491.675
234 0 92.1564 12.9779 1196 98.5276 575.474 488.451
235 0 95.126 13.4769 1282 98.1583 575.509 487.607
236 0 97.1764 12.8529 1249 100.528 574.918 485.598
237 0 100.081 13.2193 1323 100.37 575.267 484.663
238 0 105.207 13.117 1380 99.4949 574.352 483.221
239 0 109.23 12.8078 1399 100.475 575.027 479.46
240 1 58.1151 11.546 671 99.6498 575.262 504.581
241 0 60.0478 11.6407 699 102.928 576.149 504.499
242 0 64.0577 12.4731 799 100.885 575.533 503.905
243 0 65.0251 12.3337 802 101.423 574.893 502.419
244 0 69.0156 12.5769 868 100.051 575.058 501.448
245 0 69.0232 12.5175 864 101.907 575.378 500.278
246 0 73.0347 12.6515 924 100.368 575.525 498.937
247 0 74.034 12.0755 894 100.992 575.11 498.643
248 0 77.0621 12.4315 958 100.879 575.488 494.83
249 0 78.064 11.8492 925 101.882 575.436 494.686
250 0 83.0765 12.663 1052 95.5913 575.344 494.35
251 0 86.0429 12.0754 1039 99.1829 574.822 492.478
252 0 88.0296 12.0982 1065 99.139 575.575 491.841
253 0 91.023 11.8981 1083 99.2512 575.957 488.208
254 0 95.0656 12.5808 1196 95.2258 576.549 486.616
255 1 45.0095 10.3756 467 91.4882 575.538 511.636
256 0 49.0457 11.948 586 89.2099 576.189 510.251
257 0 50.0484 11.5488 578 91.9273 575.886 509.365
258 0 49.0599 10.4362 512 89.0723 575.553 510.107
259 0 51.0206 11.7404 599 87.7212 575.79 506.686
260 0 53.0899 11.0379 586 89.4812 575.787 506.345
261 0 56.0252 10.9415 613 90.9135 575.336 505.806
262 0 57.0468 12.2531 699 89.1388 574.742 503.894
263 0 57.0107 11.2084 639 92.6166 575.279 504.105
264 0 60.0276 11.7113 703 93.4196 574.915 503.165
265 0 63.0738 12.1128 764 93.1361 574.742 501.241
266 0 64.0809 12.0629 773 95.6481 575.765 500.736
267 0 67.0629 12.7343 854 95.6862 575.241 499.041
268 0 69.0448 12.3543 853 97.8242 575.676 497.909
269 0 70.074 12.5011 876 98.492 575.417 498.412
270 0 74.0443 13.0192 964 96.2853 575.337 497.192
271 0 76.0317 12.3764 941 99.7343 575.032 495.969
272 0 78.0318 12.3924 967 101.07 574.539 494.693
273 0 79.0521 12.5993 996 100.971 574.805 493.632
274 0 83.041 13.1742 1094 100.007 575.189 491.825
275 0 86.0529 13.3058 1145 100.139 575.097 490.464
276 0 89.1002 12.9517 1154 102.183 575.277 488.687
277 0 91.0425 13.1807 1200 101.282 575.372 488.459
278 1 48.0817 10.2742 494 100.032 575.273 510.682
279 0 50.042 10.651 533 99.561 575.799 508.707
280 0 51.0253 10.9357 558 98.1487 575.163 509.573
281 0 54.0418 12.0277 650 98.8415 575.097 506.986
282 0 55.019 11.5415 635 103.455 574.876 506.767
283 0 54.0208 11.0883 599 95.0367 575.629 508.078
284 0 58.0183 11.7204 680 93.475 574.89 507.087
285 0 60.0244 12.345 741 92.7679 574.561 504.804
286 0 61.0186 11.603 708 94.5918 574.894 503.826
287 0 65.0159 12.2124 794 94.8035 574.712 501.649
288 0 68.0713 12.2812 836 95.9785 575.285 500.577
289 0 69.0364 13.1814 910 97.8231 575.397 497.675
290 0 70.0337 12.494 875 101.494 575.753 497.696
291 0 73.0853 13.0669 955 99.111 575.141 496.708
292 0 77.0342 13.3707 1030 97.5282 575.786 495.744
293 0 80.0616 13.0899 1048 97.7013 575.437 494.774
294 0 81.0323 12.9578 1050 97.6829 574.931 493.723
295 0 83.0415 13.4993 1121 97.504 574.046 490.949
296 0 86.105 12.8216 1104 97.8134 574.004 490.022
297 0 90.1198 13.4377 1211 95.0768 575.107 488.369
298 0 91.0641 13.0018 1184 96.0862 575.339 485.696
299 0 94.0713 12.852 1209 95.8892 574.963 486.313
300 0 97.0682 13.2072 1282 95.1022 574.867 484.503
301 0 100.047 13.0638 1307 95.1262 575.236 482.919
302 0 104.053 12.6282 1314 95.1887 574.766 480.963
303 0 105.105 13.377 1406 93.1842 575.342 480.539
304 0 110.117 12.9862 1430 92.8518 573.888 478.485
305 0 113.106 13.147 1487 91.9966 574.517 475.146
306 1 63.0867 10.9373 690 87.2014 575.461 504.257
307 0 67.1044 11.728 787 87.2821 575.997 503.51
308 0 68.0594 11.2402 765 86.6 576.376 501.912
309 0 70.0583 11.1907 784 85.3878 575.94 500.926
310 0 72.0356 11.6193 837 83.4767 575.967 501.139
311 0 75.0684 11.9891 900 83.0978 575.684 499.269
312 0 77.0781 11.7673 907 85.1952 575.203 497.858
313 0 79.0766 11.3814 900 85.9544 574.637 496.208
314 0 83.049 11.6919 971 85.7436 574.685 495.843
315 0 85.0419 11.0534 940 85.8223 574.961 492.929
316 0 88.0679 11.4003 1004 85.1235 575.572 491.317
317 0 91.0348 11.6988 1065 83.5869 575.479 490.078
318 0 94.0729 12.0439 1133 82.8914 574.897 489.03
319 0 97.0614 11.4361 1110 84.0721 575.464 486.711
320 0 101.097 11.9292 1206 83.67 575.089 485.572
321 0 104.055 11.6766 1215 84.0642 574.795 484.673
322 1 53.0495 10.8012 573 83.2304 574.778 510.679
323 0 54.0253 10.4396 564 82.8174 573.745 509.186
324 0 57.0654 10.9173 623 79.488 573.18 508.66
325 0 59.0867 10.4931 620 78.3645 573.564 507.539
326 0 60.0684 10.9042 655 75.3221 573.838 506.397
327 0 62.0759 10.9704 681 75.0587 573.288 505.747
328 0 63.0465 10.7222 676 74.787 573.704 506.118
329 0 67.1166 11.8749 797 73.6474 574.225 504.132
330 0 68.0832 10.9572 746 76.8311 574.157 502.631
331 0 71.195 11.8969 847 74.8111 573.44 500.948
332 0 71.0591 12.1448 863 75.5203 573.194 498.632
333 0 74.0959 11.5931 859 80.9453 573.01 496.024
334 0 77.1476 11.3808 878 81.5626 572.871 494.584
335 0 79.1165 11.4262 904 81.1493 573.501 493.737
336 0 82.1436 12.2834 1009 79.0545 573.153 491.806
337 0 86.2266 12.3048 1061 75.4807 572.375 490.747
338 0 87.1967 12.3399 1076 75.3244 573.112 488.441
339 0 88.2553 11.3874 1005 76.7483 572.214 488.11
340 0 92.1297 11.9722 1103 75.0725 572.367 488.021
341 0 94.3908 11.3147 1068 76.0225 572.148 486.444
342 0 96.1702 11.8228 1137 75.5902 571.572 484.226
343 0 101.335 12.2564 1242 74.0193 571.729 482.546
344 0 101.443 11.1392 1130 75.4035 571.769 479.739
345 0 104.277 10.8845 1135 75.9207 572.006 481.119
346 0 107.314 11.1449 1196 75.561 571.602 477.466
347 0 109.284 11.2917 1234 75.3136 571.787 476.318
348 0 114.233 10.6974 1222 75.9067 570.815 477.11
349 0 117.213 11.7223 1374 74.5422 570.982 473.704
350 0 119.343 10.4488 1247 75.5822 570.936 473.8
351 0 122.26 10.1178 1237 76.2239 571.574 469.369
352 0 128.476 10.8736 1397 74.3958 571.957 469.391
353 0 131.229 9.6701 1269 76.7746 571.411 465.647
354 0 136.122 9.86614 1343 77.519 572.135 464.132
355 0 140.183 10.7931 1513 77.3622 571.326 464.306
356 1 71.1482 10.0494 715 72.5608 571.81 501.091
357 0 74.1284 10.4413 774 71.9754 572.915 500.819
358 0 74.0426 9.60259 711 75.2152 572.205 500.391
359 0 75.0697 10.2571 770 75.3195 571.869 497.883
360 0 77.0596 10.2258 788 75.1421 571.815 497.371
361 0 79.0616 9.39774 743 72.6878 572.533 496.75
362 0 82.0613 10.7481 882 69.9898 572.512 496.257
363 0 83.0578 9.60777 798 71.8083 572.822 495.262
364 0 87.0803 10.1975 888 71.393 572.244 493.528
365 0 88.1287 9.55421 842 72.2494 573.176 492.229
366 0 93.173 10.8615 1012 71.3389 573.428 490.813
367 0 96.0515 11.3377 1089 70.8338 573.517 489.647
368 0 98.0899 10.8472 1064 72.4727 572.966 488.699
369 0 101.097 11.9588 1209 71.3366 573.276 486.556
370 0 104.116 11.516 1199 75.7573 572.387 484.454
371 0 107.234 11.5168 1235 75.5773 571.69 482.703
372 0 110.152 11.8019 1300 75.5108 572.905 481.543
373 0 112.146 11.3959 1278 77.5563 573.066 478.752
374 0 115.124 10.9099 1256 79.0438 572.799 476.182
375 0 120.234 11.4859 1381 78.6503 573.403 473.02
376 0 124.365 11.1527 1387 80.3187 573.139 472.911
377 0 128.249 11.0332 1415 80.6163 573.51 474.42
378 0 128.241 11.0573 1418 123.699 574.525 474.553
379 0 135.365 10.8595 1470 82.2932 572.642 467.758
380 0 139.467 11.8666 1655 82.1378 572.294 466.986
381 0 142.274 10.7469 1529 85.7031 572.789 463.464
382 0 146.321 11.509 1684 84.5362 572.521 461.893
383 0 149.314 11.6868 1745 85.863 573.158 460.396
384 0 152.303 11.7989 1797 86.005 573.457 456.874
385 0 158.33 12.0886 1914 84.0172 573.135 455.019
386 0 163.314 12.4362 2031 84.5958 573.383 451.967
387 0 166.227 12.4709 2073 84.7931 573.209 449.343
388 0 169.306 11.9015 2015 86.807 573.494 448.611
389 0 174.323 12.0236 2096 86.4122 573.011 446.575
390 0 179.277 12.3942 2222 87.0464 573.334 442.905
391 0 182.333 11.6819 2130 88.8873 573.756 436.442
392 0 188.357 12.0409 2268 88.1958 573.975 435.749
393 0 193.416 11.1418 2155 89.9378 574.048 431.337
394 0 199.342 11.7236 2337 88.9042 573.575 426.572
395 0 207.371 11.9351 2475 88.1548 573.772 424.997
396 0 213.478 11.8138 2522 88.2375 573.77 423.83
397 0 222.298 12.3033 2735 87.6176 573.744 423.313
398 1 157.3 11.3668 1788 89.9832 573.725 451.581
399 0 164.245 12.1221 1991 90.7112 572.903 448.974
400 0 165.248 12.3753 2045 92.4235 573.368 444.086
