time division length width area intensity CMx CMy
0 0 58.0086 13.498 783 93.3972 1255.36 499.239
1 0 60.0395 13.9242 836 92.5778 1256.01 497.675
2 0 63.103 13.7236 866 94.47 1256.09 496.031
3 0 63.0429 13.8318 872 94.7385 1255.84 497.505
4 0 67.0628 13.8825 931 93.5961 1256.06 495.647
5 0 67.061 13.9276 934 161.625 1256.06 495.656
6 0 69.0505 13.9173 961 94.257 1255.91 494.289
7 0 70.051 14.0184 982 93.7149 1255.95 494.703
8 0 71.0408 13.3726 950 96.1968 1256.09 493.558
9 0 74.0606 14.0696 1042 93.095 1254.92 492.351
10 0 74.0606 14.0966 1044 163.239 1252.91 492.339
11 0 78.0257 13.5981 1061 93.0188 1255.01 490.436
12 0 81.1539 13.4806 1094 91.6033 1255.73 490.486
13 0 84.0551 13.7648 1157 90.5774 1255.53 487.522
14 0 86.0934 13.8454 1192 90.6435 1255.35 487.382
15 1 44.0684 12.3444 544 95.3033 1255.45 505.259
16 0 46.0273 12.6447 582 92.1048 1255.12 505.342
17 0 48.1025 11.9536 575 93.24 1254.82 504.52
18 0 48.0582 12.9426 622 91.2299 1254.99 504.399
19 0 51.0442 13.0671 667 89.1064 1254.19 504.127
20 0 52.0128 12.9391 673 89.9094 1254.27 503.202
21 0 53.05 12.8369 681 91.9633 1254.98 502.396
22 0 54.0708 13.1309 710 90.4 1255.25 502.911
23 0 56.0547 12.9338 725 90.9628 1254.39 503.596
24 0 57.059 13.3721 763 87.3394 1255.12 501.72
25 0 59.0486 13.0401 770 86.8195 1254.29 503.395
26 0 60.0458 13.2732 797 87.8043 1254.5 503.166
27 0 63.0327 12.9774 818 87.4328 1254.2 501.719
28 0 65.0273 12.9023 839 87.6698 1253.95 500.092
29 0 69.024 13.4156 926 84.9017 1254.47 498.764
30 0 70.0392 13.3639 936 86.0459 1253.71 496.541
31 0 72.0473 13.4079 966 85.5321 1253.91 495.983
32 0 75.0268 13.5152 1014 84.7712 1253.18 494.785
33 0 77.018 13.1138 1010 86.003 1254.35 493.809
34 0 80.0544 13.1411 1052 85.6065 1253.33 493.281
35 0 83.0398 13.6079 1130 85.8451 1253.89 489.855
36 1 45.0334 11.9245 537 87.7225 1253.46 509.633
37 0 45.0446 12.0547 543 87.7182 1253.32 508.492
38 0 47.0605 12.3671 582 87.2612 1252.74 507.136
39 0 45.0098 12.3529 556 81.2644 1253.61 508.592
40 0 45.0347 12.9234 582 80.6667 1252.88 507.447
41 0 48.0143 12.4963 600 79.08 1253.24 507.17
42 0 48.0143 12.5587 603 131.494 1253.25 507.201
43 0 52.0598 12.6009 656 77.6357 1253.3 505.599
44 0 53.0441 12.5367 665 78.3654 1254.02 504.844
45 0 56.0347 12.7421 714 77.3824 1253.96 503.57
46 0 56.0475 12.0969 678 79.9307 1254.43 503.13
47 0 57.0794 12.1935 696 81.1494 1253.4 501.501
48 0 61.1632 12.3604 756 80.8122 1253.81 501.127
49 0 61.0489 12.5473 766 82.9713 1253.31 499.064
50 0 64.0328 13.212 846 81.8452 1254.29 498.293
51 0 65.0606 12.3116 801 83.4806 1253.34 497.377
52 0 68.0351 12.7728 869 82.6041 1253.04 497.163
53 0 70.0459 13.0914 917 82.0404 1253.07 495.55
54 0 73.061 12.7701 933 81.7996 1253.62 494.896
55 0 74.0518 12.9504 959 81.7143 1254.23 494.921
56 0 79.0385 12.7153 1005 80.6607 1254.99 494.234
57 0 80.0499 12.1799 975 82.7477 1254.58 492.8
58 0 82.0451 11.9568 981 93.105 1254.24 491.789
59 1 42.0352 11.99 504 80.9365 1253.71 511.101
60 0 44.0514 12.213 538 81.3643 1254.62 509.223
61 0 46.0084 12.4977 575 87.0104 1254.81 509.445
62 0 43.0504 12.1718 524 78.9198 1253.92 510.792
63 0 45.0212 12.5941 567 78.3545 1253.08 510.014
64 0 46.034 10.8181 498 81.7048 1254.05 510.394
65 0 48.0252 12.077 580 79.6138 1254.24 508.034
66 0 48.0252 12.0353 578 134.756 1254.2 508.085
67 0 51.0317 11.9534 610 80.341 1254.14 506.93
68 0 51.0135 12.3301 629 79.1304 1254.42 506
69 0 54.0178 11.7924 637 79.6248 1255.3 505.928
70 0 57.0375 11.9045 679 79.0574 1255.41 504.353
71 0 57.0514 12.1645 694 79.1081 1255.39 504.594
72 0 61.0265 12.0603 736 78.9158 1254.89 502.046
73 0 61.0596 11.6771 713 80.1136 1254.55 501.881
74 0 64.0734 12.0175 770 79.8571 1255.28 500.353
75 0 68.0399 12.6837 863 79.299 1255.5 499.196
76 0 71.0424 12.4714 886 79.2111 1254.69 497.731
77 0 73.0278 12.6801 926 80.7549 1255.23 495.905
78 0 75.0641 12.5093 939 81.1395 1255.4 495.986
79 0 77.1688 12.4921 964 81.9886 1255.99 494.563
80 0 79.0636 12.3571 977 82.4841 1255.69 491.941
81 1 38.0098 10.7341 408 86.7353 1256.36 512.551
82 0 39.0826 11.1047 434 86.682 1255.44 511.689
83 0 44.0421 11.1257 490 83.0612 1255.92 511.057
84 0 44.0269 12.1289 534 81.5487 1255.6 510.449
85 0 46.0146 13.1697 606 78.1419 1255.14 510.058
86 0 47.0929 12.2736 578 78.9654 1255.15 510.047
87 0 47.0426 12.5206 589 79.6282 1255.07 508.345
88 0 49.0437 13.2739 651 76.6129 1255.45 506.465
89 0 50.0737 12.6214 632 77.3212 1255.78 507.396
90 0 53.0773 13.3767 710 75.7746 1255.77 505.43
91 0 52.0344 12.1842 634 78.9132 1255.13 506.426
92 0 54.0412 12.5645 679 78.3225 1256.02 505.502
93 0 53.0256 11.485 609 81.3793 1255.79 505.366
94 0 55.0539 11.6795 643 80.4588 1255.55 503.689
95 0 57.0805 11.878 678 78.9956 1254.83 502.63
96 0 60.0725 12.3018 739 77.7632 1254.26 501.664
97 0 62.1278 11.75 730 77.7699 1253.75 501.47
98 0 63.0512 11.4669 723 78.7662 1254.46 499.414
99 0 65.0247 11.411 742 78.4164 1254.99 499.205
100 0 69.055 11.9325 824 78.0813 1254 497.046
101 0 70.094 11.7842 826 79.3099 1255.25 496.317
102 0 73.0758 11.9054 870 78.9506 1254.46 496.259
103 0 75.052 11.1656 838 82.1909 1255.34 492.521
104 1 41.0155 11.1665 458 81.3166 1255.26 511.175
105 0 44.0218 11.9032 524 80.5344 1255.97 509.74
106 0 44.0218 11.9486 526 145.92 1255.95 509.696
107 0 42.0321 10.7299 451 81.5964 1254.65 511.545
108 0 43.039 11.6406 501 80.1397 1254.03 508.87
109 0 43.0503 11.2891 486 81.3909 1254.65 509.276
110 0 47.1136 11.1645 526 80.9563 1255.13 508.452
111 0 46.1018 11.6915 539 80.4731 1255.02 506.03
112 0 49.0912 11.1629 548 80.1569 1255.15 507.549
113 0 51.161 11.3954 583 80.012 1255.49 506.202
114 0 52.1085 11.8215 616 78.5065 1254.95 505.218
115 0 53.144 11.2713 599 80.1987 1254.3 504.803
116 0 56.1268 11.9729 672 77.4211 1254.26 505.342
117 0 57.123 12.2893 702 77.4274 1253.6 502.944
118 0 59.066 12.2236 722 78.3393 1254.41 501.902
119 0 60.0928 12.4474 748 78.2326 1253.81 500.63
120 0 62.0819 12.4513 773 79.1358 1254.69 500.316
121 0 64.0911 12.1546 779 79.5186 1254.77 499.416
122 0 66.0743 12.153 803 80.5268 1254.71 498.668
123 0 67.0715 12.4494 835 80.9198 1254.8 496.348
124 0 69.0621 12.1919 842 81.8979 1255.16 496.394
125 0 72.0602 12.5589 905 80.4387 1254.73 495.786
126 0 76.0635 12.4107 944 80.4025 1254.69 494.416
127 0 77.0556 11.7577 906 82.4117 1255.02 491.173
128 1 40.029 11.2918 452 85.0243 1254.41 508.504
129 0 45.0865 11.7774 531 81.8531 1254.31 508.663
130 0 45.0131 12.3964 558 80.5394 1254.96 507.909
131 0 42.0684 11.7903 496 79.2702 1254.77 508.339
132 0 44.0315 12.0368 530 77.9774 1255.05 509.998
133 0 45.0244 11.305 509 79.9627 1254.5 508.888
134 0 46.0253 11.5589 532 79.5132 1254.77 509.412
135 0 48.05 11.717 563 79.5932 1254.69 507.664
136 0 49.0738 11.3299 556 80.6151 1254.92 506.888
137 0 51.0586 11.6337 594 80.2407 1254.43 506.993
138 0 52.0835 11.808 615 81.1268 1254.63 505.938
139 0 55.1052 11.8319 652 80.2331 1254.37 504.552
140 0 57.0934 12.2256 698 79.3037 1254.5 504.943
141 0 59.0229 12.1309 716 79.7849 1254.59 504.455
142 0 59.0799 12.153 718 81.3677 1255.14 502.061
143 0 62.0328 12.5418 778 80.6234 1254.07 500.81
144 0 64.1247 12.7096 815 80.638 1253.74 498.848
145 0 67.0469 12.6031 845 80.3929 1253.76 499.198
146 0 69.073 13.1745 910 79.5 1254.35 497.398
147 0 73.064 13.1392 960 78.7802 1254.1 496.226
148 0 74.0545 13.2875 984 80.0539 1254.13 493.812
149 0 76.0504 13.1755 1002 80.6437 1254.52 491.963
150 0 79.0382 12.5003 988 82.7601 1253.98 491.285
151 0 81.0339 12.4146 1006 83.6292 1253.84 490.496
152 0 85.0518 12.4042 1055 83.8701 1253.51 488.98
153 1 44.0301 10.3565 456 85.7873 1253.72 507.575
154 0 45.0163 12.2622 552 82.7989 1253.22 507.668
155 0 47.0406 12.2447 576 83.6128 1252.48 506.413
156 0 48.0717 13.2302 636 81.9009 1253.32 506.626
157 0 47.0093 12.0615 567 78.0952 1252.98 508.423
158 0 49.0421 12.5199 614 79.3192 1253.76 508.163
159 0 49.0841 12.7129 624 80.9519 1254.07 506.196
160 0 50.1025 11.9555 599 82.621 1254.43 507.219
161 0 53.109 12.8415 682 79.9648 1253.58 505.182
162 0 54.0694 12.3175 666 82.3258 1253.2 504.854
163 0 55.0432 12.2086 672 82.6756 1253.41 504.504
164 0 57.101 12.4691 712 82.3652 1253.48 503.499
165 0 60.0526 12.9886 780 81.2115 1253.29 502.246
166 0 61.0905 12.3423 754 84.2003 1253.41 500.284
167 0 64.1339 12.5207 803 84.2279 1253.5 498.771
168 0 66.0918 12.5583 830 84.3735 1254.15 497.86
169 0 70.0706 13.2152 926 82.8607 1254.01 497.523
170 0 71.0937 13.5174 961 84.6535 1254.32 496.869
171 0 73.1131 13.5817 993 85.0403 1254.02 495.912
172 0 75.0584 13.6827 1027 85.9873 1253.18 493.764
173 0 77.055 13.5228 1042 88.0086 1252.67 492.486
174 0 80.0719 13.388 1072 89.0326 1252.72 491.222
175 0 83.0925 13.7076 1139 88.6295 1252.96 490.413
176 0 84.0904 13.9136 1170 89.6419 1253.76 490.207
177 0 89.1164 14.1949 1265 89.6182 1253.61 489.234
178 0 91.0777 13.4281 1223 88.2772 1253.68 486.368
179 1 49.0737 11.9412 586 88.3993 1253.68 507.481
180 0 50.1028 12.9534 649 85.0277 1252.69 506.263
181 0 54.0546 12.5984 681 85.0793 1252.58 505.482
182 0 54.066 12.2813 664 82.9157 1252.06 505.872
183 0 54.0415 12.3424 667 83.3643 1253.14 505.403
184 0 56.0374 12.3132 690 83.513 1253.99 503.138
185 0 58.0726 12.8977 749 80.9199 1253.84 503.478
186 0 62.0359 12.8796 799 81.816 1254.09 502.031
187 0 65.0309 13.3014 865 81.0775 1254.11 500.909
188 0 67.085 12.596 845 86.2024 1254.2 498.306
189 0 68.0476 13.4906 918 82.4118 1253.92 497.391
190 0 69.1234 13.3963 926 82.9006 1253.31 495.363
191 0 72.0392 13.2011 951 82.6204 1253.22 494.25
192 0 75.1149 13.486 1013 81.9092 1252.7 494.762
193 0 78.0593 13.0542 1019 82.8999 1253.56 493.658
194 0 79.0842 13.8207 1093 84.1574 1253.34 492.278
195 0 81.1227 12.7954 1038 89.2187 1253.73 490.395
196 0 85.0474 13.5572 1153 87.2741 1253.25 488.536
197 0 89.1811 13.0633 1165 87.1588 1253.38 486.813
198 0 92.0614 13.491 1242 85.7987 1253.35 485.551
199 0 94.1566 13.297 1252 86.4089 1252.61 483.089
200 0 95.0982 13.5123 1285 86.7479 1252.28 482.789
201 1 51.0814 11.3349 579 83.6028 1252.44 505.549
202 0 51.0814 11.4132 583 154.322 1252.43 505.482
203 0 53.1031 12.1462 645 102.341 1252.83 503.659
204 0 55.0695 12.911 711 103.751 1252.47 502.799
205 0 57.0057 12.8584 733 107.266 1251.94 501.66
206 0 59.0464 12.2277 722 107.323 1252.71 501.429
207 0 61.0262 13.0764 798 103.454 1251.43 501.58
208 0 62.0236 13.7851 855 101.294 1251.41 499.885
209 0 63.0298 13.1525 829 103.685 1251.1 498.457
210 0 65.0121 13.3821 870 101.759 1251.84 498.191
211 0 69.0328 13.6602 943 99.7625 1251.82 497.068
212 0 70.0294 13.223 926 103.359 1252.03 496.891
213 0 71.0628 13.5092 960 103.864 1252.78 495.867
214 0 75.0079 13.6652 1025 102.188 1252.58 493.987
215 0 75.0321 13.5675 1018 102.966 1252.58 493.818
216 0 77.0513 13.5235 1042 104.334 1252.45 490.788
217 0 81.0515 13.2138 1071 104.067 1251.99 490.33
218 0 81.0788 13.5177 1096 103.581 1252.03 488.918
219 0 86.045 13.4232 1155 103.055 1251.85 487.938
220 0 88.022 13.4853 1187 103.774 1252.41 486.63
221 0 89.0699 13.3827 1192 104.961 1252.63 485.201
222 0 92.0421 13.4504 1238 105.41 1252.47 484.456
223 0 96.1027 13.8914 1335 102.708 1252.85 482.051
224 0 97.0685 13.2381 1285 104.385 1252.27 479.313
225 0 100.067 13.2411 1325 104.435 1252 478.189
226 0 103.108 12.8991 1330 105.611 1251.26 474.813
227 0 104.061 13.3575 1390 105.299 1252.01 473.894
228 1 56.0364 10.1184 567 98.4021 1251.27 501.515
229 0 57.0726 11.1087 634 94.7066 1251.97 499.322
230 0 60.0506 11.9233 716 92.831 1251.67 497.821
231 0 63.1503 12.1298 766 93.7206 1251.72 497.648
232 0 65.1175 12.5158 815 90.0736 1252.57 497.904
233 0 66.0907 11.6053 767 92.5085 1252.01 496.84
234 0 69.0828 12.0725 834 91.3022 1252.07 494.869
235 0 70.0815 12.5711 881 92.0148 1252.27 493.208
236 0 75.0672 12.309 924 103.566 1251.63 492.722
237 0 76.1063 12.1935 928 105.653 1251.95 490.659
238 0 80.1341 12.6663 1015 103.424 1251.21 490.201
239 0 83.1195 12.6685 1053 103.83 1251.86 488.656
240 0 84.1525 12.4298 1046 106.2 1252.03 485.919
241 0 89.1915 12.86 1147 104.391 1252.66 486.792
242 0 89.1613 12.5391 1118 106.544 1252.25 485.203
243 0 93.1596 12.7416 1187 105.917 1251.78 484.201
244 0 97.1621 12.9577 1259 104.973 1251.85 483.532
245 0 98.1692 12.6312 1240 107.011 1252.1 481.914
246 0 103.159 12.8927 1330 104.95 1252.32 480.368
247 0 106.144 12.3135 1307 105.065 1251.77 479.178
248 1 55.086 11.4911 633 93.9336 1251.95 504.885
249 0 54.039 11.9358 645 95.186 1251.58 502.326
250 0 54.0733 11.2255 607 87.2619 1251.75 505.18
251 0 57.0435 10.8163 617 87.5673 1251.11 504.1
252 0 56.05 10.7047 600 88.9783 1251.78 503.623
253 0 60.1237 10.7445 646 89.2802 1252.2 501.443
254 0 61.0483 11.1223 679 88.6303 1252.89 500.614
255 0 61.1196 11.2893 690 89.8174 1251.81 500.949
256 0 65.1506 11.1895 729 90.8697 1252.37 499.811
257 0 66.0227 11.5869 765 91.8745 1252.37 498.868
258 0 68.0603 12.0041 817 91.2203 1251.88 497.64
259 0 70.043 12.0926 847 91.9374 1251.93 495.599
260 0 71.0477 11.3586 807 94.5564 1252.05 494.682
261 0 76.0407 11.8752 903 95.1429 1251.74 493.406
262 0 76.09 11.4207 869 97.9494 1251.15 492.926
263 0 79.0226 12.275 970 98.1711 1251.63 490.36
264 0 82.0489 11.8222 970 100.179 1251.3 489.794
265 0 83.0453 12.0055 997 100.37 1251.17 489.008
266 0 87.0229 12.3416 1074 100.659 1252.28 486.788
267 0 90.0536 11.4265 1029 102.679 1251.65 485.753
268 0 93.0811 12.0647 1123 101.754 1252.11 485.671
269 0 94.0841 12.1806 1146 102.243 1252.1 483.475
270 0 97.0693 12.4241 1206 102.336 1251.96 481.896
271 1 53.0272 10.9378 580 102.688 1252.01 505.579
272 0 56.0309 11.8328 663 101.25 1251.44 503.792
273 0 55.0452 12.5533 691 100.59 1251.99 503.122
274 0 57.0312 12.6773 723 99.9862 1252.51 501.946
275 0 55.0424 11.155 614 93.9463 1252.22 504.024
276 0 58.0371 11.3204 657 94.4384 1252.58 502.738
277 0 59.0795 11.5607 683 93.4348 1252.74 503.032
278 0 59.0632 11.3946 673 96.1367 1252.41 501.337
279 0 62.0365 10.9452 679 97.4904 1253.15 500.473
280 0 64.0372 10.978 703 99.6458 1252.6 499.172
281 0 66.0326 11.5095 760 98.2158 1252.43 497.554
282 0 69.0823 12.087 835 96.7545 1252.28 497.212
283 0 71.0448 11.5702 822 97.826 1252.71 496.724
284 0 74.041 11.5477 855 98.1895 1251.72 496.101
285 0 77.1318 12.148 937 98.1238 1251.51 493.175
286 0 77.0662 11.0035 848 100.248 1251.82 493.278
287 0 81.0466 11.3762 922 97.5033 1251.67 491.884
288 1 45.0173 10.4182 469 97.597 1252.4 507.928
289 0 47.0756 11.0036 518 96.1371 1252.62 506.697
290 0 47.0197 11.1017 522 96.1073 1252.96 506.764
291 0 49.0067 11.5699 567 95.351 1251.77 505.614
292 0 50.0142 11.2768 564 91.1649 1252.83 505.261
293 0 47.0621 11.3042 532 93.1071 1252.52 505.485
294 0 49.0385 10.4408 512 94.1309 1251.99 504.842
295 0 50.022 11.295 565 92.8531 1251.11 504.242
296 0 52.0576 10.8149 563 93.1084 1251.15 503.053
297 0 52.0346 10.7621 560 93.8607 1252.39 503.589
298 0 52.0497 10.2402 533 94.3039 1252.5 502.983
299 0 54.0267 10.6799 577 93.513 1252.28 502.246
300 0 56.052 10.9363 613 92.4633 1252.06 502.418
301 0 57.025 10.0658 574 94.4756 1252.55 501.7
302 0 58.0362 10.1661 590 94.5678 1252.21 500.651
303 0 61.0166 10.7676 657 93.2831 1252.69 500.798
304 0 62.0185 10.4807 650 94.1892 1251.44 499.005
305 0 63.0388 9.93039 626 95.1901 1252.01 500.187
306 0 64.0391 10.4155 667 94.7586 1251.99 497.291
307 0 67.0371 11.0834 743 93.2153 1252.34 497.249
308 0 69.0691 11.0904 766 93.1971 1252.63 496.546
309 0 73.0632 11.2368 821 90.8246 1252.09 496.206
310 0 79.054 13.0797 1034 83.9545 1252.12 495.445
311 0 79.054 12.7255 1006 86.0577 1251.85 494.859
312 0 80.06 12.1909 976 89.1977 1251.34 494.06
313 0 85.0964 12.3389 1050 88.1448 1250.91 492.341
314 0 88.1277 12.5386 1105 89.4941 1251.06 489.923
315 0 91.0664 13.3968 1220 87.7107 1251.22 488.181
316 0 93.0601 12.8304 1194 87.1106 1251.86 488.9
317 0 96.04 13.3486 1282 85.4087 1251.98 488.693
318 1 51.0217 11.6421 594 89.9226 1251.62 509.182
319 0 52.0477 12.0658 628 88.535 1252.23 508.334
320 0 54.0911 12.7747 691 85.9161 1251.66 507.185
321 0 56.0355 13.0632 732 84.2787 1251.07 507.184
322 0 55.0444 12.1538 669 83.8849 1251.4 506.665
323 0 56.0262 12.4406 697 77.4003 1250.08 506.989
324 0 58.0453 12.1285 704 78.4318 1250 506.651
325 0 59.023 11.8598 700 79.6343 1250.9 506.2
326 0 62.101 12.4475 773 77.674 1251.46 504.435
327 0 62.033 12.1387 753 79.8845 1250.88 504.947
328 0 65.0199 11.3658 739 81.2544 1251.39 504.583
329 0 66.0856 12.1812 805 79.9578 1251.2 504.117
330 0 68.0179 12.7613 868 80.129 1250.96 502.738
331 0 70.067 12.9305 906 80.3543 1250.35 502.125
332 0 72.03 13.2306 953 80.298 1250.22 501.125
333 0 75.0398 12.66 950 82.5063 1249.92 499.322
334 0 77.019 12.6073 971 84.4912 1249.88 497.396
335 0 79.1119 12.7035 1005 84.1323 1250.33 496.786
336 0 82.0838 12.402 1018 85.2554 1250.01 494.322
337 0 84.0339 12.495 1050 83.9533 1249.69 493.341
338 0 87.0435 12.7637 1111 84.4599 1250.17 491.97
339 0 90.051 12.8927 1161 82.3135 1249.35 489.57
340 0 93.0203 12.7929 1190 83.3345 1249.34 487.032
341 1 50.0325 11.5525 578 85.0623 1248.55 509.349
342 0 51.0935 11.5866 592 86.3209 1248.1 508.747
343 0 52.0441 12.7776 665 81.4436 1248.48 508.66
344 0 53.0753 11.7757 625 72.9616 1248.88 508.566
345 0 54.0334 12.0296 650 73.3846 1249.34 506.995
346 0 55.0968 12.8682 709 72.2285 1248.93 505.796
347 0 57.0911 12.2436 699 72.937 1249.14 506.215
348 0 59.0512 13.2258 781 71.6914 1248 504.561
349 0 60.0792 12.4169 746 73.3834 1248.2 504.744
350 0 62.0448 12.2331 759 73.8485 1248.04 504.47
351 0 64.0348 12.665 811 74.1048 1248.68 502.901
352 0 67.1112 13.0381 875 74.6571 1249 500.818
353 0 69.0401 12.4131 857 77.182 1248.48 499.358
354 0 70.0302 12.8088 897 77.8161 1249.36 499.081
355 0 72.0642 12.8635 927 78.7778 1248.51 497.261
356 0 75.0299 13.2081 991 79.9082 1248.86 495.715
357 0 77.0748 13.9086 1072 83.8974 1249.94 496.116
358 0 80.0603 13.4524 1077 86.1885 1249.1 493.274
359 0 82.1278 13.686 1124 86.742 1248.71 493.741
360 0 85.0814 13.6693 1163 88.1642 1248.57 492.847
361 0 86.1014 12.9266 1113 91.3082 1249.41 490.109
362 0 89.1324 13.7885 1229 89.3133 1249.21 487.245
363 0 91.1674 12.8884 1175 91.9217 1249.47 487.461
364 0 95.1406 13.0333 1240 92.1597 1248.74 485.264
365 0 99.267 13.0356 1294 91.6267 1249.65 484.003
366 0 100.17 12.8682 1289 93.6439 1249.84 481.847
367 1 54.0832 10.5763 572 87.8059 1249.45 507.086
368 0 55.0621 11.2418 619 86.4006 1249.1 506.942
369 0 56.0568 11.2564 631 85.4802 1249.46 506.461
370 0 59.065 12.3931 732 84.4413 1249.02 503.35
371 0 60.0448 11.4581 688 87.8837 1248.36 501.747
372 0 61.0744 11.5433 705 86.3929 1249.76 501.562
373 0 62.0112 11.4818 712 88.2444 1249.97 501.546
374 0 65.0711 12.2942 800 86.175 1249.57 502.212
375 0 67.0453 12.3797 830 90.259 1250.2 499.148
376 0 72.0166 12.8998 929 89.4155 1249.63 497.943
377 0 73.0487 12.6491 924 91.6526 1250.19 495.604
378 0 73.0487 12.567 918 132.264 1250.19 495.452
379 0 77.0579 12.3543 952 91.2185 1249.32 495.363
380 0 80.0556 13.1658 1054 91.4867 1248.87 492.953
381 0 84.0484 13.7659 1157 93.5376 1249.36 491.745
382 0 85.0498 14.0506 1195 94.9113 1249.27 489.521
383 0 89.0464 14.1612 1261 93.958 1250.08 488.921
384 0 90.0841 14.1756 1277 94.3947 1250.32 487.864
385 0 93.1023 12.8139 1193 96.9682 1250.04 485.977
386 0 96.0768 13.3435 1282 96.6069 1250.45 484.944
387 1 52.0156 10.9582 570 91.493 1250.46 506.918
388 0 55.0647 11.0597 609 90.4039 1250.72 505.545
389 0 55.0448 11.6632 642 87.257 1249.93 504.755
390 0 55.0357 11.5561 636 82.8333 1249.94 504.286
391 0 60.1232 11.6594 701 82.0214 1250.38 504.719
392 0 59.0171 12.0135 709 83.4711 1250.57 504.166
393 0 61.0421 11.3856 695 84.6849 1250.64 502.219
394 0 64.0527 12.1619 779 83.0501 1250.09 500.083
395 0 66.0225 12.6169 833 82.3097 1250.42 498.513
396 0 69.038 12.6452 873 81.0515 1250.39 498.979
397 0 70.0674 11.7601 824 84.0752 1250.49 497.585
398 0 72.0421 11.7848 849 84.9234 1250.45 497.007
399 0 75.0878 12.1591 913 84.7788 1249.64 494.818
400 0 77.0266 11.879 915 85.3803 1250.14 493.495
401 0 80.0942 12.0233 963 85.0197 1248.95 493.07
402 0 83.1182 12.1634 1011 85.8131 1249.86 490.424
403 0 84.0618 11.5986 975 87.3344 1250.72 489.086
