time division length width area intensity CMx CMy
0 0 38.0406 11.7243 446 108.513 919.251 498.614
1 0 39.025 12.146 474 105.641 919.519 498.04
2 0 38.0484 11.5905 441 104.664 919.032 499.44
3 0 38.0365 11.9622 455 105.224 919.16 498.435
4 0 39.0118 12.2014 476 103.805 919.481 497.479
5 0 42.0103 12.4255 522 100.994 920.069 498.071
6 0 43.056 11.7754 507 101.655 919.819 496.325
7 0 45.0619 12.9599 584 98.6849 920.156 496.604
8 0 48.0177 12.3288 592 98.9375 920.331 495.466
9 0 51.0825 13.1748 673 95.9807 919.718 494.423
10 0 52.0433 13.2198 688 94.9506 919.089 494.669
11 0 53.1629 13.468 716 95.4986 919.531 493.281
12 0 56.1264 13.1489 738 94.8753 919.591 493.343
13 0 56.0512 13.5947 762 96.0197 918.945 491.121
14 0 61.088 14.3727 878 98.3781 918.221 488.776
15 0 63.0713 14.4598 912 97.432 919.214 488.609
16 0 66.1039 14.6587 969 96.1176 919.006 487.003
17 0 68.0523 15.0473 1024 94.7363 918.845 485.786
18 0 71.1573 14.2923 1017 95.7827 918.783 485.929
19 0 73.1215 14.0725 1029 96.9096 918.341 485.265
20 0 72.05 14.0874 1015 98.4197 918.259 483.448
21 0 76.1059 14.5718 1109 96.0451 917.215 481.742
22 0 79.1379 13.7987 1092 97.6374 917.33 481.688
23 0 81.08 13.7149 1112 97.2023 917.526 479.403
24 0 85.0452 14.3923 1224 94.4551 917.286 476.992
25 0 87.0834 13.688 1192 96.7508 917.671 475.369
26 1 46.0665 11.5919 534 94.2809 917.461 498.408
27 0 47.0275 11.6953 550 94.6091 917.742 496.605
28 0 49.027 12.4829 612 92.1258 917.827 495.503
29 0 51.0272 13.6986 699 87.4235 917.722 495.614
30 0 53.0906 13.6371 724 88.8522 917.87 496.424
31 0 52.0263 13.3586 695 90.1683 917.25 496.212
32 0 55.0323 13.2104 727 89.8363 917.199 494.934
33 0 56.0211 13.727 769 90.0663 917.276 493.415
34 0 59.0341 13.6362 805 89.3851 917.191 492.775
35 0 61.0249 13.5682 828 90.0423 917.293 490.865
36 0 63.0707 13.0488 823 90.3196 916.875 489.947
37 0 66.0201 13.7685 909 87.8009 917.219 489.519
38 0 68.0474 13.4906 918 88.1743 917.194 487.634
39 0 71.0436 13.5973 966 88.706 917.869 486.543
40 0 72.0448 13.5888 979 89.2482 917.863 484.77
41 0 75.0436 14.1518 1062 86.4284 917.252 483.692
42 0 77.0718 13.9091 1072 87.8554 917.535 482.42
43 0 80.083 13.9231 1115 86.67 917.12 480.735
44 0 80.0424 13.6053 1089 87.7429 916.776 478.94
45 0 84.0554 13.5506 1139 87.2713 917.516 477.443
46 0 88.0511 14.1622 1247 86.1796 916.829 476.414
47 0 90.0393 13.5274 1218 87.4745 917.615 472.387
48 0 94.0841 14.4233 1357 84.8158 917.414 471.155
49 0 98.0623 13.9809 1371 85.5974 917.609 468.986
50 0 100.074 13.7499 1376 87.0342 917.717 467.302
51 0 103.069 13.6025 1402 88.9137 917.844 464.319
52 1 52.0141 11.5545 601 83.7637 917.476 492.529
53 0 53.043 12.1599 645 84.7659 917.519 489.403
54 0 57.0532 12.3919 707 82.1414 917.057 489.877
55 0 56.0568 12.5052 701 81.5835 918.073 490.944
56 0 60.0824 12.5661 755 79.8675 917.785 490.789
57 0 61.0288 12.1254 740 81.5284 918.419 490.292
58 0 62.0532 12.1025 751 82.0812 919.164 488.162
59 0 65.0837 12.5838 819 80.4725 917.829 487.899
60 0 66.1388 12.504 827 81.295 918.428 487.6
61 0 67.0328 12.3372 827 83.5139 919.204 486.55
62 0 71.0431 12.2179 868 83.9528 918.423 484.521
63 0 72.0902 12.304 887 83.9684 918.047 484.152
64 0 74.1307 12.4105 920 84.6196 917.902 481.501
65 0 75.0807 12.107 909 86.4719 918.881 480.904
66 0 79.0841 12.8218 1014 84.355 918.835 477.114
67 0 79.1017 12.1236 959 88.0282 918.499 476.127
68 0 80.0705 11.2026 897 90.0524 918.389 474.161
69 0 82.0941 11.4625 941 89.7821 918.834 469.427
70 0 83.0504 10.5117 873 92.0424 918.978 470.007
71 0 87.09 11.4479 997 89.6389 919.415 467.3
72 1 39.0156 9.81659 383 85.7598 918.948 491.914
73 0 40.0868 10.7267 430 81.0605 918.691 491.107
74 0 44.0485 10.9425 482 79.1826 918.122 491.342
75 0 47.0635 10.4327 491 75.558 918.607 497.033
76 0 48.0084 11.0397 530 73.9019 917.872 495.991
77 0 48.0741 9.65176 464 75.4224 918.239 495.759
78 0 52.0709 10.0632 524 74.0229 918.464 495.62
79 0 53.025 10.3913 551 73.5989 918.209 493.466
80 0 53.0264 10.7871 572 73.8287 918.934 493.22
81 0 56.0604 10.9346 613 74.1207 918.685 491.832
82 0 60.076 11.2524 676 73.5858 918.645 490.095
83 0 61.0298 10.8472 662 74.3429 918.221 489.511
84 0 63.0743 11.0822 699 74.3147 918.585 486.485
85 0 66.0572 11.263 744 74.1344 918.356 487.325
86 0 67.0629 11.3326 760 73.8934 918.632 486.136
87 0 72.0685 12.3494 890 72.3573 919.207 484.925
88 0 74.0585 11.3964 844 73.2405 919.082 484.963
89 0 76.0511 12.2155 929 74.2207 918.329 482.622
90 0 80.0301 12.9451 1036 72.4566 918.814 482.39
91 0 81.095 12.9354 1049 76.6273 918.435 479.333
92 0 85.0786 13.1055 1115 75.991 918.657 479.826
93 0 88.0539 13.7302 1209 75.9818 918.47 477.891
94 0 88.0323 12.9725 1142 79.4588 918.863 474.832
95 0 94.0597 13.1831 1240 79.3089 918.631 472.577
96 0 97.0881 12.9367 1256 79.0987 918.697 472.303
97 0 100.025 13.4566 1346 78.0394 918.169 471.932
98 0 104.062 13.3478 1389 78.9446 918.484 469.402
99 1 55.0661 11.8948 655 73.1053 917.892 494.476
100 0 56.0195 11.1925 627 75.0941 918.188 494.724
101 0 58.0527 11.8341 687 77.0233 918.217 491.045
102 0 58.0537 11.6099 674 76.1855 918.079 491.684
103 0 60.058 13.1706 791 96.5411 918.19 430.334
104 0 64.0221 11.824 757 77.5945 918.535 491.124
105 0 65.0564 11.4055 742 79.2062 918.836 489.497
106 0 67.1032 11.8772 797 79.6801 918.453 488.448
107 0 67.09 11.0598 742 83.4865 918.528 486.476
108 0 69.04 10.9791 758 85.6768 918.615 482.063
109 0 72.0455 10.8404 781 86.6261 918.255 482.303
110 0 75.0168 12.064 905 84.7657 918.491 483.619
111 0 79.0368 12.4878 987 84.2837 917.923 482.347
112 0 81.0399 12.7715 1035 84.2213 918.741 481.673
113 0 85.1056 12.3376 1050 85.5905 918.547 481.333
114 0 86.1346 11.9696 1031 87.937 918.834 480.1
115 0 89.1027 12.7606 1137 87.4494 918.106 477.485
116 0 89.0522 11.7908 1050 91.3829 918.803 475.533
117 0 93.0687 12.5284 1166 89.1792 918.86 475.418
118 0 97.0652 12.1465 1179 90.8507 918.586 473.287
119 0 100.067 11.5622 1157 93.5799 918.354 469.316
120 0 106.066 13.7178 1455 86.1457 917.693 468.914
121 0 108.146 12.3075 1331 89.882 917.415 466.953
122 1 60.064 11.4877 690 88.7913 917.532 490.036
123 0 64.0285 12.0103 769 87.3628 918.566 489.592
124 0 65.0279 12.3793 805 87.1615 919.525 488.873
125 0 65.0279 12.3485 803 145.908 919.524 488.849
126 0 66.0662 10.7922 713 76.467 918.935 489.941
127 0 68.1234 11.67 795 76.4679 918.745 487.615
128 0 71.1123 12.1076 861 76.2172 918.452 486.367
129 0 73.0696 11.4411 836 76.9378 918.24 486.39
130 0 76.0486 11.8871 904 76.8673 917.773 483.749
131 0 78.1345 11.685 913 77.4042 917.687 483.297
132 0 79.088 11.4177 903 77.9745 918.038 481.299
133 0 82.0672 12.6969 1042 76.5931 918.278 479.583
134 0 84.0624 11.9316 1003 78.9651 918.366 480.653
135 0 88.0682 11.9566 1053 79.6961 918.51 479.077
136 0 91.1051 12.502 1139 80.1501 918.715 476.831
137 0 92.0695 11.7846 1085 83.1834 918.121 475.344
138 0 96.0636 12.9393 1243 81.6959 917.678 473.227
139 0 98.094 12.172 1194 83.6834 917.369 471.088
140 0 100.037 12.4654 1247 83.4427 916.882 470.826
141 0 107.059 12.7406 1364 86.7133 917.119 468.831
142 0 111.081 11.9912 1332 87.036 917.276 464.63
143 1 56.0064 10.7309 601 80.4692 917.521 492.661
144 0 58.0598 10.6959 621 78.314 917.575 493.214
145 0 59.0296 11.4688 677 75.0547 917.326 493.644
146 0 62.058 12.0371 747 76.3601 917.442 490.538
147 0 62.0159 10.4489 648 73.2407 917.194 492.843
148 0 64.0366 10.7126 686 72.9373 917.535 491.996
149 0 65.0561 10.6831 695 74.1799 917.586 488.16
150 0 70.0817 11.4152 800 73.2762 918.162 488.135
151 0 71.1967 10.9556 780 74.6936 917.458 485.332
152 0 74.1183 11.5761 858 74.4359 917.46 484.997
153 0 76.0354 11.3237 861 75.9512 917.597 483.918
154 0 80.0865 12.3991 993 75.3726 917.681 482.355
155 0 81.0641 11.9412 968 76.4339 917.867 481.353
156 0 85.1445 12.1441 1034 76.2176 917.934 479.556
157 0 88.1059 11.838 1043 77.5034 917.853 478.639
158 0 89.0499 11.8473 1055 80.1365 917.118 477.742
159 0 92.0414 12.5487 1155 75.6779 917.399 476.038
160 0 95.1315 12.3829 1178 77.8124 917.829 473.087
161 0 98.081 12.2348 1200 79.0267 917.633 471.895
162 0 100.132 12.084 1210 81.3 917.307 470.43
163 0 104.044 12.7157 1323 80.5094 917.735 469.073
164 0 108.047 12.6705 1369 78.7195 917.694 466.807
165 0 112.049 12.798 1434 79.3173 917.576 464.045
166 0 114.061 12.3881 1413 80.6469 917.228 460.71
167 0 118.094 12.4393 1469 80.4963 917.351 460.83
168 1 61.0311 10.1588 620 75.3161 917.634 491.576
169 0 65.0751 11.7249 763 79.0944 918.181 489.309
170 0 65.0306 11.2562 732 80.9727 917.821 488.391
171 0 67.0467 11.3055 758 74.9195 918.272 487.797
172 0 67.0467 11.3205 759 120.502 919.249 487.883
173 0 71.0653 11.4261 812 75.9507 917.945 483.502
174 0 72.0413 11.4795 827 75.8416 918.03 483.403
175 0 78.0301 11.5084 898 75.1013 917.296 483.445
176 0 81.0769 12.5066 1014 73.2357 917.153 482.223
177 0 84.0428 12.1248 1019 74.8106 917.302 479.786
178 0 85.0655 12.0731 1027 75.9601 917.523 478.514
179 0 88.0423 12.0624 1062 77.2486 917.747 476.37
180 0 90.0602 12.6804 1142 76.5937 918.361 476.49
181 0 94.058 12.2265 1150 83.3826 918.509 473.476
182 0 98.119 11.8835 1166 81.6827 917.604 470.97
183 0 103.064 12.3321 1271 79.4736 918.327 470.82
184 0 105.064 11.612 1220 80.677 917.613 466.638
185 0 109.12 11.9868 1308 79.5787 918.035 465.84
186 1 55.1015 10.6712 588 72.2194 917.755 493.539
187 0 58.1489 11.2642 655 71.6107 917.968 492.232
188 0 58.0486 10.9736 637 75.8022 918.575 490.714
189 0 60.0737 11.7356 705 73.5135 919.113 489.044
190 0 59.0291 10.3678 612 71.2876 918.157 491.221
191 0 64.0258 10.4333 668 71.4835 917.918 490.501
192 0 63.0299 10.027 632 72.8687 917.225 490.032
193 0 66.0126 10.3314 682 72.9809 916.743 487.652
194 0 67.0312 10.2937 690 73.1536 916.809 485.554
195 0 70.0543 9.9637 698 73.2722 916.99 485.507
196 0 72.0169 10.7891 777 72.4427 916.705 483.409
197 0 76.0208 10.5892 805 72.2596 916.639 483.102
198 0 78.0909 9.98836 780 73.3692 917.446 482.453
199 0 80.0454 9.96935 798 73.4123 917.302 481.763
200 0 85.0771 10.4023 885 72.0825 917.417 478.201
201 0 86.0691 10.2824 885 73.2565 917.059 477.828
202 0 89.0407 10.3211 919 91.9238 916.612 475.789
203 0 93.0684 10.5836 985 90.0741 916.547 473.631
204 1 48.0523 8.92777 429 88.7669 916.709 496.338
205 0 52.0309 10.2439 533 85.5591 916.426 495.407
206 0 52.0204 10.2652 534 87.1348 917.257 494.787
207 0 49.0755 8.53787 419 88.6468 916.382 496.714
208 0 52.0238 9.265 482 86.1846 916.203 495.432
209 0 52.0268 9.24523 481 108.324 916.206 495.844
210 0 54.0163 10.1821 550 85.2782 916.278 494.062
211 0 55.0178 8.88804 489 87.8405 916.354 493.278
212 0 58.0378 9.83842 571 85.6567 917.011 491.96
213 0 60.0387 9.39393 564 84.8723 916.92 491.211
214 0 63.0177 9.06095 571 84.8932 916.602 488.194
215 0 65.0397 8.79462 572 84.4703 916.577 487.888
216 0 67.076 9.55633 641 84.2012 916.513 487.426
217 0 72.0801 9.37846 676 84.1538 917.583 487.689
218 0 72.0835 9.29478 670 113.894 919.606 487.779
219 0 78.1656 10.6441 832 83.9207 916.452 482.792
220 1 38.0652 9.72018 370 82.7865 916.538 503.059
221 0 39.0181 9.89285 386 82.6088 916.58 502.676
222 0 42.0449 10.251 431 85.0487 916.471 501.471
223 0 44.0392 10.9448 482 85.0622 916.813 499.51
224 0 45.091 11.1996 505 93.5545 916.956 498.248
225 0 41.0143 9.67954 397 89.5844 916.254 501.67
226 0 43.0075 10.5098 452 87.8739 916.27 499.706
227 0 43.0416 9.57214 412 89.0825 915.536 500.995
228 0 46.0248 10.7551 495 87.3111 916.18 499.103
229 0 47.0278 10.228 481 88.3306 916.372 499.761
230 0 46.0102 9.41096 433 89.8106 916.744 499.139
231 0 50.0077 10.3184 516 88.4283 916.622 498.105
232 0 51.029 10.2099 521 89.3244 916.597 497.653
233 0 53.0213 10.5618 560 89.3 916.829 494.945
234 0 52.013 9.32459 485 91.7155 917.06 494.07
235 0 57.0576 10.4806 598 87.4799 916.706 493.47
236 0 58.0259 10.0817 585 87.6735 917.265 493.504
237 0 59.0337 10.5025 620 85.8032 916.813 492.065
238 0 64.0243 10.496 672 82.1042 916.807 490.991
239 0 65.0259 11.1033 722 80.0277 916.109 489.496
240 0 67.1282 10.83 727 82.6685 916.803 488.989
241 0 71.0427 11.7394 834 80.8453 916.333 487.223
242 0 74.0354 11.3594 841 81.2723 916.551 485.017
243 0 77.0351 11.3974 878 81.8337 915.746 483.679
244 0 79.0456 11.1455 881 83.0329 915.918 481.51
245 0 83.0687 11.8215 982 81.0092 916.312 480.69
246 0 84.0668 10.7771 906 85.4073 916.43 478.769
247 1 44.0716 10.2787 453 88.426 916.446 499.68
248 0 43.0166 10.2984 443 89.9977 915.975 498.456
249 0 46.025 11.3634 523 88.5449 915.847 497.371
250 0 48.0317 11.43 549 87.9526 915.863 496.92
251 0 48.0049 10.9989 528 82.9811 916.517 497.256
252 0 50.0838 11.7603 589 82.5093 915.604 497.275
253 0 52.0085 11.825 615 83.3935 916.034 495.015
254 0 53.0405 11.9531 634 85.3391 915.782 496.203
255 0 54.0238 11.4024 616 87.2679 916.432 494.14
256 0 60.0592 11.5053 691 96.6339 916.091 435.156
257 0 58.0603 11.7464 682 87.4267 916.557 492.815
258 0 59.0391 12.6188 745 86.1584 917.201 492.086
259 0 61.035 12.2061 745 87.6121 916.613 489.903
260 0 64.0163 11.8095 756 88.1958 916.463 490.798
261 0 64.0343 12.384 793 89.0517 916.755 489.115
262 0 66.022 12.3292 814 90.1486 916.668 488.92
263 0 67.0211 12.5632 842 92.3444 916.659 490.647
264 0 71.0295 13.2199 939 92.0895 917.111 488.398
265 0 73.0268 12.4064 906 95.2715 916.619 487.907
266 0 74.0583 12.7332 943 95.9024 916.683 486.335
267 0 77.1302 12.2779 947 96.5216 915.653 485.283
268 0 81.0904 12.5909 1021 96.5446 915.569 484.556
269 0 83.0901 12.4082 1031 97.9952 915.129 483.595
270 0 86.1009 12.346 1063 98.4563 915.294 481.598
271 1 46.03 10.4932 483 99.9731 915.222 499.445
272 0 46.109 11.1692 515 97.7165 915.283 498.783
273 0 49.0655 11.6783 573 93.918 915.937 498.483
274 0 51.0454 12.577 642 92 916.298 497.202
275 0 49.0132 10.9562 537 84.635 915.464 499.818
276 0 50.07 11.4839 575 85.7791 915.003 500.15
277 0 52.0606 11.2561 586 86.5188 915.698 498.817
278 0 52.0393 11.4144 594 89.5505 915.931 498.557
279 0 53.0318 11.3894 604 90.5563 915.518 497.384
280 0 55.0423 11.8091 650 90.0215 915.908 496.662
281 0 55.0423 11.8091 650 155.743 916.92 496.523
282 0 58.0298 11.6492 676 91.5296 915.874 495.723
283 0 60.0481 11.574 695 94.7281 915.563 495.258
284 0 61.0209 11.7992 720 95.1569 915.693 494.762
285 0 63.0475 11.7213 739 97.2625 915.714 492.277
286 0 65.0804 12.2003 794 95.9509 916.164 491.088
287 0 66.1271 12.0979 800 97.4312 915.711 490.516
288 0 70.0314 12.4087 869 94.5915 915.395 489.421
289 0 72.0217 12.2602 883 95.2401 915.264 488.048
290 0 75.0529 12.6444 949 93.3372 915.286 487.557
291 0 76.0448 12.874 979 94.0541 915 485.659
292 0 80.0485 12.7922 1024 94.4766 915.838 483.676
293 0 83.0416 13.5836 1128 91.4947 915.894 481.862
294 0 86.0863 12.7082 1094 94.1316 916.194 480.772
295 0 88.0858 12.5673 1107 95.9946 915.547 478.277
296 1 45.0136 11.8631 534 97.5094 915.719 499.622
297 0 49.0141 12.2822 602 95.9618 915.586 499.797
298 0 50.0304 12.3725 619 100.675 916.478 497.808
299 0 52.0216 12.5909 655 100.011 916.148 498.392
300 0 50.0149 11.7965 590 93.7559 915.227 498.895
301 0 50.0395 12.2503 613 94.8532 915.192 499.918
302 0 52.0482 11.7391 611 97.4566 915.712 499.082
303 0 54.1673 12.0737 654 97.8563 916.486 497.95
304 0 54.0213 12.1989 659 99.3703 915.791 497.967
305 0 57.047 12.2881 701 98.7076 916.066 497.197
306 0 57.0836 12.3678 706 100.32 915.783 497.061
307 0 59.0843 12.6937 750 99.7187 915.332 496.639
308 0 62.0293 13.1551 816 97.3088 915.094 495.401
309 0 64.0399 13.07 837 97.8208 915.173 494.546
310 0 64.1069 12.3232 790 100.308 915.629 493.819
311 0 68.0258 13.6125 926 96.1447 915.579 493.482
312 0 69.0496 13.4541 929 97.9203 915.463 493.081
313 0 71.0199 13.4469 955 98.4618 915.735 493.448
314 0 72.0392 12.8541 926 102.34 915.462 490.68
315 0 74.0488 12.4783 924 104.181 915.5 491.201
316 0 76.0854 12.6174 960 104.712 915.746 490.596
317 0 80.0757 13.2375 1060 102.918 915.432 487.757
318 0 82.1016 13.6051 1117 104.164 915.241 487.161
319 0 83.0376 13.0905 1087 105.63 915.254 487.211
320 0 86.0915 13.625 1173 109.302 915.808 484.736
321 0 89.1168 13.9143 1240 106.654 915.745 485.344
322 0 92.1193 13.6345 1256 107.316 915.123 483.608
323 0 93.0707 14.0538 1308 107.417 915.463 482.558
324 0 98.1028 14.0975 1383 103.613 914.476 482.497
325 0 100.095 14.0366 1405 104.969 914.21 481.06
326 0 101.095 14.3726 1453 103.911 914.041 477.7
327 0 104.06 14.4916 1508 105.314 914.235 477.596
328 0 105.088 14.0263 1474 105.868 913.744 476.989
329 0 110.097 14.4418 1590 102.755 914.015 475.087
330 0 113.095 13.8202 1563 104.469 913.859 473.662
331 0 117.109 13.9358 1632 113.056 914.042 471.364
332 0 121.136 13.6458 1653 103.061 913.783 468.206
333 0 125.139 14.5358 1819 102.441 914.047 467.087
334 0 125.139 14.4959 1814 166.198 914.042 467.284
335 0 132.111 14.0034 1850 99.5746 913.365 463.055
336 0 138.18 12.7008 1755 100.825 913.268 460.7
337 0 142.21 13.4309 1910 98.2901 913.536 456.642
338 0 149.168 13.9508 2081 99.001 913.332 452.581
339 1 77.131 12.0315 928 95.0323 913.236 489.037
340 0 80.0319 12.545 1004 100.6 913.255 487.269
341 0 83.0873 13.0345 1083 99.4174 913.631 485.874
342 0 82.0479 12.383 1016 92.0148 912.806 486.363
343 0 85.1409 12.3442 1051 92.3283 911.875 484.359
344 0 88.1166 12.0182 1059 93.3551 912.542 484.878
345 0 90.1307 11.8384 1067 94.6045 911.723 483.727
346 0 92.1052 12.616 1162 92.9854 912.231 480.886
347 0 94.0695 11.8104 1111 95.0153 911.961 480.68
348 0 99.1277 11.8837 1178 94.59 911.758 479.843
349 0 101.062 12.5666 1270 93.7669 911.698 476.734
350 0 104.09 12.3163 1282 92.702 912.381 475.286
351 0 109.079 12.2939 1341 97.8113 911.874 471.634
352 0 112.136 12.0032 1346 100.053 912.052 468.495
353 0 117.113 12.9277 1514 99.253 912.108 467.688
354 1 63.088 10.3823 655 92.8489 912.055 496.36
355 0 63.086 10.1132 638 95.9937 911.911 493.846
356 0 67.0624 10.617 712 94.2163 912.261 492.976
357 0 69.0416 11.7031 808 96.2079 912.36 490.129
358 0 73.066 12.0165 878 98.2016 912.849 490.121
359 0 77.0693 12.2617 945 104.055 913.426 487.801
360 0 77.0502 12.0181 926 106.107 912.746 485.807
361 0 82.0823 13.1697 1081 102.438 912.859 484.748
362 0 83.0194 12.5031 1038 103.93 912.215 484.479
363 0 82.0188 12.1192 994 162.731 911.179 483.539
364 0 90.0321 12.6177 1136 103.878 912.907 480.118
365 0 91.1103 12.0842 1101 105.005 912.701 478.216
366 0 95.1075 12.3544 1175 102.86 912.251 477.076
367 0 99.086 12.2923 1218 103.585 912.567 475.805
368 0 100.102 12.0677 1208 103.856 912.56 474.026
369 0 105.039 11.9385 1254 103.156 913.15 472.01
370 0 108.072 11.7052 1265 105.047 913.747 469.492
371 0 111.084 11.4238 1269 105.835 913.081 468.176
372 0 115.064 11.3589 1307 107.559 912.423 465.232
373 1 64.0108 11.0606 708 94.387 912.438 493.61
374 0 65.0131 10.9516 712 95.8652 913.329 491.419
375 0 68.0373 11.5231 784 100.483 912.562 490.677
376 0 67.1084 11.5783 777 95.1377 912.66 489.911
377 0 70.202 11.7945 828 94.2198 913.039 488.795
378 0 74.0849 12.5397 929 91.6975 913.07 487.107
379 0 73.1384 11.1433 815 96.7681 913.523 487.275
380 0 76.1176 11.3115 861 96.8235 913.304 485.091
381 0 78.1735 11.5384 902 95.9823 912.992 484.345
382 0 81.1574 10.991 892 96.8419 913.483 481.372
383 0 84.2189 11.4582 965 96.2922 913.824 479.804
384 0 85.1784 11.5757 986 97.1146 913.795 480.557
385 0 87.2117 11.3173 987 97.9504 913.862 478.388
386 0 92.3423 11.5548 1067 97.7254 914.07 475.977
387 0 95.355 11.9029 1135 97.3339 914.644 471.586
388 0 98.0784 11.6743 1145 94.8472 914.816 470.483
389 0 100.232 11.9323 1196 95.0903 913.879 466.712
390 0 102.159 11.0612 1130 96.5212 913.933 465.703
391 0 104.138 10.8317 1128 97.906 913.721 461.615
392 1 52.0648 9.66105 503 95.8529 913.266 485.64
393 0 60.0447 10.3423 621 90.3607 913 490.003
394 0 63.0973 10.777 680 88.2309 913.144 488.163
395 0 64.1767 10.7983 693 90.5527 914.857 485.896
396 0 64.1436 11.0689 710 89.7845 914.728 485.396
397 0 68.1172 10.7902 735 89.5646 915.037 484.755
398 0 67.1382 11.454 769 88.394 915.077 483.328
399 0 71.1112 11.8828 845 89.0911 914.883 481.535
400 0 73.1888 11.5318 844 88.4727 915.831 480.931
401 0 74.0559 11.3968 844 88.6872 914.231 479.238
402 0 75.1412 11.7512 883 87.761 913.941 480.142
