time division length width area intensity CMx CMy
0 0 70.0433 14.2198 996 144.889 241.671 486.499
1 0 74.0774 14.1744 1050 140.967 242.07 484.431
2 0 75.0945 13.7826 1035 140.014 241.688 484.517
3 0 77.1067 14.5642 1123 136.119 241.768 484.302
4 0 80.1567 14.1847 1137 135.182 242.195 482.499
5 0 82.0747 14.6939 1206 132.255 242.766 481.896
6 0 84.0803 14.617 1229 130.996 242.535 481.19
7 0 85.0794 14.269 1214 132.237 242.952 480.819
8 0 87.095 14.1799 1235 130.811 243.123 479.331
9 0 91.149 14.6683 1337 126.911 242.51 478.77
10 0 94.1775 14.993 1412 123.57 241.787 478.365
11 0 95.0876 14.4078 1370 125.077 242.378 475.935
12 0 98.1926 14.553 1429 122.509 242.441 476.107
13 0 100.152 14.7177 1474 121.133 241.686 472.929
14 0 104.077 14.4412 1503 120.507 240.981 472.018
15 0 107.185 15.0674 1615 115.037 241.957 471.851
16 0 110.152 14.6797 1617 114.985 241.767 469.321
17 0 114.104 15.5034 1769 109.976 241.734 468.17
18 1 60.0475 12.4401 747 110.81 241.376 495.814
19 0 59.1015 12.8931 762 110.084 241.018 494.895
20 0 63.0624 13.3677 843 106.739 240.913 493.74
21 0 62.0245 12.8659 798 100.489 240.058 496.806
22 0 63.0462 13.8153 871 98.6246 240.204 496.233
23 0 66.0384 13.6739 903 97.2724 240.445 495.221
24 0 68.0273 13.0683 889 97.6243 240.211 493.985
25 0 69.1001 13.3574 923 96.8169 240.459 492.909
26 0 75.0716 13.7335 1031 93.2308 240.31 492.419
27 0 77.0704 13.3514 1029 92.9776 240.662 490.794
28 0 78.1141 13.4035 1047 92.1337 240.578 490.26
29 0 81.0646 13.4954 1094 90.7441 240.542 488.571
30 0 85.0623 13.7311 1168 89.8433 240.539 486.567
31 0 86.0483 14.0735 1211 89.673 239.926 485.545
32 0 92.0841 14.1501 1303 88.4014 239.754 483.31
33 0 93.0849 13.246 1233 90.6878 239.701 482.377
34 0 96.0914 13.7265 1319 89.1046 239.697 481.111
35 0 100.072 13.8101 1382 87.8965 239.845 477.366
36 0 103.082 13.8337 1426 86.8345 239.446 476.648
37 0 108.069 14.2502 1540 90.6766 239.708 474.411
38 0 113.136 14.2129 1608 90.2257 239.759 471.961
39 0 115.093 13.5456 1559 91.6671 240.439 470.905
40 0 120.087 14.3479 1723 89.4684 240.297 466.999
41 0 122.083 13.6301 1664 91.0054 239.734 466.795
42 0 128.117 13.7453 1761 90.54 240.128 464.09
43 0 133.044 14.1607 1884 88.4098 239.735 463.324
44 0 134.045 13.9431 1869 89.4906 239.338 459.881
45 0 140.126 14.487 2030 89.6118 240.04 457.309
46 0 144.095 13.734 1979 92.2754 239.405 454.173
47 0 151.156 14.4354 2182 88.0353 240.094 450.899
48 0 157.134 14.7581 2319 86.4381 239.878 449.763
49 0 161.088 14.6752 2364 86.7919 240.048 446.619
50 0 169.115 15.3978 2604 81.7108 240.092 443.621
51 0 173.15 15.195 2631 82.3569 240.207 440.584
52 0 180.181 15.1903 2737 83.1319 239.624 438.657
53 0 183.208 13.9623 2558 85.4996 239.81 433.274
54 0 189.137 14.434 2730 83.7308 239.385 433.468
55 1 107.05 12.8911 1380 86.3297 239.982 474.021
56 0 110.131 13.5566 1493 80.0154 239.83 470.76
57 0 113.08 14.1227 1597 79.1841 240.545 470.316
58 0 117.079 13.4012 1569 84.0166 241.092 468.598
59 0 121.064 14.1578 1714 81.8127 239.959 467.123
60 0 126.117 13.8285 1744 80.9581 240.55 465.786
61 0 127.14 13.7015 1742 81.523 241.263 463.821
62 0 132.206 13.721 1814 80.6643 240.4 460.544
63 0 138.123 13.5749 1875 80.9616 240.091 457.823
64 0 140.107 13.0186 1824 82.5943 239.999 455.992
65 0 146.115 13.7016 2002 81.4031 240.94 455.584
66 0 150.136 13.9274 2091 80.6442 240.983 453.19
67 0 155.095 13.2242 2051 83.7596 240.689 448.84
68 0 163.149 14.1772 2313 82.4185 240.601 445.035
69 1 95.1331 12.0883 1150 80.5313 241.18 482.423
70 0 99.1069 12.8346 1272 82.9387 241.733 478.013
71 0 101.117 12.6191 1276 84.6262 241.836 478.19
72 0 105.07 13.0865 1375 84.4858 241.506 473.219
73 0 111.16 13.3591 1485 82.6519 241.307 473.125
74 0 115.292 12.9584 1494 83.7316 240.778 471.767
75 0 117.188 12.4501 1459 86.8149 241.36 468.031
76 0 122.176 12.6866 1550 86.3213 240.819 464.632
77 0 126.185 13.0998 1653 86.8802 241.192 462.846
78 0 129.21 12.5532 1622 88.5536 241.422 462.599
79 0 133.344 13.034 1738 88.2117 241.343 457.33
80 0 138.366 13.5871 1880 87.9553 241.986 455.658
81 0 143.274 13.7639 1972 88.4985 241.677 452.891
82 0 148.326 14.2321 2111 87.4477 241.586 448.902
83 0 152.224 14.1437 2153 87.9698 241.209 445.052
84 0 158.358 14.1894 2247 87.2942 241.535 443.447
85 0 162.392 13.5598 2202 88.6072 241.366 441.212
86 0 169.249 13.749 2327 87.6498 241.495 437.443
87 0 174.34 13.8809 2420 87.0074 242.067 436.366
88 0 179.348 13.9561 2503 85.6512 241.738 434.781
89 0 185.321 13.4415 2491 87.1614 241.002 430.784
90 0 192.333 13.7938 2653 86.3151 241.582 424.164
91 0 200.284 13.381 2680 86.4388 241.054 424.569
92 0 206.382 13.9402 2877 85.3073 241.192 423.544
93 0 213.394 13.9976 2987 85.2842 241.158 417.014
94 0 221.405 13.8841 3074 86.1545 241.492 412.628
95 0 226.405 13.604 3080 87.8951 241.135 408.316
96 0 235.431 13.9276 3279 87.3699 241.237 406.837
97 1 56.0849 10.912 612 77.2778 240.359 498.853
98 0 58.0549 11.1618 648 75.037 241.699 497.955
99 0 60.0548 11.4895 690 73.7681 241.181 496.655
100 0 60.0343 10.6939 642 76.2212 241.249 496.327
101 0 63.0478 10.9441 690 75.7377 241.409 495.687
102 0 66.1487 11.8218 782 74.3593 241.165 493.615
103 0 68.0881 10.9564 746 76.1836 241.56 493.432
104 0 69.0949 11.3322 783 77.166 241.577 491.851
105 0 71.1334 11.0918 789 77.9468 241.902 490.539
106 0 75.0584 11.2579 845 77.3834 241.363 489.896
107 0 78.0468 11.429 892 76.833 241.433 489.689
108 0 79.0381 11.1971 885 78.1684 241.462 487.201
109 0 82.056 11.5409 947 78.1246 240.903 485.492
110 0 86.0246 11.6362 1001 76.4555 241.263 486.135
111 0 88.0827 11.3984 1004 78.0717 240.642 482.697
112 0 91.1317 11.8181 1077 76.3621 241.41 482.408
113 0 92.1372 10.8751 1002 80.4391 240.718 481.683
114 0 95.1546 11.3815 1083 79.8458 241.026 478.738
115 0 98.0774 11.3788 1116 79.9382 240.282 477.746
116 0 102.129 11.6519 1190 80.7857 240.984 476.767
117 1 52.1264 10.4362 544 78.3235 241.456 499.776
118 0 54.149 11.0621 599 79.1202 240.977 498.965
119 0 55.1141 11.3583 626 80.5927 240.882 496.827
120 0 59.1332 11.1612 660 82.1758 240.262 496.491
121 0 59.2347 11.868 703 81.522 240.267 495.323
122 0 61.2749 12.1583 745 81.1369 240.379 494.001
123 0 61.1462 11.0718 677 84.4476 241.498 493.919
124 0 62.2267 12.3741 770 83.7792 241.835 492.595
125 0 64.1238 11.8989 763 79.2176 241.714 491.109
126 0 65.0993 11.5362 751 79.0879 241.636 492.703
127 0 65.1325 11.3615 740 79.8757 241.488 490.932
128 0 70.0226 11.7819 825 77.9188 241.389 489.834
129 0 69.154 11.337 784 79.6301 240.943 489.412
130 0 73.2211 11.7589 861 78.3751 240.559 487.526
131 0 72.0732 11.0166 794 80.4521 240.644 487.606
132 0 76.0991 11.8267 900 78.1978 241.193 486.342
133 0 75.0414 10.3276 775 73.6877 241.452 487.015
134 0 78.0307 10.9957 858 74.5047 241.372 486.816
135 0 80.0474 11.5432 924 74.8745 241.801 485.429
136 0 82.0636 11.6129 953 76.0672 241.748 484.671
137 0 86.0593 11.7942 1015 76.9222 241.319 481.576
138 0 90.0716 12.4012 1117 76.4593 240.661 480.288
139 0 91.023 12.6232 1149 76.9321 240.44 479.529
140 0 93.0799 12.0219 1119 80.7676 239.839 478.979
141 0 97.0394 11.9024 1155 80.8693 240.256 475.532
142 0 99.1444 12.2044 1210 81.9107 240.451 474.093
143 0 103.048 12.3826 1276 82.6763 240.593 473.891
144 0 104.05 12.7246 1324 82.3875 240.955 472.344
145 0 109.098 13.0708 1426 81.7525 240.024 472.367
146 0 109.136 13.0571 1425 83.2435 239.972 469.412
147 0 114.144 13.0275 1487 83.0309 239.403 466.345
148 0 117.184 13.7476 1611 82.0403 239.605 464.95
149 0 119.188 13.4661 1605 84.2972 239.523 463.644
150 0 123.154 13.3816 1648 85.9442 239.992 462.873
151 0 127.221 13.284 1690 86.1757 239.146 461.332
152 0 131.119 13.9492 1829 85.924 239.27 458.239
153 0 133.214 14.1277 1882 87.907 239.409 456.128
154 0 136.186 13.9662 1902 89.2571 239.621 454.859
155 0 141.141 14.149 1997 89.1843 239.766 452.849
156 0 146.159 13.6905 2001 90.7401 239.879 450.356
157 0 149.179 14.1575 2112 91.6084 239.83 448.612
158 0 153.184 14.1073 2161 94.0615 239.106 445.346
159 0 158.2 14.7282 2330 89.3124 239.466 442.977
160 0 164.196 14.9333 2452 90.7284 239.816 440.533
161 0 168.215 15.1651 2551 91.2223 239.745 437.394
162 0 173.2 14.8787 2577 92.0295 239.371 437.076
163 0 175.195 14.7835 2590 94.3942 239.757 433.344
164 0 180.202 14.8667 2679 94.0161 239.782 429.985
165 0 183.163 14.2987 2619 96.3898 239.674 428.361
166 0 188.212 14.4731 2724 96.464 239.38 425.421
167 0 192.23 14.3786 2764 97.5141 239.463 421.503
168 0 197.281 15.0597 2971 95.7516 239.773 421.666
169 0 202.203 15.3658 3107 95.3177 240.241 420.628
170 0 207.265 14.8072 3069 97.072 239.87 415.182
171 0 212.226 14.8898 3160 96.8921 240.623 412.37
172 0 216.312 14.6871 3177 96.9594 240.301 412.824
173 0 223.335 14.9551 3340 95.8775 240.296 409.351
174 0 228.232 14.8883 3398 96.7919 240.325 405.337
175 0 237.261 14.3808 3412 95.4587 239.78 404.411
176 0 240.306 13.9863 3361 96.5385 239.452 400.873
177 0 246.287 13.8943 3422 96.9918 239.667 401.542
178 0 250.321 14.4614 3620 95.9804 239.949 398.68
179 0 255.283 14.9912 3827 95.3721 240.173 392.987
180 0 262.299 14.1556 3713 95.8465 240.867 389.6
181 0 270.261 14.2085 3840 94.0406 241.071 387.043
182 0 272.234 14.3957 3919 93.4368 240.154 385.832
183 0 279.236 14.9193 4166 92.0831 240.794 382.711
184 0 286.244 14.4806 4145 91.5407 240.073 380.424
185 0 305.275 20.6339 6299 74.6496 240.113 355.51
186 0 295.184 15.8816 4688 86.131 240.136 372.14
187 0 301.271 15.5773 4693 87.0009 240.248 368.663
188 0 308.46 15.7751 4866 85.5425 240.779 367.666
189 0 313.379 16.2519 5093 83.9959 241.035 362.23
190 0 319.418 15.6816 5009 84.6335 240.665 357.711
191 0 327.394 16.051 5255 83.216 240.375 355.011
192 0 333.484 16.3756 5461 82.2476 239.547 354.798
193 0 340.344 16.6508 5667 80.8971 238.928 347.728
194 0 346.388 16.4902 5712 80.4517 239.1 348.433
195 0 351.462 15.3615 5399 82.8085 239.207 343.361
196 0 359.391 16.0967 5785 79.4519 238.899 340.592
197 0 364.574 15.6292 5698 79.4691 238.918 338.605
198 0 370.637 15.0471 5577 79.9509 239.279 333.127
199 0 379.459 15.364 5830 78.1422 239.232 328.903
200 0 385.711 15.2239 5872 77.5783 239.285 328.83
201 0 390.902 14.8682 5812 78.0303 239.017 322.972
202 0 397.156 15.0117 5962 97.8177 238.845 319.474
203 0 403.516 15.8086 6379 95.3386 238.918 315.174
204 0 405.407 15.3549 6225 95.4442 239.419 309.922
205 0 408.238 16.8676 6886 93.9442 238.727 308.359
206 0 407.891 16.6319 6784 94.4428 239.2 307.734
207 0 406.823 16.5576 6736 93.8328 238.84 307.709
208 0 408.689 17.7543 7256 90.2461 238.58 307.341
209 0 406.435 16.6816 6780 93.7041 238.243 306.48
210 0 408.66 17.6332 7206 90.9531 238.518 305.729
211 0 408.584 17.3551 7091 91.7449 238.581 305.733
212 0 408.534 17.5065 7152 92.3168 238.905 304.776
213 0 407.631 17.1331 6984 93.2089 238.57 303.942
214 0 406.658 16.6159 6757 94.0363 238.96 302.444
215 0 407.707 17.0343 6945 92.7436 238.872 302.793
216 0 407.704 18.0253 7349 90.0107 238.571 303.45
217 0 406.618 17.434 7089 92.5149 239.55 302.004
218 0 406.618 17.434 7089 156.815 239.55 302.004
219 0 382.014 18.502 7068 87.1568 238.593 289.263
220 0 384.009 16.7679 6439 92.0258 238.559 289.84
221 0 386.144 16.714 6454 91.7211 238.769 290.765
222 0 389.233 16.959 6601 91.5742 238.311 291.67
223 0 392.173 16.1051 6316 94.3288 238.579 292.025
224 0 394.999 16.3494 6458 92.9206 238.842 293.699
225 0 397.064 16.9494 6730 91.608 238.753 294.1
226 0 398.037 16.1719 6437 92.9149 238.899 293.844
228 0 400.844 16.2108 6498 91.9971 238.758 294.271
229 0 402.163 16.3093 6559 91.2665 238.737 295.356
230 0 388.991 15.062 5859 92.849 239.128 288.643
231 0 391.086 15.6487 6120 91.9049 238.988 289.634
232 0 391.259 15.7262 6153 92.039 238.951 289.917
233 0 390.116 15.2903 5965 93.4972 239.233 288.046
234 0 392.097 15.6823 6149 92.6342 239.348 290.402
235 0 393.135 16.3379 6423 90.2614 239.025 290.638
236 0 392.161 16.0011 6275 90.6529 239.505 289.945
237 0 391.336 16.8295 6586 88.1345 239.023 289.762
238 0 393.235 16.2168 6377 87.9541 239.027 289.284
239 0 392.257 16.841 6606 85.6815 238.247 287.439
240 0 394.339 16.2069 6391 88.2198 238.988 291.161
241 0 394.188 16.1497 6366 87.7997 238.439 289.816
242 0 392.077 15.7087 6159 88.2793 238.665 288.345
243 0 392.949 16.3406 6421 86.7011 237.909 289.627
244 0 388.189 15.8093 6137 88.4199 238.233 288.217
245 0 390.066 15.9998 6241 87.2282 238.667 288.655
246 0 391.25 16.9354 6626 85.6737 238.853 288.957
247 0 390.169 16.9465 6612 85.0354 238.823 287.942
248 0 389.016 15.66 6092 87.7234 238.756 286.117
249 0 397.372 15.9976 6357 85.0112 238.735 289.875
250 0 391.003 15.1891 5939 86.5072 238.792 285.407
251 0 396.995 16.1589 6415 82.6991 238.63 288.279
252 0 398.104 15.5939 6208 83.2481 237.574 287.474
253 0 398.21 15.6249 6222 81.3407 237.733 287.054
