time division length width area intensity CMx CMy
0 0 63.0373 17.2596 1088 114.249 1371.77 487.205
1 0 64.0302 16.7889 1075 114.127 1372.05 485.289
2 0 65.0758 16.7804 1092 112.089 1371.67 484.924
3 0 65.0353 16.5295 1075 113.546 1371.79 484.114
4 0 69.0501 17.567 1213 106.369 1372.3 483.886
5 0 69.0723 17.4165 1203 106.694 1372.93 483.194
6 0 71.0552 17.0994 1215 105.123 1372.62 482.212
7 0 72.0382 17.2964 1246 104.45 1373.03 481.473
8 0 75.0364 17.898 1343 99.5838 1373.19 481.921
9 0 76.064 16.9068 1286 102.03 1372.46 481.413
10 0 77.0516 16.8459 1298 101.3 1371.75 481.386
11 0 81.0439 18.6319 1510 93.5258 1372.46 479.711
12 0 81.0607 17.4684 1416 96.964 1372.34 478.761
13 0 84.0694 17.6402 1483 95.2461 1371.83 476.745
14 0 85.0345 17.3812 1478 96.3633 1370.91 475.433
15 0 89.1518 18.0479 1609 91.527 1371.98 476.063
16 0 90.0812 17.8617 1609 92.0758 1371.8 474.828
17 0 92.0644 17.5855 1619 92.2755 1371.61 473.614
18 0 94.1324 17.1567 1615 92.9387 1371.47 472.12
19 1 48.0422 12.6764 609 98.9409 1370.84 496.874
20 0 50.0224 13.6339 682 96.6408 1370.67 496.537
21 0 52.0108 13.8817 722 94.0208 1369.63 495.769
22 0 54.0166 14.5881 788 91.7741 1369.78 494.363
23 0 55.0507 14.2778 786 91.43 1370.01 493.235
24 0 56.0244 14.5294 814 91.4251 1369.77 492.947
25 0 56.0554 14.8781 834 91.518 1370.08 492.031
26 0 59.0429 14.9891 885 90.0565 1369.99 492.37
27 0 65.0927 13.4424 875 91.16 1370.31 491.375
28 0 64.1431 14.8262 951 89.3407 1370.15 489.24
29 0 66.0368 14.4162 952 89.5441 1370.18 488.23
30 0 68.076 14.9539 1018 88.6935 1370.09 487.348
31 0 69.0795 14.6498 1012 90.1581 1369.61 487.026
32 0 71.0403 15.1745 1078 89.3692 1369.55 485.45
33 0 75.0694 14.6265 1098 89.8807 1369.6 484.621
34 0 78.1282 15.3466 1199 88.5613 1369.52 483.028
35 0 79.0999 15.3856 1217 88.9154 1369.58 482.329
36 0 81.1356 14.901 1209 89.7353 1369.12 481.069
37 0 84.1533 15.1509 1275 88.6227 1369.42 479.387
38 0 87.1975 14.8972 1299 88.7868 1369.28 478.515
39 0 90.2993 15.9027 1436 87.5223 1370.07 475.726
40 0 92.1473 15.345 1414 88.9972 1369.94 473.479
41 0 95.2813 15.2286 1451 88.3225 1369.37 472.994
42 0 98.2075 14.9887 1472 88.5666 1369.53 472.785
43 0 100.122 14.7421 1476 89.3686 1369.4 470.401
44 0 104.055 14.6941 1529 88.5736 1369.1 468.218
45 0 108.086 15.793 1707 85.8986 1369.83 466.903
46 0 111.113 15.5878 1732 87.6259 1369.12 465.707
47 0 116.07 15.6285 1814 86.9564 1369.92 462.452
48 1 63.0624 13.0189 821 86.2034 1369.71 489.118
49 0 66.0643 13.5928 898 88.392 1369.93 487.184
50 0 67.0388 13.4101 899 89.6185 1370.02 486.194
51 0 71.1703 13.6152 969 89.0877 1370.2 483.678
52 0 74.0834 13.7008 1015 88.8335 1369.6 484.4
53 0 74.0377 13.4391 995 90.8583 1369.76 482.32
54 0 78.0798 13.9729 1091 89.1256 1369.55 482.052
55 0 80.0639 13.7515 1101 89.7729 1370.42 480.476
56 0 83.102 14.2476 1184 87.8716 1370.05 478.766
57 0 85.063 14.0132 1192 88.6921 1370.84 478.008
58 0 88.1199 13.9923 1233 87.7705 1371.46 477.292
59 0 90.0653 13.5568 1221 88.4611 1370.22 474.703
60 0 94.0756 13.9888 1316 86.3511 1370.78 474.785
61 0 97.1591 14.255 1385 87.8874 1371.59 473.75
62 0 100.051 14.0429 1405 88.7708 1370.81 471.821
63 0 103.054 14.0509 1448 90.4351 1370.52 470.482
64 0 105.053 14.1262 1484 91.0148 1370.5 470.27
65 0 109.063 14.2304 1552 91.6488 1371.42 467.862
66 0 114.037 14.3374 1635 90.8373 1371.44 465.495
67 0 114.065 13.6501 1557 94.5395 1371.17 463.195
68 0 119.13 14.0518 1674 93.2121 1370.99 460.692
69 0 123.102 13.696 1686 93.8582 1371.41 460.006
70 0 128.076 13.9996 1793 94.1115 1371.51 457.646
71 0 132.072 13.9243 1839 94.0413 1371.8 457.295
72 0 137.087 13.7212 1881 94.7251 1371.46 453.031
73 0 143.098 14.6543 2097 91.8851 1371.19 450.866
74 0 145.052 13.7744 1998 95.1807 1370.65 446.865
75 0 152.118 13.7524 2092 95.7036 1371.29 446.225
76 0 157.117 13.6968 2152 95.2505 1370.7 442.996
77 0 161.102 14.1401 2278 96.1536 1371.08 440.327
78 0 165.192 13.8809 2293 97.3642 1370.97 434.669
79 0 172.272 14.0824 2426 96.5157 1370.87 430.781
80 0 178.189 13.9065 2478 97.3688 1371.58 429.054
81 0 184.184 13.8991 2560 97.4852 1371.2 425.18
82 0 191.247 15.7649 3015 92.9522 1371.19 419.786
83 0 195.337 14.2574 2785 96.5731 1370.69 421.105
84 0 202.199 14.0357 2838 97.2555 1371.14 414.034
85 0 208.36 14.163 2951 94.7364 1370.97 412.541
86 0 214.189 14.3332 3070 93.0932 1371.08 409.951
87 0 222.272 15.0581 3347 90.9982 1371.74 405.345
88 0 229.342 14.8076 3396 89.732 1371.56 402.645
89 0 238.406 14.8402 3538 89.212 1370.86 401.125
90 0 238.406 14.836 3537 159.511 1369.85 401.286
91 0 396.095 27.3596 10837 65.0021 1369.85 297.156
92 0 393.61 25.4516 10018 69.4644 1370.29 291.595
93 0 385.662 13.8956 5359 94.3506 1370.99 328.472
94 0 383.335 9.71475 3724 98.5798 1371.36 354.961
95 0 387.467 9.79697 3796 98.1154 1371.16 356.337
96 0 389.467 8.92245 3475 96.6141 1371.02 374.521
97 0 413.535 27.9202 11546 63.732 1369.53 290.281
98 0 413.515 25.5057 10547 68.7352 1369.98 285.358
99 1 335.382 14.801 4964 90.2933 1370.13 351.887
100 0 348.509 15.5089 5405 88.2537 1370.38 341.177
101 0 398.626 24.0551 9589 68.046 1369.71 301.861
102 1 168.289 11.0108 1853 83.0988 1370.03 444.124
103 1 100.209 11.8054 1183 77.8335 1370.41 469.173
104 0 103.191 11.3479 1171 78.5295 1370.55 466.845
105 0 106.124 10.8835 1155 78.5991 1370.68 466.334
106 0 110.166 11.1468 1228 78.4984 1370.58 465.884
107 0 115.152 12.1839 1403 77.2281 1370.67 464.046
108 0 117.095 11.6059 1359 79.3017 1370.65 459.401
109 0 121.112 12.0385 1458 77.4396 1370.33 458.49
110 0 126.132 11.591 1462 78.5055 1370.66 455.841
111 0 131.146 11.9943 1573 77.0114 1369.97 454.825
112 0 134.11 11.3936 1528 78.7749 1370.82 450.688
113 0 138.175 11.5361 1594 79.9987 1370.59 448.494
114 0 141.171 11.1567 1575 83.3994 1370.93 440.114
115 0 147.082 12.0137 1767 82.6723 1370.32 438.01
116 0 153.151 11.5376 1767 84.8223 1370.93 436.333
117 0 158.169 12.0251 1902 87.8375 1371.13 436.27
118 0 162.222 11.7 1898 84.3335 1370.74 434.097
119 0 169.204 13.1261 2221 85.7753 1370.81 433.559
120 0 175.341 12.6496 2218 84.6389 1370.35 431.332
121 0 182.215 12.1011 2205 85.6141 1369.98 427.017
122 0 187.374 12.6965 2379 86.5982 1370.27 422.275
123 0 192.353 12.4667 2398 85.53 1371.14 418.757
124 0 198.401 12.7116 2522 87.3664 1371.96 415.812
125 0 197.377 12.4128 2450 160.767 1372.99 415.007
126 1 156.384 11.7084 1831 85.3501 1371.27 437.786
127 0 159.404 12.6283 2013 86.1232 1371.08 432.991
128 0 164.343 12.5408 2061 85.9573 1370.75 432.786
129 0 169.282 13.3387 2258 85.5633 1370.62 428.969
130 0 173.343 12.7724 2214 85.813 1370.04 427.673
131 0 179.303 13.2346 2373 84.662 1370.25 427.09
132 0 184.227 13.3965 2468 83.9899 1370.72 423.022
133 0 188.208 12.2949 2314 83.9836 1370.79 414.401
134 0 194.193 12.6627 2459 83.292 1370.83 410.576
135 0 201.251 12.8496 2586 82.3047 1371.09 412.072
136 0 207.337 12.4677 2585 83.2151 1371.4 408.167
137 0 214.182 12.3306 2641 84.1322 1370.76 407.111
138 0 223.282 13.315 2973 82.5876 1370.26 402.314
139 0 229.195 12.5134 2868 84.7151 1369.88 398.614
140 0 236.213 13.1746 3112 83.8422 1369.41 396.408
141 0 246.268 13.3067 3277 83.3988 1369.76 394.296
142 0 254.196 12.9821 3300 84.2097 1369.86 390.429
143 0 263.286 13.5062 3556 84.3737 1369.98 378.073
144 0 269.43 13.1463 3542 84.535 1370.2 378.962
145 0 276.561 12.9375 3578 85.2937 1370.05 372.958
146 0 277.346 12.7819 3545 86.6322 1370.31 367.403
147 0 286.42 13.0787 3746 85.326 1369.66 360.43
148 1 79.1432 10.9169 864 66.2627 1368.89 477.912
149 0 81.1264 11.402 925 67.5351 1368.75 478.212
150 0 83.1332 11.7402 976 68.8402 1369.37 476.647
151 0 86.1277 10.8444 934 64.5664 1368.94 477.95
152 0 88.1081 10.7709 949 64.7408 1368.91 476.907
153 0 92.1792 11.5536 1065 65.6178 1369.11 473.703
154 0 93.1143 11.6738 1087 66.966 1369.23 473.655
155 0 92.1492 9.74507 898 72.647 1369.06 474.153
156 0 97.3164 11.2006 1090 69.978 1369.43 469.615
157 0 100.114 11.1873 1120 69.8 1369.23 467.734
158 0 99.3022 10.745 1067 73.6898 1369.55 463.821
159 0 102.262 10.3851 1062 70.5085 1369.81 463.75
160 1 64.1605 10.801 693 68.2496 1369.04 488.012
161 0 63.0497 10.119 638 60.6881 1369.93 486.091
162 0 62.0526 8.26718 513 61.9903 1370.84 489.458
163 0 63.0609 9.32432 588 61.2976 1369.71 490.063
164 0 66.0412 9.08524 600 61.2717 1369.62 486.107
165 0 66.0866 7.89873 522 57.636 1370.5 483.092
166 0 70.1475 8.85278 621 57.6345 1370.13 480.024
167 0 72.0663 9.43575 680 56.8632 1370.06 481.415
168 0 72.0663 9.36637 675 123.28 1371.07 481.304
169 0 76.1269 9.01127 686 58.0073 1370.99 479.568
170 0 78.1129 9.51187 743 58.218 1370.7 477.332
171 0 81.1383 9.00931 731 58.922 1371.18 471.56
172 0 81.1383 9.00931 731 125.598 1372.18 471.665
173 1 45.0757 8.87396 400 60.0875 1371.92 495.645
174 0 48.1113 9.54039 459 61.1111 1371.54 495.895
175 0 51.3266 11.534 592 60.0372 1370.02 492.576
176 0 51.3795 10.763 553 60.1447 1369.08 490.505
177 0 52.3229 11.429 598 61.6706 1369.36 487.667
178 0 54.0663 11.9298 645 58.2248 1371.03 493.515
179 0 54.0738 11.8912 643 56.2597 1370.84 491.944
180 0 56.103 11.6928 656 55.7043 1371.57 491.349
181 0 57.0504 11.4636 654 56.0428 1371.7 489.706
182 0 58.0831 11.363 660 55.8727 1370.55 489.555
183 0 59.0547 11.7687 695 55.2014 1370.95 491.387
184 0 61.086 11.3774 695 55.9338 1369.4 488.763
185 0 62.0977 11.2726 700 56.0729 1369.66 488.056
186 0 63.0499 11.4988 725 55.7103 1369.67 487.054
187 0 63.0566 10.4668 660 57.3121 1369.73 487.033
188 0 63.1049 10.6648 673 58.422 1370.31 487.138
189 0 64.0814 10.6583 683 58.4246 1370.93 487.394
190 0 65.1198 10.0277 653 60.0214 1370.57 484.743
191 0 67.0604 10.7962 724 59.8743 1370.5 483.407
192 0 70.0631 11.0044 771 58.6472 1369.15 481.869
193 0 72.0653 10.6847 770 60.2896 1369.31 481.469
194 0 75.138 10.5539 793 60.4224 1369.13 480.032
195 0 77.0506 10.837 835 60.2838 1369.23 480.147
196 0 82.0593 11.8329 971 58.9701 1368.91 478.747
197 0 85.0571 11.3924 969 59.3891 1368.85 477.698
198 0 88.0285 11.7348 1033 59.4105 1369.45 474.99
199 1 45.0336 9.4596 426 59.3052 1368.96 497.643
200 0 47.0305 10.9291 514 58.8249 1368.72 495.004
201 0 49.0242 11.4025 559 56.4723 1369.01 494.632
202 0 50.0583 11.3867 570 71.5561 1369.04 494.011
203 0 53.0364 11.5015 610 69.1607 1368.87 492.531
204 0 52.0188 11.1114 578 70.2924 1369.47 493.083
205 0 54.0564 11.1365 602 69.8339 1368.96 492.341
206 0 55.0724 11.4758 632 69.7089 1369.5 491.473
207 0 57.0435 11.5351 658 69.1413 1369.25 490.144
208 0 60.0274 11.2449 675 69.5674 1369 490.059
209 0 60.027 11.2783 677 110.455 1369.01 490.043
210 0 59.0537 10.9731 648 73.5818 1369.08 489.218
211 0 60.0947 11.1324 669 73.6278 1369.07 489.777
212 0 63.0685 11.5906 731 72.4473 1369.48 487.803
213 0 63.0402 10.8502 684 74.6506 1369.04 487.893
214 0 64.0522 11.1784 716 74.6941 1369.16 486.362
215 0 68.0942 11.5869 789 72.9265 1369.01 484.684
216 0 68.0872 11.5147 784 73.9834 1368.85 483.477
217 0 73.085 11.6029 848 73.9092 1369.94 481.754
218 0 72.0793 11.5428 832 106.418 1370.94 481.398
219 0 76.1064 11.1423 848 75.8101 1368.8 479.529
220 0 79.0906 11.5943 917 75.5714 1368.75 479.516
221 0 81.026 10.3917 842 75.5499 1369.11 476.487
222 0 81.0912 11.037 895 76.9765 1368.59 476.476
223 0 85.0492 10.6997 910 77.6011 1368.77 477.316
224 0 89.0255 11.244 1001 77.7213 1369.06 473.12
225 0 90.0776 10.5132 947 79.3083 1368.86 473.687
226 0 94.0387 10.6446 1001 78.3357 1368.98 470.966
227 1 47.033 9.69533 456 78.2018 1368.02 494.189
228 0 50.0176 9.79655 490 77.0857 1368.46 493.296
229 0 51.0269 9.97514 509 77.6935 1368.29 492.096
230 0 51.073 9.16335 468 78.1004 1368.41 491.44
231 0 53.0601 9.74367 517 78.5184 1368.38 492.621
232 0 55.0643 10.3152 568 78.6673 1368.36 492.202
233 0 58.0902 11.3272 658 77.6231 1368.69 492.053
234 0 58.1433 11.2481 654 79.3379 1368.78 489.28
235 0 60.1494 11.8372 712 79.7331 1368.57 488.327
236 0 62.0928 11.6761 725 81.0483 1369.22 487.381
237 0 67.0291 12.1141 812 79.9692 1369.58 487.07
238 0 67.1064 12.4429 835 77.6479 1369.05 487.216
239 0 67.1365 12.5714 844 76.5628 1368.61 486.081
240 0 67.1672 11.8212 794 74.8186 1369.18 487.511
241 0 67.0475 11.559 775 77.0219 1368.94 487.448
242 0 69.0794 11.494 794 76.7355 1369.05 487.327
243 0 73.0638 11.839 865 76.3445 1368.1 484.853
244 0 75.1269 12.5122 940 76.2957 1368.37 484.854
245 0 76.1032 12.4699 949 76.8883 1368.85 481.928
246 0 79.088 12.6694 1002 75.1108 1368.73 480.302
247 0 81.1257 12.758 1035 76.2899 1368.91 478.689
248 0 83.0739 12.9884 1079 76.2614 1368.9 477.236
249 0 83.0772 12.0851 1004 78.3197 1368.74 476.042
250 0 85.0644 12.6257 1074 77.5317 1368.94 477.59
251 0 85.089 12.0697 1027 78.2707 1368.51 474.296
252 0 90.1663 12.8097 1155 76.7723 1367.53 473.49
253 0 92.2169 12.6007 1162 78.5861 1367.82 469.357
254 0 93.0962 12.471 1161 82.0388 1368.16 468.153
255 0 98.1306 12.9623 1272 81.9371 1368.44 466.521
256 0 99.1564 12.5458 1244 85.5434 1368.63 464.947
257 0 102.168 13.3995 1369 86.1198 1368.7 462.576
258 0 104.285 13.07 1363 89.7337 1368.73 461.106
259 0 109.125 13.2692 1448 87.5663 1368.37 459.235
260 0 113.186 13.4822 1526 88.2182 1368.18 458.606
261 0 118.193 13.8417 1636 88.6815 1368.61 456.919
262 0 124.217 13.9433 1732 87.9446 1368.32 455.826
263 0 126.185 12.9493 1634 91.123 1368.39 454.565
264 0 132.308 13.4459 1779 90.5149 1368.79 453.39
265 0 135.3 13.0895 1771 92.6217 1368.24 449.81
266 0 141.202 13.4488 1899 92.8067 1368.55 445.409
267 1 63.2142 11.4373 723 89.3112 1368.3 482.939
268 0 64.0755 11.2992 724 89.1284 1368.11 481.472
269 0 68.0705 12.1786 829 86.345 1367.8 480.929
270 0 66.1361 10.7657 712 79.1994 1367.93 482.386
271 0 71.0818 12.3801 880 85.1693 1368.03 485.235
272 0 72.0507 12.3524 890 85.7753 1368.01 484.904
273 0 76.0482 12.7551 970 83.6959 1368.37 483.3
274 0 75.0614 12.3632 928 85.2802 1368.58 481.669
275 0 79.1249 12.2212 967 85.3351 1368.21 479.9
276 0 82.043 12.4081 1018 85.2603 1367.91 479.473
277 0 84.0719 12.6558 1064 84.6673 1368.68 478.027
278 0 86.059 12.4566 1072 85.889 1369.08 476.438
279 0 87.0562 11.9693 1042 88.2073 1368.54 474.253
280 0 92.054 12.6665 1166 86.8576 1369.02 473.498
281 0 92.054 12.7099 1170 146.907 1369.02 473.468
282 0 97.0812 12.7831 1241 88.4537 1369.15 470.961
283 0 98.0793 12.3675 1213 92.1698 1368.63 469.234
284 0 102.077 12.5591 1282 91.5663 1368.61 467.448
285 0 104.139 12.6657 1319 91.8362 1368.64 464.724
286 0 108.078 12.9722 1402 91.4116 1369.05 461.665
287 0 111.082 12.0362 1337 92.6544 1368.48 459.806
288 0 116.096 12.7308 1478 91.0785 1368.18 459.635
289 0 118.102 12.1759 1438 93.685 1368.28 453.745
290 0 122.117 12.6682 1547 92.0239 1368.08 452.904
291 0 126.22 12.2485 1546 91.0776 1367.81 448.371
292 0 130.234 12.4161 1617 92.201 1368.56 449.398
293 0 134.277 12.586 1690 90.2775 1368.56 441.663
294 1 75.0918 9.36187 703 84.0725 1368.8 472.748
295 0 81.1045 11.8736 963 87.1038 1368.35 480.807
296 0 82.0761 12.0376 988 84.999 1367.93 478.522
297 0 86.0455 11.982 1031 84.0223 1368.23 478.639
298 0 87.0753 12.8165 1116 80.0815 1368.16 477.38
299 0 89.0686 12.99 1157 77.4356 1368.12 477.685
300 0 92.056 12.5467 1155 76.3654 1367.77 476.016
301 0 95.0583 12.5397 1192 76.5982 1367.71 472.966
302 0 98.078 12.9693 1272 76.0731 1367.95 472.286
303 0 99.0596 11.9726 1186 78.3145 1368.54 472.626
304 0 102.099 12.6544 1292 78.4652 1367.95 470.15
305 0 106.062 13.3884 1420 77.0246 1368.22 468.845
306 0 109.073 13.0555 1424 77.5962 1367.98 466.592
307 0 114.178 12.4367 1420 89.4831 1367.55 464.425
308 0 118.146 12.3407 1458 89.8663 1367.27 461.027
309 0 122.139 12.8706 1572 89.1056 1367.96 459.749
310 1 52.0226 9.72654 506 80.4506 1368.85 496.31
311 0 54.0385 11.0292 596 71.4379 1368.28 495.76
312 0 55.0288 11.3395 624 72.008 1368.59 495.074
313 0 57.0184 11.5051 656 71.5046 1369.31 496.223
314 0 55.0299 10.2671 565 76.8867 1368.9 496.934
315 0 57.0479 10.0442 573 78.9843 1368.69 496.733
316 0 60.0938 11.0328 663 77.2247 1368.36 496.341
317 0 59.0513 10.3469 611 79.8985 1368.72 495.563
318 0 61.0657 10.3004 629 81.9936 1368.11 493.676
319 0 64.0934 10.9528 702 81.5712 1368.21 493.816
320 0 66.0975 10.7266 709 81.2962 1369.05 494.269
321 0 69.0416 11.3555 784 79.8686 1368.94 492.506
322 0 69.1303 10.9069 754 81.1525 1368.33 493.003
323 0 74.0848 11.0009 815 80.2896 1368.67 491.056
324 0 73.0781 11.0977 811 80.5154 1367.9 488.778
325 0 79.138 11.7263 928 78.1595 1367.44 488.858
326 0 80.0538 10.9177 874 79.476 1367.26 487.85
327 0 83.0777 11.5434 959 78.3629 1367.4 487.092
328 0 85.0662 11.0032 936 78.7158 1366.92 484.74
329 0 87.1742 11.2304 979 77.9295 1367.16 484.487
330 1 48.09 10.5011 505 76.4574 1367.58 504.17
331 0 47.0248 10.8879 512 84.5898 1367.61 503.588
332 0 50.0431 10.6508 533 75.5947 1367.29 501.869
333 0 52.1193 11.4353 596 75.5772 1367.18 501.406
334 0 52.1193 11.4161 595 131.987 1367.19 501.541
335 0 50.0491 10.8094 541 77.5046 1365.86 501.577
336 0 51.0377 10.698 546 77.9011 1365.73 501.372
337 0 52.0951 10.1545 529 80.2174 1366.34 500.45
338 0 54.0302 11.2345 607 80.5568 1366.78 498.386
339 0 56.0642 11.2549 631 81.859 1366.69 497.716
340 0 59.1145 11.926 705 81.1872 1366.5 496.287
341 0 57.0354 11.2386 641 84.7176 1366.97 495.963
342 0 61.1163 12.059 737 83.3691 1366.24 496.054
343 0 63.0401 12.0241 758 84.2995 1365.34 496.571
344 0 63.0316 11.9464 753 86.6653 1365.97 495.381
345 0 66.025 12.3135 813 87.3506 1365.01 492.974
346 0 67.2301 12.1969 820 87.1829 1365.37 492.584
347 0 68.0504 12.2262 832 88.649 1365.22 492.401
348 0 73.1054 12.7487 932 87.1041 1364.88 490.554
349 0 75.0956 12.8237 963 88.5774 1364.77 490.136
350 0 75.0633 12.4961 938 87.7676 1365.53 489.923
351 0 79.056 13.6232 1077 87.416 1365.14 485.946
352 0 82.0989 13.2279 1086 88.9788 1365.34 484.723
353 0 85.1003 13.4195 1142 90.7785 1365.32 481.846
354 0 87.1618 12.8726 1122 97.3137 1365.4 478.717
355 0 89.1148 13.2638 1182 97.4594 1365.24 476.168
356 0 93.1114 14.198 1322 94.1619 1365.75 476.464
357 0 94.0651 13.2993 1251 96.9504 1365.61 475.412
358 0 97.0723 13.5466 1315 96.0996 1366.09 473.12
359 0 99.056 13.5883 1346 95.6137 1366.31 473.031
360 0 101.099 13.2246 1337 96.4323 1365.73 470.476
361 0 105.099 13.9393 1465 93.6355 1365.91 469.158
362 0 108.092 13.6458 1475 93.5783 1365.23 466.119
363 0 108.092 13.5903 1469 157.447 1364.22 466.062
364 1 59.0962 11.7436 694 87.1715 1366.08 489.622
365 0 60.0704 12.2024 733 85.0668 1366.1 488.426
366 0 62.1002 11.6908 726 78.0689 1365.56 494.266
367 0 64.0744 11.8612 760 78.1526 1364.94 494.476
368 0 66.07 11.6089 767 79.9896 1365.05 493.481
369 0 69.0934 11.9838 828 80.0616 1365.63 490.851
370 0 71.0948 11.8574 843 81.5563 1366.14 490.699
371 0 73.1466 11.3471 830 84.0048 1365.62 489.224
372 0 76.135 11.9656 911 84.0724 1364.97 488.869
373 0 78.0241 11.6502 909 86.2805 1365.31 486.796
374 0 80.0874 11.9869 960 86.8438 1365.86 486.276
375 0 82.05 12.2486 1005 87.6338 1365.65 484.585
376 0 88.0349 12.2792 1081 86.6263 1365.79 483.179
377 0 89.0504 11.8023 1051 88.5918 1366.1 480.813
378 0 92.0483 12.4283 1144 88.2255 1366.07 479.486
379 0 96.0973 12.5602 1207 89.1988 1366.69 477.08
380 0 97.0727 12.1455 1179 90.6294 1366.34 476.393
381 1 56.0147 11.5684 648 90.9815 1365.62 496.025
382 0 60.1318 12.0568 725 95.0828 1367.19 494.935
383 0 61.049 13.0715 798 91.5902 1366.8 493.709
384 0 59.0689 11.1395 658 87.7325 1367.09 495.056
385 0 61.0261 11.0772 676 86.3151 1367.07 495.027
386 0 62.022 11.2863 700 86.4343 1366.77 492.989
387 0 63.0229 10.9325 689 87.0972 1367.31 493.382
388 0 66.0867 11.0764 732 86.6885 1367.4 490.727
389 0 70.0397 11.6791 818 85.4658 1366.5 489.127
390 0 72.0495 11.4643 826 86.4153 1366.61 488.88
391 0 73.0611 11.114 812 88.2143 1366.23 487.554
392 0 78.0662 11.9514 933 87.5177 1366.5 484.615
393 0 81.085 12.604 1022 86.1722 1367.02 485.058
394 0 81.0942 12.134 984 90.2429 1366.25 482.895
395 0 85.027 12.9253 1099 89.5851 1366.48 481.593
396 0 87.0626 12.669 1103 90.6419 1366.56 480.865
397 0 90.075 12.2454 1103 92.2267 1366.92 478.428
398 0 93.0658 12.0023 1117 92.2364 1367.1 477.764
399 1 50.0124 11.0173 551 91.7822 1366.86 498.069
400 0 51.0197 11.5446 589 90.0866 1367.76 496.596
