time division length width area intensity CMx CMy
0 0 45.0299 16.7444 754 123.765 128.678 486.893
1 0 46.0906 16.0119 738 125.907 131.581 488.253
2 0 47.0239 16.481 775 124.93 133.683 486.961
3 0 48.0745 17.4937 841 122.514 133.53 486.488
4 0 49.048 16.4125 805 126.088 133.363 486.961
5 0 50.0288 16.8103 841 124.966 133.291 488.015
6 0 52.1155 15.4848 807 128.812 132.222 482.91
7 0 54.0935 17.4328 943 122.839 130.942 483.12
8 0 55.1061 17.0399 939 124.882 128.904 483.05
9 0 55.0636 16.9259 932 127.809 127.803 484.98
10 0 58.1431 17.3537 1009 124.335 126.715 485.941
11 0 58.0484 17.1409 995 127.196 125.399 486.725
12 0 60.1109 18.0333 1084 123.531 122.335 488.183
13 0 62.1385 16.8334 1046 127.056 120.387 489.157
14 0 64.1471 17.1169 1098 126.704 117.903 489.064
15 0 64.1181 17.4678 1120 127.496 116.414 487.054
16 0 66.2418 16.787 1112 129.081 114.111 487.128
17 0 72.102 19.195 1384 119.333 111.341 485.668
18 0 70.1754 16.6725 1170 128.997 109.903 482.678
19 0 74.2213 16.9763 1260 126.771 107.694 480.029
20 0 79.1981 19.3692 1534 121.185 104.775 477.802
21 0 80.2699 17.9395 1440 126.158 104.708 474.864
22 0 82.1546 18.4165 1513 125.683 106.058 474.349
23 1 49.1063 12.4628 612 131.843 105.077 491.709
24 0 51.0726 13.0011 664 130.068 107.527 490.934
25 0 50.057 12.326 617 132.455 108.269 492.794
26 0 51.0416 12.8327 655 132.644 109.667 491.078
27 0 53.109 13.2746 705 134.123 111.552 488.681
28 0 56.0799 14.5507 816 128.817 114.153 487.462
29 0 56.0365 14.1515 793 130.603 116.159 486.556
30 0 60.066 14.8337 891 126.233 118.418 486.797
31 0 63.0677 15.2693 963 124.825 120.936 486.526
32 0 66.0322 14.8261 979 126.271 122.097 487.293
33 0 67.0739 15.4158 1034 124.961 125.153 487.244
34 0 68.085 16.2738 1108 123.653 124.761 485.124
35 0 71.0806 15.7427 1119 124.529 125.249 486.061
36 0 73.1785 16.002 1171 123.845 124.545 486.077
37 0 76.1023 15.8602 1207 124.461 124.372 486.69
38 0 78.0375 14.8134 1156 128.221 122.894 485.136
39 0 82.0725 16.3879 1345 122.412 121.781 482.117
40 0 84.1296 16.4865 1387 122.679 120.157 482.593
41 0 85.1809 14.6746 1250 128.53 117.504 483.268
42 0 89.1996 16.2781 1452 122.412 115.264 483.629
43 1 46.0861 11.9342 550 126.027 113.164 504.864
44 0 49.1752 12.1809 599 126.556 109.87 502.756
45 0 49.093 12.8532 631 126.48 108.371 502.331
46 0 53.0502 14.0998 748 121.43 107.369 502.405
47 0 54.0567 12.7829 691 126.068 105.719 500.466
48 0 55.0182 14.3044 787 123.057 103.952 498.929
49 0 57.0302 15.6584 893 120.275 103.162 495.992
50 0 60.0348 14.6748 881 121.852 101.32 494.984
51 0 63.0387 14.5942 920 121.08 100.374 487.121
52 0 66.188 15.4711 1024 117.149 99.1885 486.658
53 0 66.0741 15.3464 1014 119.321 98.3994 483.649
54 0 69.0972 15.2684 1055 118.67 97.2019 484.718
55 0 69.1326 14.3782 994 120.882 97.7988 482.676
56 0 71.0855 15.0101 1067 119.951 98.3533 482.305
57 0 74.1403 14.0275 1040 119.875 99.4038 479.233
58 0 77.0537 15.8591 1222 115.041 100.723 477.997
59 0 80.0648 15.5874 1248 116.211 101.494 476.463
60 0 82.1617 14.1429 1162 120.577 104.327 473.216
61 0 86.1842 14.585 1257 118.834 107.294 472.294
62 0 89.0738 15.8408 1411 115.173 109.788 470.539
63 1 48.0279 10.3273 496 115.625 112.905 494.96
64 0 50.0665 10.0267 502 117.468 114.56 492.855
65 0 52.0185 10.8807 566 116 115.292 495.376
66 0 54.0243 13.4939 729 109.999 115.051 494.894
67 0 57.0568 13.4252 766 109.95 117.706 496.808
68 0 58.0252 13.7699 799 110.213 118.849 494.069
69 0 60.0714 14 841 109.346 117.419 495.254
70 0 62.0941 12.2395 760 114.141 117.726 495.126
71 0 64.0997 12.2309 784 114.105 116.494 494.81
72 0 67.0267 14.7702 990 107.878 115.205 494.054
73 0 70.0924 13.4679 944 109.484 113.764 494.542
74 0 71.1671 12.9695 923 112.872 111.129 493.08
75 0 76.1257 14.0688 1071 109.669 107.781 492.085
76 0 79.0689 13.7981 1091 108.313 107.349 492.384
77 0 82.1242 13.1386 1079 109.273 105.517 492.172
78 0 84.1427 12.8116 1078 109.96 102.709 490.117
79 0 87.122 14.5658 1269 107.307 101.18 487.264
80 0 89.148 13.1803 1175 109.67 99.6204 487.709
81 0 93.261 13.607 1269 107.731 97.6036 483.371
82 1 49.0342 9.48318 465 107.665 96.9828 506.641
83 0 51.0503 8.59936 439 110.446 94.9294 505.421
84 0 55.1082 10.9058 601 103.22 94.4193 501.559
85 0 55.0515 11.4075 628 104.473 93.1401 498.627
86 0 59.03 12.4344 734 102.441 92.3515 496.443
87 0 59.1704 12.5063 740 101.82 92.1919 494.381
88 0 61.1935 11.7496 719 103.273 91.6579 492.108
89 0 65.2726 12.7925 835 99.5832 91.9701 492.024
90 0 65.2173 12.098 789 103.108 92.5564 490.2
91 0 66.1633 10.731 710 105.338 94.2944 489.555
92 0 72.0601 11.3378 817 102.738 94.563 489.608
93 0 75.2099 12.6579 952 100.786 96.3403 485.511
94 0 76.071 11.9362 908 104.374 98.9196 484.382
95 0 79.0869 12.8087 1013 102.795 101.097 485.817
96 0 81.0512 12.4489 1009 104.732 104.459 481.805
97 0 84.1008 11.3079 951 106.286 106.882 482.054
98 0 88.0835 13.3964 1180 102.158 108.497 479.721
99 1 45.0632 9.16491 413 108.864 109.709 500.446
100 0 50.1441 9.17357 460 107.202 111.378 502.48
101 0 52.1106 9.78687 510 106.29 111.649 505.151
102 0 52.1102 10.3051 537 106.212 112.013 504.397
103 0 53.0505 10.2355 543 106.501 111.151 505.252
104 0 55.1021 11.397 628 104.626 110.626 502.457
105 0 57.1799 12.382 708 101.404 110.589 502.042
106 0 58.0354 11.8548 688 102.769 109.513 504.782
107 0 57.0998 10.9983 628 104.97 107.662 504.441
108 0 60.1581 11.8687 714 103.29 104.387 503.707
109 0 59.116 9.89579 585 107.745 102.058 503.538
110 0 63.0816 10.8589 685 102.58 100.288 503.434
111 0 66.0779 11.8648 784 100.624 98.412 500.415
112 0 66.1787 11.7107 775 102.53 95.7058 496.595
113 0 70.234 12.6719 890 100.52 94.5438 497.472
114 0 70.3426 10.7474 756 104.176 93.4034 497.265
115 0 74.2705 11.8217 878 103.386 91.6162 493.88
116 0 77.3884 12.7538 987 99.9656 90.7204 493.844
117 0 77.5171 11.5716 897 104.042 89.2988 491.202
118 1 40.3001 9.52852 384 106.339 88.7005 507.294
119 0 41.3425 9.82041 406 106.443 87.2956 505.355
120 0 43.4546 10.3787 451 105.656 87.1685 502.989
121 0 46.5007 10.774 501 104.08 87.5729 502.265
122 0 45.3611 11.0227 500 106.686 86.474 497.978
123 0 48.681 12.4278 605 102.534 87.162 496.408
124 0 49.0863 11.2659 553 101.152 88.821 499.901
125 0 50.102 11.6562 584 100.519 90.8527 496.875
126 0 51.1351 11.2056 573 101.211 92.6073 497.855
127 0 50.0346 10.9324 547 103.581 95.5192 497.594
128 0 54.0686 12.3177 666 98.991 97.8904 498.428
129 0 54.0536 12.0066 649 101.111 98.7612 497.068
130 0 56.1417 10.7051 601 102.512 101.453 496.666
131 0 56.0228 11.9059 667 101.831 103.007 496.304
132 0 59.0591 12.8515 759 99.1989 106.113 498.134
133 0 60.0709 12.2355 735 101.317 108.237 495.92
134 0 61.0934 11.818 722 102.443 109.115 500.684
135 0 65.1244 12.9291 842 99.5285 110.333 499.976
136 0 65.0997 12.5961 820 101.596 109.849 497.511
137 0 68.2076 12.242 835 101.154 110.841 499.456
138 0 70.1348 13.2887 932 100.469 109.239 498.74
139 0 72.2572 12.9261 934 101.404 108.131 497.43
140 0 76.1782 13.5866 1035 100.24 106.772 498.372
141 0 78.2436 13.688 1071 100.335 104.487 497.387
142 0 79.2647 13.4738 1068 102.36 102.183 494.285
143 0 82.2298 13.2434 1089 102.902 99.9633 495.072
144 0 85.3945 12.9985 1110 103.502 98.4694 491.916
145 0 86.1343 12.7591 1099 102.172 95.7243 485.735
146 0 89.0964 13.2553 1181 100.593 95.442 488.399
147 1 44.1182 6.77725 299 99.7157 93.8261 510.99
148 0 47.0586 9.07379 427 97.2787 93.1663 508.508
149 0 46.0491 7.53543 347 99.3256 92.5793 508.507
150 0 50.0739 10.0651 504 96.8155 91.1944 502.323
151 0 51.0646 10.1244 517 96.9091 89.6093 503.416
152 0 56.0814 12.6602 710 97.0915 88.9282 503.434
153 0 55.0363 12.8279 706 96.2096 88.1629 501.953
154 0 58.0494 12.8339 745 95.7154 88.1987 502.4
155 0 57.1336 11.6394 665 99.1173 87.0105 502.006
156 0 61.2065 13.2829 813 94.8659 87.369 498.887
157 0 62.1666 12.2896 764 97.8102 87.9385 496.671
158 0 65.1878 12.8552 838 96.7685 88.9368 496.424
159 0 66.1201 11.9782 792 98.8472 90.2992 493.678
160 0 71.1233 13.6523 971 93.8043 91.1308 491.156
161 0 73.246 13.8301 1013 93.463 93.5666 492.468
162 0 76.3466 15.3248 1170 91.759 95.4564 490.928
163 0 75.1205 12.6863 953 101.043 99.191 490.501
164 1 39.039 11.2964 441 103.1 101.63 507.773
165 0 43.0337 10.7823 464 102.44 104.481 508.972
166 0 44.0416 9.99054 440 106.325 105.711 508.207
167 0 45.0215 9.95079 448 109.007 106.183 507
168 0 46.0258 10.7983 497 104.954 107.567 509.286
169 0 47.0151 10.6774 502 107.026 108.283 511.305
170 0 51.2235 11.7134 600 105.462 107.53 510.755
171 0 51.3504 12.9308 664 105.078 104.512 506.44
172 0 53.2921 13.5667 723 103.79 103.719 506.914
173 0 54.0238 12.7721 690 105.123 104.48 509.471
174 0 55.0464 12.5349 690 107.345 103.471 508.91
175 0 56.0584 12.701 712 106.987 101.978 509.191
176 0 57.0324 12.5718 717 107.052 100.018 507.404
177 0 60.179 12.6622 762 106.898 97.5774 507.147
178 0 61.2695 13.3019 815 105.24 95.1215 505.973
179 0 63.1172 14.6553 925 101.638 93.6249 504.752
180 0 65.1047 13.4399 875 104.179 91.296 501.923
181 0 68.2129 13.7804 940 102.278 90.2691 501.739
182 0 71.3085 12.7054 906 104.219 87.84 498.709
183 1 35.1242 7.77242 273 108.106 87.1355 516.128
184 0 38.0887 10.4493 398 104.183 86.0603 513.691
185 0 40.1133 10.7196 430 104.879 84.7186 509.847
186 0 40.0644 10.7078 429 104.396 83.8904 508.002
187 0 44.1751 10.73 474 102.741 83.673 507.118
188 0 42.1019 10.7358 452 103.058 83.4491 505.98
189 0 45.2655 10.7146 485 104.668 83.5567 503.602
190 0 44.0144 11.678 514 105.329 83.6693 502.416
191 0 47.0699 11.1536 525 106.053 84.6933 501.189
192 0 49.0426 12.7032 623 102.343 86.0305 499.941
193 0 50.1392 13.1833 661 102.3 88.41 498.135
194 0 51.0981 12.6619 647 103.371 90.2241 498.703
195 0 51.1503 11.5151 589 105.834 92.4805 498.146
196 0 53.1696 12.5636 668 104.246 95.7051 498.696
197 0 55.0723 12.0569 664 105.119 98.0286 497.471
198 0 57.1753 12.7852 731 103.306 100.222 498.272
199 0 60.1488 14.1649 852 99.2723 103.143 497.641
200 0 61.1039 13.2397 809 101.618 105.315 498.457
201 0 62.2924 13.2601 826 101.9 104.817 499.071
202 0 64.1001 12.9329 829 104.402 105.574 497.897
203 0 66.2026 12.9904 860 104.185 106.514 496.915
204 0 70.3171 13.752 967 102.324 106.664 499.226
205 0 71.0825 13.7727 979 103.356 105.91 498.434
206 0 75.2233 13.666 1028 104.385 104.732 497.061
207 0 76.2488 14.2691 1088 103.445 103.349 493.753
208 0 80.285 14.6852 1179 102.059 101.733 495.433
209 0 81.0979 13.9708 1133 103.226 100.366 496.611
210 1 44.0194 10.3363 455 104.07 97.2659 514.374
211 0 46.1872 10.1976 471 103.55 95.3758 515.565
212 0 49.4197 11.3517 561 103.522 94.6952 509.226
213 0 49.5372 11.4459 567 104.723 90.1993 506.81
214 0 52.5457 12.3892 651 101.8 89.192 507.212
215 0 54.3826 12.3201 670 101.324 87.4433 506.936
216 0 56.116 12.9553 727 99.8514 84.9587 505.506
217 0 57.0398 12.2195 697 100.623 84.2798 504.857
218 0 57.0692 12.3184 703 101.926 83.8378 503.205
219 0 61.0583 13.4298 820 98.7939 83.5805 500.732
220 0 62.0648 13.4859 837 97.5747 83.4086 499.805
221 0 64.1652 13.1847 846 98.292 83.6643 498.05
222 0 65.0543 14.0037 911 96.9583 84.1087 494.978
223 0 67.0802 12.5223 840 100.477 84.6548 495.205
224 0 69.1727 13.6904 947 98.3041 84.5143 492.922
225 0 69.1263 13.2945 919 100.313 86.5604 491.53
226 0 73.2358 13.7501 1007 100.317 89.2423 490.75
227 0 77.2197 14.1803 1095 99.01 91.9078 490.097
228 0 79.2029 13.7621 1090 100.172 93.9404 488.172
229 0 79.0699 13.545 1071 103.021 95.5406 487.342
230 1 44.0432 9.35445 412 104.155 99.2767 507.301
231 0 45.1111 10.9064 492 103.907 101.091 507.433
232 0 48.0787 10.1708 489 104.454 102.11 506.258
233 0 49.3371 12.668 625 99.4 104.115 507.384
234 0 51.2125 13.4342 688 97.8474 105.512 508.221
235 0 50.4187 12.3962 625 98.6288 108.078 508.534
236 0 53.1968 13.5159 719 99.5939 104.879 509.541
237 0 53.0756 13.1699 699 101.069 104.129 510.814
238 0 55.0862 12.9615 714 101.55 103.129 510.098
239 0 56.0672 12.8952 723 101.656 101.4 509.192
240 0 59.111 13.5 798 99.9536 100.056 511.429
241 0 61.1228 14.3154 875 98.744 97.3646 507.331
242 0 61.1174 13.155 804 103.065 96.9527 508.402
243 0 62.1856 12.7039 790 101.813 96.5494 509.433
244 0 64.1216 13.2717 851 98.5793 94.4442 507.267
245 0 67.2355 14.3079 962 96.2214 94.1455 507.436
246 0 68.1366 11.6971 797 102.565 92.1405 508.092
247 0 72.1782 13.8823 1002 99.0739 89.0699 504.324
248 0 74.1081 13.8716 1028 99.9475 87.356 500.812
249 0 77.079 14.6733 1131 98.6286 85.6525 500.125
250 0 78.0709 13.6671 1067 102.228 84.5614 497.997
251 0 80.0537 13.2661 1062 103.764 84.2684 496.717
252 0 84.1267 14.7753 1243 101.648 83.2132 493.667
253 0 85.1097 13.7352 1169 105.547 83.0659 491.826
254 0 89.1829 14.1171 1259 104.458 81.4178 485.838
255 0 91.2355 14.0954 1286 104.439 80.8437 482.671
256 1 51.0586 10.4586 534 107.661 81.2753 503.522
257 0 53.1896 10.2088 543 107.232 84.2983 503.265
258 0 54.0327 10.8823 588 105.257 83.6105 503.333
259 0 55.0745 13.1458 724 102.715 85.6285 498.334
260 0 57.133 12.1296 693 105.268 86.0188 497.769
261 0 60.1363 12.7045 764 102.054 88.2827 495.052
262 0 62.0777 13.3381 828 101.546 91.1727 495.854
263 0 62.0998 13.4622 836 99.8313 96.1555 498.609
264 0 66.1062 15.3238 1013 95.3248 98.8934 496.295
265 0 66.1108 12.6152 834 101.802 101.278 495.201
266 0 67.086 13.1473 882 101.588 101.891 494.993
267 0 71.1691 14.6271 1041 98.1671 104.713 496.338
268 0 71.1691 14.6552 1043 144.313 106.713 496.38
269 0 75.1191 13.4719 1012 102.194 105.726 496.196
270 0 78.2507 14.2874 1118 101.227 103.214 496.257
271 0 79.261 13.2348 1049 105.779 104.051 494.782
272 0 80.2853 12.3808 994 108.22 103.824 495.271
273 0 86.5578 14.5452 1259 103.188 102.748 494.333
274 0 88.445 15.0037 1327 102.93 100.447 491.943
275 0 92.2713 15.3569 1417 104.404 99.8857 488.514
276 1 48.418 9.52125 461 106.252 98.859 515.106
277 0 49.3692 8.99345 444 107.02 97.5721 513.705
278 0 51.3376 10.2654 527 104.896 95.5731 513.334
279 0 53.1798 11.4893 611 102.151 93.9689 511.08
280 0 58.192 12.1838 709 101.643 92.7602 508.32
281 0 59.2363 13.2689 786 99.659 91.1819 507.26
282 0 61.1183 12.9585 792 101.639 89.8523 505.383
283 0 64.1622 14.214 912 97.8936 88.9024 502.929
284 0 64.113 12.3532 792 103.29 87.7172 501.991
285 0 68.1055 14.7712 1006 96.4046 85.2336 498.686
286 0 70.1682 12.9546 909 100.378 84.9758 496.779
287 0 72.1672 12.8452 927 100.781 85.096 491.238
288 0 75.2039 13.3238 1002 99.3144 84.4721 488.442
289 0 79.0917 12.6688 1002 98.9671 85.1477 489.327
290 0 80.1156 11.5333 924 101.093 85.4372 485.021
291 0 80.1077 11.9589 958 101.434 85.7255 482.372
292 0 85.1084 12.4547 1060 99.95 87.8028 482.252
293 0 90.116 12.9056 1163 97.5572 88.8418 481.253
294 0 90.1147 13.4717 1214 98.3657 90.8616 476.495
295 0 94.2024 13.4073 1263 97.1528 92.6817 478.56
296 0 96.1324 12.5868 1210 99.7934 95.7083 477.609
297 0 98.1073 12.048 1182 101.583 99.0262 476.403
298 0 101.264 10.9911 1113 102.068 101.093 474.844
299 0 106.233 12.5949 1338 98.068 102.664 473.189
300 0 109.223 11.7466 1283 98.8581 105.398 475.892
301 0 110.284 11.4431 1262 100.85 105.007 471.601
302 0 115.258 12.8321 1479 96.0926 106.031 473.544
303 0 115.353 12.1194 1398 99.2146 106.604 474.225
304 1 64.3783 9.73931 627 95.799 106.659 503.593
305 0 67.2956 11.2786 759 90.78 106.304 501.142
306 0 70.4472 11.4838 809 89.33 104.604 502.192
307 0 73.1743 11.6844 855 90.3883 103.836 498.068
308 0 75.174 12.664 952 87.9412 102.216 498.799
309 0 77.1422 12.9501 999 87.7858 99.975 498.11
310 0 79.3158 12.3052 976 89.1865 97.4283 495.108
311 0 84.2708 12.3174 1038 88.5742 95.2225 495.498
312 0 87.2143 13.6216 1188 86.5093 93.4596 492.698
313 0 88.271 12.2464 1081 89.1304 91.5643 489.809
314 1 50.1942 10.6387 534 90.7715 91.5112 512.627
315 0 49.1396 9.54424 469 92.7292 90.8806 512.443
316 0 51.0399 10.3448 528 92.7708 88.2576 509.148
317 0 52.0415 11.1065 578 91.3581 87.1609 506.83
318 0 55.0125 10.6158 584 89.8373 85.1747 504.11
319 0 58.087 14.1512 822 84.3783 83.8589 502.471
320 0 57.1194 11.2921 645 87.5876 84.2682 502.764
321 0 61.4299 11.8672 729 91.4733 81.8834 499.184
322 0 62.1762 11.5318 717 93.7364 82.4059 497.946
323 0 62.2807 12.2189 761 92.9343 81.5677 492.968
324 0 65.2706 11.9809 782 93.1969 81.9437 493.004
325 0 67.2053 12.0824 812 92.2931 82.9076 491.631
326 0 67.3876 10.5657 712 95.4256 83.4874 490.56
327 0 70.3333 12.4408 875 91.8309 85.3406 487.717
328 0 70.3146 10.9792 772 94.2992 88.8705 487.668
329 0 75.2537 12.6638 953 89.3536 90.8793 489.268
330 0 75.2511 10.9766 826 94.4455 94.2785 488.473
331 0 80.3045 13.125 1054 91.5171 97.3311 485.491
332 0 84.3206 12.9861 1095 91.0566 99.9361 489.118
333 0 85.2358 13.8791 1183 89.9324 101.604 488.178
334 1 47.0819 10.3012 485 91.7361 102.169 507.398
335 0 46.061 10.0302 462 92.2489 102.502 507.169
336 0 48.0561 11.1536 536 92.8358 102.715 506.017
337 0 49.059 9.66183 474 96.616 103.137 509.129
338 0 51.1028 9.7255 497 95.2233 103.41 512.247
339 0 54.372 9.8948 538 97.4275 101.621 512.485
340 0 56.1432 11.5241 647 96.898 100.036 510.68
341 0 56.1037 11.9065 668 95.6617 99.0988 511.328
342 0 61.2309 13 796 93.8807 95.7211 510.819
343 0 60.2163 12.671 763 96.2792 94.4731 508.414
344 0 63.2985 13.2231 837 96.0729 93.3011 507.691
345 0 63.1599 12.2546 774 98.9961 91.5917 507.041
346 0 65.1749 13.3027 867 97.4591 89.8316 505.449
347 0 67.1676 12.1934 819 99.7094 88.5543 505.396
348 0 69.1854 13.8324 957 94.0512 88.6552 505.101
349 0 70.2249 13.3856 940 94.5266 86.5585 503.963
350 0 74.1502 14.4167 1069 92.058 84.71 502.148
351 0 77.1348 14.157 1092 91.9689 83.7601 500.625
352 0 77.2017 14.2354 1099 93.6142 82.1374 496.569
353 0 78.1493 13.2311 1034 96.3201 81.6025 493.105
354 0 83.2001 14.0384 1168 94.9144 81.1276 489.747
355 0 85.2784 13.0514 1113 97.0746 80.602 490.319
356 0 86.2189 13.257 1143 98.6203 81.3377 486.528
357 0 90.2784 12.971 1171 98.4167 81.9624 484.059
358 1 50.1778 10.2436 514 101.053 80.6693 503.881
359 0 52.1009 12.1111 631 99.7496 82.8352 502.707
360 0 52.2263 10.4928 548 101.677 83.9726 500.854
361 0 52.2263 10.5119 549 155.801 85.9599 500.8
362 0 54.3367 11.76 639 100.171 88.1565 497.202
363 0 56.7042 11.8686 673 94.9242 92.685 492.452
364 0 57.3559 13.2855 762 95.979 95.0682 498.661
365 0 59.33 12.5906 747 98.3467 97.3025 498.311
366 0 62.254 13.1076 816 97.2978 98.9412 498.009
367 0 64.2105 14.0164 900 94.9711 101.299 498.482
368 0 64.1758 12.3099 790 99.2253 102.891 500.577
369 0 67.2653 14.1232 950 95.0884 103.813 500.503
370 0 70.4839 13.9748 985 94.4812 103.953 500.117
371 0 70.2941 13.1875 927 98.2794 103.412 498.487
372 0 71.1911 12.9511 922 99.1323 102.587 499.064
373 0 75.258 13.4338 1011 97.55 101.16 498.929
374 0 79.3251 13.3753 1061 96.7578 99.4882 498.587
375 0 81.097 13.675 1109 96 97.2904 497.241
376 0 85.276 13.9547 1190 95.1681 95.9588 498.607
377 0 86.2589 14.213 1226 95.9796 94.0653 495.283
378 0 91.3288 15.8548 1448 91.8004 92.0331 494.186
379 1 46.128 10.4058 480 97.6 89.9583 516.527
380 0 48.0911 9.50279 457 95.0656 88.5449 518.063
381 0 50.0436 10.2511 513 96.3021 86.7583 514.981
382 0 51.1654 9.63543 493 96.4057 86.9615 515.836
383 0 52.2802 11.1132 581 96.8451 85.4045 510.234
384 0 54.4924 13.2129 720 89.6847 86.3333 505.962
385 0 56.4898 12.8873 728 91.5879 84.4547 504.206
386 0 56.238 14.2964 804 88.9826 83.8346 505.54
387 0 56.2443 13.8859 781 90.4213 83.023 503.883
388 0 58.2795 13.4181 782 91.266 82.8964 501.349
389 0 61.3177 12.5575 770 92.0844 82.5247 499.242
390 0 62.1466 14.0957 876 89.629 82.2637 498.447
391 0 65.3625 13.9223 910 89.2923 82.7934 497.731
392 0 65.2909 13.7845 900 91.6044 83.7344 493.827
393 0 68.2976 15.0518 1028 89.1907 84.7033 494.183
394 0 69.34 12.8641 892 94.0617 87.0348 491.453
395 0 73.1887 14.4831 1060 90.7491 89.0679 490.674
396 0 77.2788 15.4635 1195 88.1029 90.8787 489.216
397 0 76.3306 13.0354 995 94.8513 93.3709 488.628
398 1 40.0923 8.45549 339 101.726 97.4277 505.693
399 0 43.1961 10.3945 449 95.5412 99.6147 507.318
400 0 44.154 8.76478 387 98.9121 101.537 508.098
401 0 48.0999 12.5988 606 91.1584 104.408 508.526
402 0 48.2125 11.8227 570 92.3877 105.053 509.547
403 0 50.2702 12.0748 607 92.5815 104.603 508.952
