time division length width area intensity CMx CMy
0 0 43.0811 13.7647 593 127.862 202.816 486.31
1 0 45.0143 13.4846 607 127.446 205.61 487.972
2 0 45.0356 14.6773 661 125.383 207.858 485.834
3 0 47.046 14.4965 682 123.96 208.6 486.226
4 0 49.0844 13.65 670 125.154 208.528 488.096
5 0 48.0476 14.3816 691 123.502 208.275 487.233
6 0 50.0808 14.1571 709 124.044 207.59 489
7 0 51.0636 16.0976 822 119.712 206.431 489.276
8 0 51.0677 14.2164 726 125.999 204.01 488.463
9 0 52.0829 14.0737 733 126.573 203.278 489.634
10 0 53.1304 14.982 796 124.155 202.008 489.892
11 0 56.0758 12.9111 724 128.472 200.646 489.149
12 0 57.1057 14.0792 804 124.236 197.704 489.617
13 0 59.0659 14.2553 842 122.941 195.949 490.593
14 0 59.0591 15.2559 901 119.532 193.575 489.348
15 0 63.1686 14.4692 914 120.754 192.065 487.624
16 0 66.1268 14.0337 928 120.307 189.94 488.314
17 0 68.1116 15.0929 1028 118.176 187.387 486.555
18 0 69.1104 15.1641 1048 116.875 185.914 483.345
19 1 34.0792 9.56596 326 117.494 184.107 501.831
20 0 38.0347 11.8839 452 116.336 180.854 498.215
21 0 38.0266 10.7293 408 120.098 180.223 497.39
22 0 42.0612 12.886 542 117.238 181.463 495.799
23 0 44.129 13.5738 599 110.81 182.1 492.735
24 0 43.1679 12.6946 548 115.819 183.644 491.002
25 0 45.1029 14.5445 656 118.191 184.2 490.538
26 0 47.0727 13.8934 654 119.451 185.641 489.61
27 0 47.1455 14.8476 700 119.361 187.726 488.906
28 0 50.0517 14.525 727 116.794 190.483 488.468
29 0 50.1167 13.3489 669 122.946 192.17 488.353
30 0 53.0747 13.8861 737 120.157 194.198 488.422
31 0 54.0773 13.2033 714 121.403 196.84 488.153
32 0 57.1848 14.5144 830 116.937 197.759 487.812
33 0 59.0575 14.1896 838 117.73 201.018 488.9
34 0 61.1046 14.7779 903 115.089 200.724 487.556
35 0 63.1547 13.7599 869 116.018 201.257 490.43
36 0 64.1564 14.6829 942 115.825 200.705 488.826
37 0 68.12 15.0616 1026 114.402 200.474 488.813
38 0 69.1556 14.4602 1000 116.662 198.883 487.975
39 0 73.2475 14.3759 1053 116.124 197.896 486.702
40 0 75.1418 15.1846 1141 114.091 196.201 486.505
41 1 39.0756 9.28969 363 114.559 194.691 507.342
42 0 41.195 9.95266 410 108.639 192.005 505.071
43 0 43.0832 10.677 460 110.85 190.467 506.78
44 0 45.0558 12.1627 548 107.75 186.642 504.261
45 0 47.0618 12.6855 597 107.385 184.211 505.164
46 0 46.1159 12.8589 593 104.162 182.715 500.786
47 0 47.0635 13.3012 626 100.07 181.514 502.532
48 0 50.1149 12.5711 630 100.89 179.581 501.203
49 0 51.1067 12.5424 641 101.134 178.888 499.562
50 0 54.0834 12.832 694 100.804 177.14 499.213
51 0 55.1504 12.2755 677 102.939 176.177 494.418
52 0 56.2028 12.2948 691 102.469 174.972 493.397
53 0 60.0961 12.7962 769 100.352 174.114 491.557
54 0 62.1565 12.1789 757 102.279 172.774 487.535
55 0 63.0567 14.4156 909 97.967 173.437 485.727
56 0 66.1086 12.7064 840 105.102 173.581 485.387
57 0 69.1126 14.9177 1031 100.038 174.918 480.712
58 0 72.1058 14.2846 1030 101.813 176.156 479.816
59 0 75.2374 14.9261 1123 100.967 176.968 479.531
60 1 41.1108 9.53521 392 98.4031 180.541 499.324
61 0 43.0794 8.56557 369 100.444 183.461 498.691
62 0 43.063 9.56739 412 100.471 185.148 498.468
63 0 46.063 11.5494 532 100.461 187.897 496.804
64 0 46.0171 11.6261 535 100.789 189.452 496.908
65 0 47.1024 11.4219 538 103.048 190.9 496.58
66 0 50.0498 11.5085 576 101.524 190.278 496.927
67 0 51.1304 12.9277 661 100.365 192.719 498.371
68 0 53.1445 13.2657 705 104.791 193.655 497.973
69 0 55.1408 14.3995 794 101.571 192.291 500.15
70 0 56.2096 14.1613 796 103.508 192.47 500.415
71 0 58.1319 14.037 816 104.778 191.244 498.267
72 0 62.1494 16.2029 1007 99.2642 190.103 498.214
73 0 62.1713 14.6692 912 103.775 188.753 496.879
74 0 63.1409 14.7765 933 103.199 186.85 499.159
75 0 66.1229 14.7453 975 104.299 183.382 499.065
76 0 70.1155 13.7345 963 106.634 182.377 496.946
77 0 72.1077 14.728 1062 104.902 180.338 496.654
78 1 35.0754 11.4325 401 106.748 176.716 514.077
79 0 37.0754 10.3033 382 108.982 175.06 513.783
80 0 38.1104 12.9361 493 104.694 173.83 512.637
81 0 38.0568 9.82742 374 105.447 171.96 510.631
82 0 41.0199 11.3603 466 100.667 170.974 510.708
83 0 43.1201 11.7578 507 100.704 169.049 508.637
84 0 44.0901 12.6332 557 104.709 167.777 505.508
85 0 46.1244 14.2007 655 101.676 167.464 502.649
86 0 48.179 12.7441 614 109.598 167.111 502.581
87 0 48.1768 13.7826 664 108.09 166.83 501.934
88 0 48.0763 12.8754 619 112.921 166.473 499.037
89 0 51.1582 13.5071 691 109.703 166.731 498.124
90 0 52.144 12.9257 674 108.596 167.574 496.684
91 0 52.1342 12.909 673 112.508 169.088 495.107
92 0 54.0796 13.3322 721 111.434 169.589 493.854
93 0 56.1037 13.2077 741 111.043 171.408 491.682
94 0 58.097 13.0988 761 107.608 174.226 489.891
95 0 60.1573 13.3151 801 107.493 176.276 490.137
96 0 63.2185 13.3031 841 106.888 179.891 490.044
97 0 65.0703 13.155 856 106.979 182.567 489.872
98 0 65.1522 12.371 806 109.352 184.367 488.736
99 0 69.1392 13.3644 924 107.258 185.66 488.184
100 0 70.1542 13.3848 939 108.499 187.481 489.017
101 0 73.1986 14.1669 1037 107.273 187.789 488.493
102 0 74.1885 13.3983 994 109.535 187.951 486.872
103 0 79.1855 14.1566 1121 106.009 187.425 489.401
104 0 81.2066 14.3831 1168 106.607 187.015 488.064
105 0 84.1612 12.9751 1092 110.542 186.185 489.006
106 0 86.3343 13.8647 1197 109.69 184.515 488.646
107 0 88.1629 14.3031 1261 108.423 182.762 484.374
108 0 90.2476 12.5543 1133 111.59 180.796 485.146
109 1 48.1798 10.3363 498 104.797 178.958 508.024
110 0 50.2539 8.79534 442 103.484 177.303 509.17
111 0 51.1873 11.0965 568 103.974 175.857 507.766
112 0 52.4095 9.34945 490 108.284 173.212 507.173
113 0 54.1351 12.4688 675 102.499 171.711 505.07
114 0 56.2208 12.0952 680 103.437 170.425 502.206
115 0 58.6017 12.4058 727 109.029 168.729 502.629
116 0 61.3994 13.3226 818 103.714 167.548 499.523
117 0 63.5214 14.5935 927 101.796 166.152 499.374
118 0 62.3365 13.1704 821 107.029 165.314 496.386
119 0 68.3358 15.7897 1079 99.7572 164.399 495.86
120 0 68.27 13.0658 892 109.8 163.334 493.988
121 0 72.3892 15.0851 1092 105.325 163.414 490.577
122 0 74.5037 13.7577 1025 109.747 162.58 487.103
123 0 78.4022 15.0251 1178 105.918 163.143 485.935
124 0 81.4875 14.9716 1220 104.976 163.462 484.04
125 0 83.2725 15.2031 1266 105.518 165.145 480.212
126 1 43.368 10.5147 456 109.476 167.928 500.528
127 0 46.3103 11.5309 534 104.382 171.485 502.122
128 0 44.3748 10.2536 455 109.796 173.36 501.596
129 0 47.3946 10.0011 474 104.975 174.842 504.268
130 0 49.3167 11.1321 549 102.94 177.062 500.725
131 0 49.1328 10.8481 533 97.7786 178.313 499.585
132 0 53.2344 12.398 660 100.185 181.726 499.739
133 0 54.2937 12.6166 685 99.3942 183.981 501.315
134 0 56.4184 12.1769 687 100.776 184.672 502.019
135 0 56.3805 11.582 653 102.319 186.1 502.487
136 0 59.2836 12.0775 716 100.36 185.592 502.507
137 0 61.3037 12.2831 753 100.046 186.361 501.567
138 0 64.3688 11.8691 764 99.7722 185.051 504.342
139 0 65.4791 11.8817 778 100.927 183.959 501.148
140 0 69.399 13.444 933 99.9871 183.151 501.556
141 0 72.2111 13.2805 959 100.826 180.678 499.621
142 0 75.1775 13.0624 982 103.537 178.698 499.13
143 0 76.2277 13.7745 1050 102.19 177.083 501.48
144 0 78.2139 12.7343 996 105.213 175.901 496.885
145 0 82.3227 14.759 1215 101.009 171.94 492.491
146 0 86.2604 13.5636 1170 97.7359 171.287 493.444
147 1 44.2073 11.4687 507 99.5759 169.505 511.68
148 0 46.2388 9.96999 461 101.939 169.115 512.388
149 0 48.351 10.5272 509 103.336 168.46 511.554
150 0 49.2057 10.8524 534 102.069 167.247 511.547
151 0 49.3922 10.8722 537 102.935 165.512 508.631
152 0 55.1104 12.7018 700 97.8114 164.65 505.773
153 0 54.2884 12.3415 670 100.409 163.796 502.745
154 0 58.3685 14.5112 847 95.0059 163.697 502.191
155 0 59.3055 13.9616 828 96.6377 162.383 501.167
156 0 61.3123 14.2386 873 96.2073 162.852 498.245
157 0 61.2656 13.923 853 96.8511 163.451 497.157
158 0 62.2434 13.5757 845 98.1314 164.712 497.363
159 0 64.2187 12.9713 833 99.6206 166.013 493.345
160 0 66.1562 14.5565 963 96.8235 166.751 490.726
161 0 70.2886 14.2982 1005 96.6448 169.168 490.13
162 0 73.2458 14.6903 1076 96.8903 171.504 490.613
163 0 72.2558 12.9263 934 104.361 175.171 489.684
164 0 74.261 12.9408 961 103.848 176.71 488.674
165 0 79.2372 13.1883 1045 101.591 179.463 489.235
166 0 82.1279 14.5018 1191 99.3409 180.877 488.55
167 0 83.2045 12.8358 1068 103.667 181.322 486.699
168 1 44.1696 11.1615 493 101.308 183.986 508.803
169 0 46.0959 10.2612 473 91.7611 183.82 508.18
170 0 46.0761 12.0019 553 97.0615 182.056 508.769
171 0 48.0393 11.8653 570 101.091 179.996 508.509
172 0 49.1281 12.1112 595 98.3916 178.795 510.724
173 0 50.1822 12.4546 625 98.7776 177.888 509.683
174 0 50.1054 13.1123 657 98.9254 176.712 509.909
175 0 52.0946 13.3603 696 98.375 175.32 509.157
176 0 52.0701 12.0991 630 102.068 173.137 509.802
177 0 56.2873 14.1595 797 98.0213 171.215 507.035
178 0 59.1061 13.6026 804 98.9353 168.848 506.535
179 0 59.1525 12.4255 735 100.868 167.706 507.797
180 0 62.1653 12.9172 803 99.3973 165.36 504.945
181 0 62.0891 12.5465 779 102.024 164.593 503.562
182 0 65.2119 13.6938 893 99.8085 162.287 500.748
183 0 68.1833 14.065 959 100.01 161.859 498.509
184 0 71.0766 13.6754 972 100.023 160.119 497.825
185 1 38.1042 9.05413 345 106.814 158.226 510.783
186 0 41.0845 10.2715 422 104.173 157.358 509.118
187 0 40.0984 10.4244 418 104.856 157.163 507.966
188 0 43.0562 10.1031 435 105.184 157.317 506.483
189 0 40.0515 7.6152 305 98.4688 159.22 504.239
190 0 43.043 9.54859 411 96.1703 160.706 503.241
191 0 44.1074 10.2704 453 96.3664 161.616 498.876
192 0 46.0664 10.8105 498 95.5281 163.189 497.723
193 0 48.0318 13.262 637 92.6107 165.039 498.429
194 0 49.1929 11.9733 589 97.2733 166.927 499.389
195 0 49.0975 12.4446 611 96.712 169.412 494.673
196 0 51.2056 12.9088 661 97.0605 172.705 498.174
197 0 51.1071 11.4465 585 100.752 174.803 497.207
198 0 55.0855 12.4171 684 98.9547 177.216 497.684
199 0 54.0448 12.1381 656 101.032 179.864 497.819
200 0 57.0298 11.4852 655 102.806 182.078 497.136
201 0 59.0411 12.432 734 101.489 181.658 497.154
202 0 61.0982 13.3556 816 102.544 182.544 497.891
203 0 63.0712 13.9049 877 102.197 183.447 496.999
204 0 67.083 13.1181 880 104.047 183.545 496.37
205 0 69.1077 13.3849 925 103.756 182.718 497.481
206 0 67.0911 13.6382 915 107.683 181.457 495.716
207 1 36.0229 10.41 375 100.115 179.267 514.971
208 0 37.0279 10.6136 393 101.041 177.412 515.321
209 0 39.1389 9.1469 358 98.8799 176.522 518.732
210 0 41.0559 10.4004 427 100.515 174.016 515.986
211 0 41.0182 10.5807 434 101.594 172.092 516.486
212 0 44.1713 13.176 582 108.725 169.498 511.019
213 0 45.0491 11.9869 540 102.233 165.789 510.754
214 0 46.0238 13.4496 619 109.153 164.981 513.249
215 0 47.1529 13.7213 647 105.771 164.298 509.881
216 0 48.0531 12.6943 610 107.149 162.328 507.667
217 0 50.1137 13.0104 652 104.954 161.69 507.456
218 0 53.0541 13.7595 730 103.863 160.07 505.903
219 0 52.0802 13.076 681 107.996 159.567 501.485
220 0 53.0357 13.1421 697 108.836 159.504 499.297
221 0 56.029 12.2258 685 108.285 159.564 500.828
222 0 58.0684 13.0019 755 106.748 159.656 497.287
223 0 57.0979 14.6941 839 105.729 160.474 493.168
224 0 60.0954 13.1125 788 106.34 160.829 493.055
225 0 62.0701 12.7114 789 107.458 162.923 491.009
226 0 63.2056 13.3691 845 106.972 165.207 492.025
227 0 67.1338 14.3594 964 103.466 167.842 492.219
228 0 67.07 12.6882 851 108.407 170.006 488.551
229 0 70.0908 12.8262 899 108.281 171.969 488.713
230 0 72.2117 12.7542 921 108.689 175.556 489.04
231 0 75.0693 13.6407 1024 107.772 176.646 487.804
232 0 78.079 14.7799 1154 108.766 178.117 490.561
233 0 80.0921 13.447 1077 112.406 179.407 490.491
234 1 43.0222 9.32077 401 104.696 181.319 504.302
235 0 43.0345 9.15544 394 107.117 181.759 508.348
236 0 46.0793 10.6555 491 108.13 180.424 512.599
237 0 49.0852 10.9402 537 107.425 179.663 512.104
238 0 49.0684 11.0051 540 134.369 178.674 512.211
239 0 49.0728 11.5746 568 105.736 177.086 509.368
240 0 53.0226 12.2778 651 104.949 175.358 511.849
241 0 54.0324 12.9182 698 105.149 172.877 508.172
242 0 55.0579 11.8239 651 108.186 172.147 508.747
243 0 57.0586 12.1805 695 107.603 171.708 509.987
244 0 60.1346 12.7215 765 105.644 168.433 506.383
245 0 62.026 12.398 769 105.546 168.14 506.661
246 0 63.2301 12.8894 815 108.545 165.453 505.015
247 0 68.1354 13.4878 919 106.689 163.146 503.135
248 0 69.1235 11.7616 813 108.744 162.128 500.124
249 0 70.1094 12.8228 899 107.715 160.61 497.616
250 0 70.2237 11.5346 810 111.777 159.073 494.996
251 0 76.0922 11.6569 887 109.001 158.847 492.554
252 0 77.0249 12.3986 955 108.308 157.887 491.355
253 0 79.0339 11.843 936 109.907 157.8 488.897
254 0 83.2783 12.7764 1064 107.64 157.363 483.164
255 0 84.1726 13.104 1103 106.908 156.979 478.8
256 1 44.0343 10.0149 441 98.8571 156.735 502.58
257 0 45.0544 10.3874 468 99.9145 159.419 501.669
258 0 52.0544 8.37585 436 99.0459 159.413 501.057
259 0 48.0779 10.0046 481 105.682 161.769 498.389
260 0 52.2157 11.644 608 101.768 163.396 498.893
261 0 53.0519 11.1777 593 102.631 164.981 497.476
262 0 55.0477 10.7907 594 103.121 167.727 495.699
263 0 54.0794 11.8899 643 102.188 170.816 497.353
264 0 56.0639 9.56051 536 106.341 173.834 493.75
265 0 57.0375 10.5895 604 103.656 176.45 492.945
266 0 59.1514 8.96006 530 106.553 178.006 491.758
267 0 65.2477 11.5713 755 104.274 182.083 493.518
268 0 66.2536 13.1766 873 102.502 182.16 493.683
269 0 71.2438 12.7309 907 102.006 183.362 494.534
270 1 38.0791 8.42982 321 105.52 182.056 511.938
271 0 40.0724 10.7555 431 102.429 182.55 510.197
272 0 40.1099 9.87286 396 103.503 182.182 512.939
273 0 43.0141 10.6709 459 105.196 179.95 509.939
274 0 46.1113 11.4072 526 101.251 174.532 512.964
275 0 44.103 9.84059 434 96.1429 176.696 510.82
276 0 46.2026 11.2548 520 94.3442 173.992 511.758
277 0 48.0753 11.1076 534 100.067 170.979 511.712
278 0 49.0528 10.4989 515 97.2874 169.953 510.967
279 0 50.0538 11.6275 582 92.9605 168.498 510.979
280 0 53.0608 12.3632 656 92.8415 167.067 507.636
281 0 53.0513 10.8574 576 96.7153 165.67 511.111
282 0 55.0648 10.6783 588 95.1837 163.478 502.731
283 0 58.0601 11.1264 646 92.7554 162.902 501.924
284 0 59.0659 13.1379 776 90.3209 161.527 501.374
285 0 58.077 11.8636 689 92.1219 158.872 497.476
286 0 59.0373 13.3814 790 91.5949 158.909 495.328
287 0 61.0392 12.7131 776 93.7474 158.845 492.83
288 0 66.2675 11.7101 776 95.491 158.285 491.759
289 0 68.2824 11.8478 809 96.2806 158.758 487.46
290 0 71.1209 13.3716 951 93.4427 159.151 487.547
291 0 74.1058 14.7897 1096 91.4352 159.546 485.107
292 0 76.0777 13.3548 1016 95.0492 161.685 486.745
293 0 76.114 11.9426 909 99.6447 162.656 482.784
294 1 37.0846 7.19976 267 96.3745 165.052 503.959
295 0 41.0665 9.05848 372 94.0833 166.801 505.234
296 0 43.1309 9.48276 409 96.5354 169.91 504.306
297 0 44.0564 11.5761 510 101.114 172.925 505.437
298 0 46.0918 11.8025 544 100.86 175.057 504.728
299 0 47.1161 12.7557 601 96.1498 177.371 504.898
300 0 49.0453 12.0501 591 98.6971 179.335 503.724
301 0 50.1848 13.7292 689 96.0377 179.122 504.308
302 0 51.1464 13.1192 671 102.706 180.051 506.329
303 0 51.106 12.8361 656 104.486 181.521 505.521
304 0 54.0863 13.7188 742 101.38 181.329 508.969
305 0 56.0396 15.6853 879 99.5961 179.52 498.48
306 0 57.2449 12.8046 733 104.997 179.258 507.864
307 0 58.0829 12.6888 737 101.091 178.723 505.526
308 0 57.0859 12.4374 710 101.458 176.718 502.679
309 0 60.1165 14.2723 858 97.7681 175.16 504.35
310 0 63.1242 12.4675 787 100.752 172.704 504.437
311 0 63.0892 14.7886 933 97.7192 170.72 503.076
312 0 67.0174 13.5786 910 102.598 168.688 503.019
313 0 69.0994 15.4271 1066 98.2411 167.147 499.767
314 0 69.0996 13.8206 955 104.028 165.963 500.963
315 0 74.0566 14.9345 1106 102.132 164.797 498.505
316 0 75.0726 15.0521 1130 102.462 163.029 495.766
317 0 79.0674 14.6963 1162 102.255 161.437 495.138
318 0 83.1624 15.8245 1316 96.617 159.565 490.378
319 0 84.14 14.1669 1192 101.437 159.082 487.328
320 1 45.0247 10.4831 472 100.839 158.5 509.617
321 0 47.0388 11.3523 534 100.14 158.395 507.601
322 0 48.0352 10.7838 518 101.784 158.371 505.546
323 0 48.0678 12.5864 605 100.691 156.765 503.483
324 0 51.2113 13.5517 694 102.996 156.983 501.977
325 0 54.1012 13.4008 725 99.9724 157.913 501.923
326 0 54.0883 13.7738 745 102.616 158.781 496.945
327 0 59.1474 14.9288 883 97.7769 160.523 496.313
328 0 59.0994 14.1795 838 99.957 164.074 497.632
329 0 62.0893 15.0912 937 96.2209 166.355 494.425
330 0 63.1544 14.4408 912 99.6667 169.482 496.209
331 0 66.1422 14.1967 939 100.946 172.593 494.077
332 0 68.1456 14.2342 970 101.604 175.344 494.266
333 0 70.1879 13.7061 962 103.501 177.598 495.828
334 0 73.1294 14.4675 1058 101.444 179.387 495.274
335 0 75.1108 15.4705 1162 100.312 179.808 492.354
336 0 76.0722 13.6844 1041 105.715 179.985 493.127
337 0 81.1521 14.9719 1215 101.943 179.995 493.677
338 0 83.0796 14.5282 1207 103.572 180.283 493.903
339 0 84.0766 13.678 1150 106.509 178.037 493.15
340 1 47.0626 11.3041 532 104.335 175.754 513.321
341 0 49.0671 9.8029 481 106.667 174.971 513.977
342 0 48.0402 9.49206 456 98.4013 172.822 513.934
343 0 52.0372 11.8377 616 94.8636 171.719 513.701
344 0 52.1239 11.3767 593 99.059 170.433 511.675
345 0 54.1595 13.1094 710 99.1887 170.152 509.654
346 0 57.4776 11.8307 680 99.1706 168.135 509.574
347 0 57.2628 12.888 738 97.9255 166.866 508.306
348 0 61.2662 14.4125 883 94.333 166.959 509.393
349 0 60.3948 12.2858 742 99.8437 164.446 504.202
350 0 64.3779 13.5761 874 96.2506 162.769 504.989
351 0 63.1954 12.311 778 94.4756 160.522 498.285
352 0 66.0944 12.9663 857 93.0572 158.94 496.203
353 0 66.4078 12.5889 836 94.927 158.355 492.943
354 0 72.3397 13.2293 957 93.3511 158.016 492.438
355 0 73.3557 12.1463 891 97.0516 157.416 489.65
356 0 76.1871 13.9 1059 95.543 157.984 485.804
357 0 78.1465 14.1145 1103 103.442 157.932 486.337
358 0 80.1749 12.8843 1033 107.331 157.458 486.439
359 1 39.0536 6.78555 265 108.147 158.774 509.419
360 0 42.117 9.92472 418 104.885 159.794 505.39
361 0 42.117 9.90098 417 147.338 160.782 505.412
362 0 46.0886 10.8053 498 103.938 164.131 501.104
363 0 47.0236 10.7393 505 102.202 167.131 501.719
364 0 49.1527 13.4072 659 97.9605 170.483 501.625
365 0 50.2557 12.8941 648 88.3503 173.897 499.073
366 0 51.0396 11.305 577 91.5147 175.636 501.591
367 0 50.0731 10.8641 544 93.9743 178.061 502.585
368 0 54.0631 11.2646 609 93.2069 180.819 503.839
369 0 54.0631 11.1906 605 135.079 182.81 503.778
370 0 57.0781 12.0887 690 92.8681 181.49 503.277
371 0 59.0868 12.067 713 96.9748 180.872 505.742
372 0 60.2579 11.7329 707 97.8373 180.311 504.044
373 0 63.095 12.188 769 97.9402 178.763 503.205
374 0 64.1154 11.2142 719 98.822 177.256 506.627
375 0 68.1537 11.7088 798 97.6341 174.862 503.261
376 0 69.1818 13.4718 932 96.2725 173.617 502.938
377 0 71.1178 12.3317 877 100.31 171.583 501.961
378 0 74.1046 13.4405 996 99.008 169.561 501.092
379 0 75.0957 12.1978 916 103.354 168.267 501.236
380 1 43.0794 10.469 451 101.188 167.089 517.109
381 0 44.0148 10.4283 459 101.647 165.155 516.401
382 0 44.0097 11.5884 510 102.341 164.62 514.231
383 0 46.0635 11.3105 521 103.743 162.937 513.658
384 0 48.0455 11.3226 544 102.195 161.89 514.018
385 0 47.1127 11.8652 559 102.547 158.445 510.975
386 0 48.2358 11.1121 536 104.972 156.89 508.901
387 0 51.2046 14.198 727 98.4842 156.311 506.875
388 0 50.0874 11.3002 566 106.247 156.088 504.042
389 0 52.0418 12.2594 638 103.418 155.881 502.077
390 0 53.1004 11.9962 637 104.126 155.783 500.38
391 0 55.0691 10.7501 592 105.348 156.242 500.696
392 0 56.0538 11.489 644 104.469 157.43 498.876
393 0 58.086 11.7068 680 103.903 158.569 497.466
394 0 58.1582 10.9701 638 105.025 160.876 497.114
395 0 62.0837 11.1785 694 103.232 163.056 495.236
396 0 63.0196 10.6475 671 103.167 165.083 493.991
397 1 33.0257 6.38896 211 100.521 168.171 509.611
398 0 36.0214 9.4666 341 98.6129 171.431 506.185
399 0 38.0382 9.14871 348 95.1437 173.848 509.193
400 0 34.0137 7.73217 263 94.1901 174.89 506.681
401 0 39.0154 10.1755 397 90.7582 177.924 510.194
402 0 39.0538 9.44852 369 92.3604 178.743 511.488
403 0 42.0529 10.8197 455 92.8813 178.971 510.275
