time division length width area intensity CMx CMy
0 0 45.0427 13.3207 600 114.383 1110.58 485.313
1 0 45.064 12.8484 579 114.104 1113.23 486.851
2 0 48.0655 14.1057 678 110.661 1115.46 485.982
3 0 49.0516 13.6795 671 113.086 1115.26 486.411
4 0 51.0901 13.2707 678 113.528 1115.23 487.305
5 0 50.034 13.1311 657 113.12 1115.08 487.93
6 0 53.0325 13.9537 740 108.8 1114.44 487.949
7 0 54.0325 13.3438 721 112.284 1113.15 489.107
8 0 54.0325 13.2883 718 150.625 1111.16 489.12
9 0 54.0512 14.4678 782 146.556 1109.26 487.939
10 0 58.0707 13.8796 806 111.186 1109.54 488.552
11 0 60.0671 14.2008 853 109.807 1108.29 487.748
12 0 63.1502 13.65 862 106.704 1105.49 489.984
13 0 64.1225 13.8017 885 104.946 1103.51 486.238
14 0 68.0524 15.0913 1027 98.7566 1101.32 489.345
15 0 69.109 13.3123 920 103.576 1099.89 488.155
16 0 69.1061 12.3723 855 104.186 1097.37 488.715
17 0 72.1567 12.9441 934 102.639 1094.55 487.065
18 1 36.1341 10.6271 384 102.396 1092.89 503.299
19 0 39.1896 11.4571 449 102.02 1092.35 500.947
20 0 42.0926 11.9261 502 101.673 1088.34 498.833
21 0 42.0703 11.4808 483 101.507 1089.08 497.151
22 0 45.0673 12.6921 572 97.465 1089.51 496.198
23 0 46.2854 12.4445 576 99.4878 1090.77 491.248
24 0 49.0652 14.654 719 93.0153 1091.47 492.337
25 0 50.072 14.599 731 93.0369 1091.46 492.356
26 0 52.0272 13.9927 728 93.022 1093.16 492.282
27 0 49.079 12.1029 594 98.7896 1095.06 492.862
28 0 50.0369 10.892 545 100.857 1097.44 491.839
29 0 54.0672 13.2058 714 96.4314 1099.15 489.269
30 0 56.0449 13.7925 773 94.1539 1101.37 489.493
31 0 60.0661 13.8015 829 93.1339 1104.1 489.475
32 0 61.1129 13.7123 838 93.8699 1105.1 490.177
33 0 62.1436 14.4665 899 93.1568 1108.33 488.883
34 0 65.0704 14.8916 969 91.7957 1107.94 489.025
35 0 64.0922 13.933 893 95.5174 1108.61 488.335
36 0 68.089 15.3769 1047 93.4823 1108.18 489.566
37 0 70.1015 13.4947 946 98.1882 1107.97 490.603
38 0 72.0715 14.9435 1077 96.4726 1106.48 488.992
39 0 75.0388 13.3931 1005 100.483 1105.73 489.259
40 0 80.1302 15.375 1232 96.0812 1104.1 490.111
41 0 80.1059 14.5058 1162 100.096 1101.21 487.464
42 0 83.1089 14.6916 1221 98.6953 1099.45 488.597
43 0 83.1089 14.6434 1217 137.523 1096.43 488.622
44 0 85.1273 13.6384 1161 102.432 1093.85 485.777
45 0 91.1473 13.3081 1213 101.201 1092.27 486.91
46 1 49.0624 11.5771 568 100.5 1091.62 507.905
47 0 50.0462 12.2287 612 101.359 1090.04 505.087
48 0 53.0281 12.0502 639 101.488 1088.16 503.685
49 0 54.1437 12.67 686 99.7668 1086.93 502.357
50 0 56.1425 12.0586 677 102.685 1085.04 499.349
51 0 58.0912 13.9264 809 98.3597 1083.34 495.12
52 0 59.0997 12.3182 728 95.4547 1082.25 497.279
53 0 61.0603 14.15 864 93.2338 1081.39 493.492
54 0 65.0872 13.6586 889 92.8189 1080.25 493.736
55 0 65.0977 12.873 838 94.9678 1080.76 490.039
56 0 67.0978 12.7873 858 96.0886 1081.37 489.469
57 0 69.2327 12.9419 896 95.1362 1082.52 487.556
58 0 74.2154 13.8246 1026 93.6784 1083.7 483.136
59 0 77.1393 13.6766 1055 94.5829 1084.65 482.855
60 0 78.0654 13.5784 1060 95.734 1088.24 480.484
61 1 41.0502 9.84162 404 99.8416 1091.84 501.243
62 0 42.1703 12.7341 537 96.0391 1094.32 499.175
63 0 43.1064 12.1328 523 97.8356 1096.96 499.47
64 0 44.1283 11.8745 524 99.6584 1098.46 498.611
65 0 46.0676 12.3514 569 99.4077 1098.71 497.677
66 0 48.0702 12.4193 597 98.5528 1098.14 499.529
67 0 51.0375 13.5391 691 93.4081 1100.6 503.158
68 0 52.0433 13.8923 723 94.491 1101.64 502.238
69 0 52.1938 13.5265 706 96.0071 1100.95 501.789
70 0 52.0984 13.6664 712 97.861 1101.03 502.517
71 0 53.1551 13.2066 702 103.395 1099.9 502.261
72 0 56.1505 13.5707 762 101.753 1099.3 501.757
73 0 57.0791 15.9603 911 94.1032 1098.08 501.906
74 0 58.1484 13.9643 812 97.7426 1096.25 502.139
75 0 60.0707 14.0501 844 97.6031 1092.63 502.379
76 0 61.1619 14.8622 909 96.4642 1091.81 501.497
77 0 62.0798 15.1257 939 99.1704 1088.81 502.431
78 0 63.2895 15.6898 993 97.9235 1085.47 500.294
79 0 63.2677 15.1578 959 99.001 1083.91 499.689
80 0 65.1738 15.1595 988 98.253 1082.38 497.84
81 0 64.188 14.3485 921 102.801 1080.38 497.156
82 0 66.2387 14.7799 979 95.6547 1079.84 493.783
83 0 69.142 14.4051 996 95.5633 1078.05 490.53
84 0 72.1456 14.5262 1048 93.6088 1076.65 489.049
85 0 75.1061 14.1933 1066 93.3743 1075.48 488.148
86 0 78.1375 14.7432 1152 93.2214 1074.71 486.112
87 1 39.0234 10.5578 412 92.2379 1074.4 504.617
88 0 40.1925 9.40474 378 99.2831 1075.82 502.511
89 0 39.0301 10.7097 418 95.3493 1075.24 500.416
90 0 41.0388 9.91745 407 94.2678 1074.94 499.771
91 0 45.0614 12.5385 565 97.8673 1076.61 502.513
92 0 47.1285 13.8133 651 95.6575 1076.97 499.949
93 0 49.0791 13.468 661 96.0363 1079.83 499.767
94 0 51.1302 13.6905 700 99.07 1082.2 498.58
95 0 53.0443 15.2514 809 96.4413 1084.36 498.682
96 0 55.094 14.6114 805 98.2012 1087.82 497.754
97 0 56.1747 13.8318 777 97.7387 1090.94 498.867
98 0 58.1751 15.2643 888 94.2995 1092.89 497.976
99 0 61.0331 13.5336 826 96.7881 1093.16 498.648
100 0 62.1404 15.5454 966 93.4234 1095.07 499.218
101 0 62.1089 13.106 814 100.251 1095.38 498.52
102 0 66.1282 14.8802 984 97.5843 1095.68 499.706
103 0 68.0447 14.5199 988 101.581 1094.71 499.843
104 0 71.0583 13.693 973 104.099 1094.47 497.627
105 0 72.083 14.6498 1056 102.729 1093.29 496.48
106 0 76.1559 14.8774 1133 98.8658 1092.04 496.378
107 1 36.0322 10.6571 384 102.661 1089.85 515.914
108 0 40.0971 11.3475 455 98.8308 1087.55 516.82
109 0 40.0142 11.0961 444 101.462 1086.06 516.268
110 0 41.0242 10.311 423 101.035 1084.63 515.79
111 0 43.0481 11.1968 482 99.3071 1082.84 514.45
112 0 44.0244 12.6294 556 94.8597 1080.03 513.541
113 0 44.035 12.0813 532 99.1203 1078.18 512.756
114 0 45.0671 11.5827 522 99.9349 1077.23 511.561
115 0 50.0356 12.9108 646 97.5557 1075.24 510.014
116 0 50.0589 13.0646 654 97.4557 1074.18 508.671
117 0 53.0215 13.5228 717 95.8396 1072.79 508.119
118 0 54.0968 12.1264 656 99.2607 1071.87 506.354
119 0 55.0215 13.831 761 96.6465 1071.27 504.875
120 0 55.1761 13.1579 726 100.667 1070.88 500.642
121 0 58.2395 13.4273 782 100.096 1071.08 499.37
122 0 59.0769 12.5937 744 102.7 1070.21 497.668
123 0 62.2616 14.5194 904 98.5542 1070.78 494.7
124 0 64.1193 14.3482 920 98.7304 1070.91 494.592
125 0 66.0622 14.2139 939 99.5069 1072.76 493.35
126 0 68.128 13.6214 928 99.9041 1074.79 493.803
127 0 68.128 13.6948 933 132.537 1076.8 493.792
128 0 69.3134 12.797 887 104.61 1080.03 491.423
129 0 70.291 12.6759 891 136.085 1083.03 491.48
130 1 40.085 9.35513 375 104.901 1083.21 509.179
131 0 43.0636 11.0302 475 103.453 1084.5 506.834
132 0 43.0638 10.914 470 138.849 1085.5 506.972
133 0 44.0623 10.5759 466 105.485 1090.14 508.043
134 0 47.0534 12.0927 569 99.8366 1091.04 512.633
135 0 49.1207 10.9933 540 101.365 1092.32 512.011
136 0 48.1201 10.9725 528 103.034 1092.61 511.968
137 0 49.2437 13.0372 642 100.241 1094.37 510.065
138 0 51.2689 12.3467 633 101.183 1093.08 510.131
139 0 53.0343 12.2185 648 101.017 1090.84 509.12
140 0 53.0343 12.1996 647 132.997 1089.83 509.1
141 0 56.0366 12.4205 696 100.29 1087 509.759
142 0 60.208 13.171 793 97.7226 1084.75 507.019
143 0 61.3003 14.2414 873 95.5109 1083.23 510.016
144 0 64.0638 14.0329 899 97.7608 1082.07 504.167
145 0 66.1079 13.0544 863 100.238 1078.38 503.006
146 0 68.1932 13.7404 937 98.778 1077.9 505.227
147 0 70.1582 14.0967 989 98.726 1075.38 501.835
148 0 73.1845 13.951 1021 104.268 1074.95 500.961
149 0 74.136 13.2864 985 105.997 1074.4 498.848
150 0 78.1787 12.7784 999 104.503 1073.04 498.893
151 0 82.0908 15.2149 1249 99.0016 1072.02 495.416
152 0 84.2418 13.6037 1146 102.885 1071.23 492.394
153 0 87.0948 12.9055 1124 103.229 1070.72 491.12
154 0 91.1848 13.7523 1254 100.274 1070.86 488.784
155 1 48.1083 12.1185 583 97.0806 1068.98 509.285
156 0 50.0463 11.6692 584 97.1507 1069.85 506.952
157 0 53.0156 11.4683 608 99.2993 1070.83 504.306
158 0 54.0759 12.5749 680 96.7809 1071.79 504.222
159 0 57.0803 14.173 809 91.0606 1072.56 501.8
160 0 60.104 14.0922 847 90.9091 1073.83 498.268
161 0 62.0492 13.6343 846 93.0165 1076.11 497.681
162 0 62.0497 13.2474 822 95.7822 1078.18 497.259
163 0 65.064 14.2629 928 97.2403 1081.87 495.817
164 0 69.148 14.3894 995 96.7497 1083.81 497.162
165 0 70.1446 14.5699 1022 97.0871 1086.75 494.404
166 0 75.0438 14.3516 1077 97.0585 1087.84 496.673
167 0 78.2049 13.861 1084 102.472 1089.17 496.376
168 1 40.039 10.6896 428 101.986 1090.02 514.39
169 0 42.0456 11.1545 469 102.618 1089.43 514.446
170 0 43.0374 10.5954 456 104.351 1090.12 514.993
171 0 46.0181 11.778 542 101.1 1088.52 515.47
172 0 46.0589 12.788 589 98.18 1089.59 514.645
173 0 47.11 12.1206 571 100.117 1088.49 509.289
174 0 49.1127 12.6037 619 98.8578 1086.61 508.822
175 0 51.0872 13.5259 691 99.5644 1085.75 512.942
176 0 52.1237 13.1226 684 101.051 1083.26 512.398
177 0 54.0553 12.9682 701 97.913 1080.31 512.508
178 0 54.0553 12.9682 701 145.305 1078.31 512.508
179 0 58.0193 11.4445 664 95.991 1076.38 512.848
180 0 58.1418 13.2951 773 93.6494 1073.68 508.299
181 0 62.0896 13.9476 866 90.7725 1073.46 508.441
182 0 63.0573 13.7494 867 90.9193 1070.79 505.218
183 0 65.079 13.3991 872 91.6353 1070.28 502.896
184 0 68.0866 13.7913 939 89.8584 1068.69 502.894
185 0 71.2936 14.6156 1042 90.8484 1068.25 500.882
186 0 70.3008 12.2047 858 96.7762 1067.58 497.436
187 0 72.0894 14.1491 1020 93.8392 1067.27 494.387
188 0 75.2841 14.1066 1062 94.1149 1067.39 492.362
189 0 80.2007 12.7181 1020 94.9127 1068.06 491.669
190 0 80.1994 12.7682 1024 146.315 1069.06 491.53
191 0 83.2727 13.3177 1109 96.771 1070.46 484.651
192 1 47.0673 11.303 532 95.0771 1072.04 505.43
193 0 47.1287 11.7975 556 96.9119 1074.36 500.829
194 0 50.2037 11.9912 602 96.985 1076.46 501.284
195 0 50.1111 10.7561 539 98.4527 1078.35 500.881
196 0 50.1042 10.7576 539 100.375 1081.63 503.774
197 0 55.3379 12.6315 699 95.9642 1083.17 502.27
198 0 54.2304 12.2072 662 90.2145 1084.31 500.119
199 0 56.0466 11.3655 637 92.416 1087.78 499.914
200 0 59.0729 12.8147 757 88.6697 1089.46 500.682
201 0 62.0832 13.5141 839 86.9964 1089.09 501.455
202 0 64.1442 13.4229 861 88.1974 1089.9 500.265
203 0 67.0721 12.986 871 88.5086 1090.7 501.672
204 0 66.036 12.1146 800 91.5788 1091.24 500.64
205 0 67.1546 12.5829 845 95.3799 1091.9 499.415
206 0 72.4191 13.6428 988 95.7126 1090.56 502.134
207 0 74.3759 13.1494 978 97.2055 1089.1 499.453
208 0 74.3339 12.0537 896 101 1087.13 496.566
209 0 80.273 13.1177 1053 98.3067 1085.94 497.797
210 0 84.1784 14.5287 1223 94.807 1083.19 499.311
211 0 85.2781 13.6612 1165 97.588 1081.03 497.581
212 0 91.2529 11.7914 1076 102.556 1079.33 490.482
213 0 98.1864 12.9651 1273 99.0487 1074.54 491.174
214 0 101.286 14.3652 1455 96.5643 1073.12 490.679
215 0 104.369 13.3372 1392 98.7062 1072.06 488.826
216 1 53.0661 11.2878 599 91.8047 1070.42 510.142
217 0 56.1889 13.8284 777 85.0656 1068.33 509.61
218 0 57.0265 12.8361 732 88.235 1066.42 509.127
219 0 59.048 13.0402 770 88.6494 1066.27 506.843
220 0 61.0366 12.3041 751 90.5899 1065.55 504.545
221 0 61.0976 11.8172 722 92 1065.64 502.651
222 0 64.0638 12.5656 805 91.1963 1066.13 499.291
223 0 68.0698 14.3088 974 87.6632 1067.08 498.022
224 0 69.0494 13.2948 918 90.0207 1067.44 497.176
225 0 70.1443 12.6454 887 92.4938 1069.4 495.23
226 0 72.1308 13.6141 982 92.1599 1071.92 493.769
227 0 74.1248 11.8044 875 95.4709 1074.41 492.501
228 0 76.0964 12.1031 921 95.62 1076.9 490.549
229 0 81.0889 14.8479 1204 90.5473 1079.15 491.378
230 0 85.2467 13.8656 1182 90.4535 1082.82 493.973
231 1 47.1382 11.2435 530 92.5679 1084.11 510.562
232 0 49.1153 11.1981 550 92.7145 1085.99 510.498
233 0 51.0674 13.0024 664 90.4503 1086.59 509.09
234 0 49.0373 11.3383 556 92.9496 1088.23 509.126
235 0 51.0252 9.60309 490 92.1306 1089.39 509.702
236 0 51.0645 12.4352 635 86.7512 1088.31 513.046
237 0 54.0619 12.1342 656 87.0457 1087.42 513.771
238 0 53.0558 11.4031 605 142.018 1085.38 512.924
239 0 57.1659 11.8427 677 87.1905 1084.69 512.705
240 0 60.1053 12.6944 763 85.8087 1083.5 513.157
241 0 60.1053 12.5779 756 142.746 1081.48 513.022
242 0 63.1366 11.6573 736 88.2731 1079.93 512.765
243 0 66.1078 12.8275 848 86.1745 1078.71 512.202
244 0 69.0453 14.2081 981 82.9541 1075.74 510.486
245 0 69.1355 12.0343 832 87.4087 1075.37 510.63
246 0 72.1649 12.9564 935 85.6749 1073.37 509.077
247 0 73.1031 12.6397 924 86.3517 1071.31 504.965
248 0 77.2503 14.1488 1093 82.0631 1070.23 501.298
249 0 80.1744 12.5975 1010 86.2436 1068.5 498.859
250 1 42.0272 9.20832 387 89.5168 1067.2 516.354
251 0 44.0824 9.59567 423 87.7139 1069.55 515.48
252 0 46.0649 10.5069 484 87.5579 1068.39 513.07
253 0 47.1188 10.8449 511 87.5205 1068.22 511.27
254 0 49.1317 11.2351 552 85.5091 1064.43 508.763
255 0 51.1346 13.6894 700 81.32 1065.84 504.507
256 0 54.0788 13.9241 753 81.996 1063.64 505.301
257 0 54.105 12.1431 657 85.6545 1066.45 501.963
258 0 56.175 12.0872 679 84.4919 1066.51 506.353
259 0 58.0301 12.6314 733 84.3738 1068.96 498.842
260 0 59.1497 12.1725 720 85.1042 1069.95 501.251
261 0 59.1184 12.0605 713 87.087 1072.58 498.195
262 0 62.2244 12.2299 761 87.6491 1075.25 497.911
263 0 64.1472 11.8477 760 88.2434 1078.46 497.734
264 0 68.1916 13.1248 895 85.3877 1081.57 497.073
265 0 67.2808 12.2769 826 87.1913 1084.02 497.333
266 0 72.1444 13.7779 994 84.1821 1085.64 496.637
267 0 72.2322 12.7229 919 88.0413 1088.38 494.543
268 1 36.0256 9.49325 342 93.4269 1087.59 515.807
269 0 41.0893 9.54021 392 93.0255 1089.05 515.855
270 0 37.055 9.04062 335 95.4627 1086.51 517.221
271 0 41.0141 12.4591 511 89.8708 1087.12 516.716
272 0 42.0167 11.1146 467 93.9957 1086.65 516.58
273 0 45.0247 12.5709 566 91.6943 1085.22 516.288
274 0 45.0505 11.4094 514 95.1401 1082.94 517.068
275 0 48.0316 12.1379 583 94.5918 1082.59 516.027
276 0 49.0628 13.2483 650 94.2492 1081.97 517.983
277 0 50.0742 13.3602 669 94.3572 1080.51 515.417
278 0 53.0867 14.4669 768 90.5234 1078.26 514.885
279 0 52.0633 13.6757 712 93.1166 1077.92 514.799
280 0 52.0434 12.9507 674 96.8828 1076.57 511.76
281 0 56.0196 14.0665 788 92.3058 1075.29 512.594
282 0 56.0196 14.1022 790 133.153 1074.29 512.577
283 0 59.0393 13.4825 796 92.4661 1072.31 509.118
284 0 61.0512 15.3314 936 89.4626 1071.13 508.696
285 0 61.3106 13.7823 845 91.2379 1068.32 504.314
286 0 62.1573 13.4498 836 92.8014 1068.19 501.056
287 0 62.1498 13.2744 825 93.9673 1068.15 499.181
288 0 67.2875 14.7873 995 90.2603 1067.65 496.442
289 0 67.1976 13.8398 930 92.6366 1068.16 496.949
290 0 70.2285 13.5273 950 92.2453 1068.46 493.489
291 1 38.0485 10.0135 381 93.6614 1069.88 510.94
292 0 36.011 10.0802 363 97.2782 1071.85 508.661
293 0 39.0292 10.9918 429 95.1515 1072.97 508.648
294 0 41.0418 10.9644 450 92.6889 1075 507.838
295 0 43.0672 11.4937 495 94.7838 1076.68 508.174
296 0 40.1022 10.8224 434 97.288 1078.88 507.242
297 0 44.028 12.0832 532 94.8195 1083.16 507.767
298 0 44.0483 12.5771 554 96.3195 1085.32 506.856
299 0 48.1015 13.2844 639 92.2222 1086.98 508.958
300 0 48.0577 12.6098 606 94.8878 1089.67 507.637
301 0 49.0807 13.651 670 92.6567 1089.38 507.616
302 0 50.0516 12.0276 602 94.7924 1090.41 509.955
303 0 53.0924 14.6725 779 88.8139 1091.87 509.329
304 0 53.0736 13.6603 725 90.7628 1091.35 510.916
305 0 56.0332 13.3671 749 89.2216 1090.32 508.379
306 0 57.0876 14.5916 833 87.3061 1089.41 508.179
307 0 57.0967 12.33 704 93.6435 1087.68 508.456
308 0 59.0684 15.1181 893 87.8197 1086 506.287
309 0 62.0844 13.5783 843 89.3772 1084.01 506.687
310 0 64.0879 13.2942 852 89.635 1081.5 507.628
311 0 63.166 12.8867 814 91.6978 1079.44 505.857
312 0 67.0784 12.9848 871 90.9334 1077.58 503.014
313 0 67.0861 12.4467 835 92.5629 1075.88 501.885
314 0 72.1204 14.7947 1067 87.3786 1074.74 500.649
315 0 75.0333 14.3136 1074 88.5484 1073.6 501.002
316 1 39.0617 10.4962 410 88.8439 1072.33 517.666
317 0 39.0458 8.70772 340 93.5441 1070.74 516.385
318 0 40.0499 9.13859 366 88.6148 1068.88 515.32
319 0 41.022 9.79962 402 88.7811 1068.34 512.396
320 0 44.5815 11.4621 511 87.5342 1067.17 509.622
321 0 46.2545 12.7123 588 82.2347 1066.18 508.35
322 0 47.0619 13.2591 624 85.7997 1067.3 505.189
323 0 47.1182 11.8638 559 88.4937 1066.98 503.68
324 0 50.3049 14.4718 728 83.3146 1066.27 501.768
325 0 52.2389 13.936 728 84.3173 1066.88 500.365
326 0 51.2707 13.1264 673 87.1575 1068.22 499.196
327 0 53.0669 12.1733 646 87.7601 1070.73 499.113
328 0 50.2795 12.709 639 80.9077 1072.67 496.128
329 0 53.2106 13.0989 697 78.9541 1075.1 494.706
330 0 53.1128 12.031 639 82.2692 1077.81 497.454
331 0 56.129 10.458 587 83.8927 1081.02 497.189
332 0 59.1702 12.2359 724 81.9862 1083.81 497.924
333 0 59.1702 12.2359 724 123.945 1085.8 497.985
334 0 61.1391 12.8069 783 82.8493 1087.91 499.65
335 0 63.2009 12.7372 805 83.6758 1088.33 497.458
336 1 34.1013 7.21381 246 85.4106 1088.62 514.541
337 0 34.1013 7.21381 246 122.085 1088.62 514.541
338 0 36.1649 11.0328 399 82.6165 1089.29 516.96
339 0 37.0597 10.7394 398 87.7538 1087.19 518.45
340 0 42.0839 12.8553 541 87.9556 1084.75 520.969
341 0 41.0499 13.2034 542 89.7011 1083.74 519.245
342 0 41.0499 13.3496 548 138.891 1081.76 519.217
343 0 43.0452 14.1015 607 85.9901 1080.39 521.02
344 0 43.1539 13.672 590 88.1169 1079.46 518.858
345 0 43.0222 11.8311 509 90.9489 1076.72 518.538
346 0 46.081 13.2376 610 87.1574 1074.7 517.279
347 0 45.0848 12.5097 564 89.7553 1073.36 516.236
348 0 49.1015 14.1544 695 85.9036 1073.04 515.342
349 0 50.0825 13.917 697 86.4118 1070.86 513.555
350 0 51.0937 13.3872 684 87.5833 1069.52 511.702
351 0 55.0913 14.5032 799 84.6708 1068.25 509.677
352 0 55.19 13.5532 748 87.766 1067.47 506.675
353 0 58.145 13.5007 785 86.8586 1066.94 505.177
354 0 61.1799 14.4165 882 84.4002 1066.67 503.685
355 0 64.087 14.0746 902 85.6829 1066.13 501.028
356 0 67.054 16.002 1073 82.4651 1066.85 500.796
357 1 34.0944 11.4388 390 92.3487 1067.53 511.938
358 0 35.1005 11.4243 401 90.9651 1067.21 512.152
359 0 36.0821 9.70011 350 96.38 1069.05 512.374
360 0 38.1072 12.8847 491 90.387 1069.73 510.096
361 0 38.1072 12.9372 493 136.452 1070.7 510.144
362 0 39.0149 11.9442 466 91.9957 1073.12 508.479
363 0 40.1228 13.3839 537 88.46 1076.52 511.047
364 0 40.0514 12.3342 494 94.1964 1079.75 511.536
365 0 41.0257 13.5525 556 92.009 1081.76 510.259
366 0 42.0533 12.7933 538 92.8885 1083.58 511.617
367 0 41.0705 13.4647 553 93.0723 1085.73 511.604
368 0 44.0241 13.697 603 92.0912 1088.07 513.597
369 0 44.0241 13.6516 601 145.867 1090.07 513.607
370 0 45.0396 13.4104 604 93.3096 1089.24 516.402
371 0 42.092 13.8031 581 96.2444 1088.5 516.267
372 0 43.0513 13.7278 591 95.6328 1087.65 517.672
373 0 45.117 13.8529 625 94.5264 1086.71 518.07
374 0 45.2279 14.2611 645 93.6016 1084.66 519.25
375 0 43.0702 12.6305 544 98.6379 1082.25 518.746
376 0 43.1705 12.1611 525 97.96 1081.08 520.206
377 0 45.0465 15.3841 693 92.241 1079.33 520.436
378 0 44.0175 13.381 589 97.6061 1076.46 519.538
379 0 45.0423 13.9869 630 95.6952 1075.29 520.795
380 0 43.0766 12.5126 539 99.744 1073.69 520.117
381 0 45.0237 13.7705 620 97.5823 1072.06 518.673
382 0 45.0237 13.7039 617 146.22 1071.03 518.744
383 0 44.0448 14.2128 626 98.7093 1069.93 516.208
384 0 45.0595 13.6708 616 98.5455 1069.16 517.756
385 0 44.065 13.7978 608 98.9474 1067.32 517.095
386 0 46.0926 13.9936 645 97.5705 1066.52 515.104
387 0 48.0559 13.1514 632 97.875 1065.85 514.449
388 0 44.0496 13.4848 594 100.503 1065.63 510.665
389 0 49.1597 17.6567 868 87.6267 1065.98 505.804
390 0 46.1765 14.1847 655 97.345 1065.87 508.034
391 0 48.1628 14.6171 704 95.402 1066.31 507.662
392 0 46.0685 13.4148 618 99.6667 1067.2 507.421
393 0 47.2364 13.6971 647 98.085 1068.07 508.434
394 0 46.072 14.0215 646 98.0263 1070.49 507.55
395 0 44.0861 13.7685 607 101.491 1072.05 509.285
396 0 46.0858 14.9504 689 97.5428 1074.21 508.573
397 0 44.019 13.585 598 101.625 1076.67 508.901
398 0 45.0279 15.3016 689 97.4761 1080.15 508.782
399 0 47.0638 14.321 674 97.5208 1082.7 510.553
400 0 47.0264 14.7151 692 96.5014 1084.24 511.059
401 0 44.0551 13.5739 598 100.047 1087.34 513.639
402 0 45.1193 14.3619 648 99.233 1087.97 513.892
