time division length width area intensity CMx CMy
0 0 49.0611 16.1228 791 106.437 1272.71 495.206
1 0 54.1346 18.7865 1017 97.1121 1274.47 496.855
2 0 52.09 15.7036 818 105.317 1275.92 491.557
3 0 53.0747 16.1282 856 106.153 1275.43 494.988
4 0 55.0412 17.2961 952 99.8151 1276.35 495.494
5 0 57.0684 17.295 987 103.176 1275.87 495.028
6 0 60.0346 16.7403 1005 99.2627 1275.44 496.858
7 0 61.04 16.1533 986 101.059 1273.64 495.957
8 0 63.1012 18.399 1161 94.6546 1272.94 496.317
9 0 68.1533 21.5397 1468 87.7023 1271.75 497.177
10 0 69.0933 20.1901 1395 93.5728 1269.76 497.619
11 0 69.0407 17.7721 1227 99.1418 1268.43 495.142
12 0 72.1564 16.8246 1214 98.0124 1265.48 494.287
13 1 36.0473 12.0675 435 111.952 1264.49 515.225
14 0 38.0545 12.4558 474 111.205 1262.37 515.441
15 0 36.0496 12.2609 442 111.55 1259.89 514.593
16 0 40.0585 12.0074 481 107.447 1257.51 513.541
17 0 41.0274 14.3806 590 106.269 1255.56 511.353
18 0 43.0204 13.6447 587 105.487 1253.24 510.049
19 0 44.0553 13.6419 601 104.235 1252.33 509.298
20 0 49.1578 15.1349 744 105.485 1248.48 506.647
21 0 51.1299 16.2527 831 102.493 1248.57 505.57
22 0 52.114 15.0823 786 105.164 1249.43 505.518
23 0 50.1227 14.4046 722 108.277 1249.72 502.357
24 0 53.1274 15.5099 824 109.307 1250.36 499.626
25 0 56.1019 16.2918 914 106.58 1251.32 499.741
26 0 56.0707 15.2664 856 110.558 1253.88 498.043
27 0 59.3015 16.4751 977 106.241 1255.17 497.375
28 0 61.0536 16.1497 986 107.256 1257.22 496.181
29 0 62.1597 15.8302 984 108.852 1259.67 496.012
30 0 66.0871 16.0697 1062 106.397 1262.28 496.964
31 0 65.166 16.1127 1050 106.693 1264.35 496.774
32 0 69.1384 16.937 1171 103.563 1265.47 496.782
33 0 73.212 16.8415 1233 102.433 1267.86 495.685
34 0 71.1538 15.4173 1097 108.552 1266.98 496.249
35 0 75.2966 15.6846 1181 107.183 1267.74 497.275
36 0 78.1588 16.5688 1295 105.522 1266.96 497.01
37 0 80.1765 16.0271 1285 107.122 1267.61 498.009
38 0 79.1201 17.2396 1364 104.581 1265.93 493.363
39 0 78.2185 16.0065 1252 109.509 1263.71 494.116
40 0 80.1959 14.3898 1154 111.08 1261.99 497.479
41 0 81.0872 13.5163 1096 112.641 1259.63 499.599
42 1 49.0458 12.315 604 108.652 1259.06 515.589
43 0 50.1581 11.8824 596 108.831 1256.45 515.651
44 0 52.0982 13.3978 698 106.877 1255.37 514.288
45 0 55.1881 12.7564 704 105.014 1252.81 515.124
46 0 55.1706 14.7361 813 101.937 1250.59 512.143
47 0 57.0476 14.5493 830 102.253 1248.79 511.569
48 0 61.0524 15.3475 937 100.299 1246.91 510.185
49 0 61.0704 14.9336 912 102.332 1245.6 508.547
50 0 64.0512 14.5509 932 101.429 1243.93 508.379
51 0 67.046 15.5714 1044 99.7979 1242.93 502.533
52 0 70.068 16.4983 1156 98.1021 1242.18 501.472
53 0 72.065 16.2492 1171 99.6541 1241.21 498.607
54 0 75.1054 15.9509 1198 101.233 1241.2 498.199
55 0 79.0432 15.131 1196 103.467 1241.05 494.271
56 0 80.0854 15.3711 1231 104.396 1241.22 491.884
57 0 84.1594 16.0766 1353 103.288 1242.15 489.584
58 0 87.0708 15.8262 1378 104.922 1243.62 488.05
59 0 86.1583 15.3438 1322 108.446 1244.85 484.269
60 0 92.1752 16.3276 1505 104.2 1246.86 479.01
61 0 95.0735 15.7141 1494 104.842 1249.33 483.338
62 0 97.1678 15.3549 1492 106.28 1252.67 480.412
63 0 103.214 16.6838 1722 102.649 1255.71 481.877
64 0 105.125 16.2664 1710 103.661 1257.29 477.573
65 0 109.118 16.4959 1800 102.849 1258.66 479.714
66 0 113.101 17.701 2002 100.015 1260.74 476.86
67 0 118.245 17.9966 2128 99.3257 1261.46 481.048
68 0 123.059 16.5611 2038 102.975 1261.79 475.654
69 0 126.266 16.0851 2031 105.287 1261.61 473.543
70 1 64.131 12.9578 831 104.856 1261.27 508.13
71 0 67.0942 11.5509 775 106.785 1260.93 508.763
72 0 72.1048 11.4833 828 107.541 1259.98 506.3
73 0 75.0971 14.2083 1067 104.882 1256.9 503.636
74 0 77.0504 14.3542 1106 104.744 1254.2 504.638
75 0 77.0632 14.8709 1146 106.298 1252.2 504.984
76 0 81.0664 14.9754 1214 105.658 1251.06 503.986
77 0 85.0768 15.0805 1283 105.225 1248.12 501.909
78 0 87.2074 15.4574 1348 104.777 1245.87 499.941
79 0 91.1235 14.8699 1355 104.937 1243.83 499.233
80 0 100.183 17.7076 1774 95.7847 1242.49 492.214
81 0 100.13 17.0678 1709 94.4248 1240.55 487.725
82 0 99.0974 14.2385 1411 104.441 1238.53 489.659
83 0 102.128 14.0999 1440 103.79 1236.97 486.852
84 0 107.239 13.1482 1410 105.253 1236.32 482.926
85 0 110.123 13.2488 1459 103.49 1235.94 479.826
86 1 63.1016 11.3943 719 97.0459 1233.87 503.403
87 0 65.1033 15.0377 979 91.189 1234.46 499.345
88 0 64.1039 11.2942 724 102.029 1234.56 497.544
89 0 68.0568 14.4438 983 96.0804 1235.28 494.741
90 0 72.179 13.2033 953 97.4638 1236.05 494.884
91 0 74.1732 12.4438 923 103.315 1236.33 480.442
92 0 76.1085 13.691 1042 102.513 1237.69 477.411
93 0 77.1108 13.1499 1014 104.661 1239.99 475.936
94 0 78.0669 11.7335 916 107.917 1241.87 477.062
95 0 84.2213 13.7495 1158 103.255 1244.78 479.176
96 0 89.3449 13.9571 1247 100.615 1247.71 482.666
97 0 92.2491 14.2332 1313 99.0533 1250.42 485.949
98 0 92.2746 13.2214 1220 130.289 1252.4 485.729
99 0 91.2162 13.8682 1265 128.446 1254.43 485.209
100 1 53.0909 9.98287 530 102.732 1256.14 512.232
101 0 54.091 10.5193 569 103.852 1256.95 512.641
102 0 54.091 10.5008 568 142.391 1259.95 512.542
103 0 60.0727 12.8677 773 100.479 1256.1 512.528
104 0 61.069 13.4438 821 98.8136 1254.03 513.639
105 0 62.1314 13.1817 819 101.263 1252.23 512.051
106 0 64.1554 13.5141 867 99.8293 1251.14 513.94
107 0 68.0756 14.7189 1002 96.7735 1249.38 511.174
108 0 69.1715 14.5291 1005 96.9652 1248.97 510.244
109 0 72.1353 13.3083 960 98.551 1246.2 511.383
110 0 73.1003 13.5978 994 99.159 1244.83 508.626
111 0 77.1399 13.6765 1055 102.52 1241.51 506.954
112 0 79.0758 12.9496 1024 105.279 1239.77 505.546
113 0 81.0877 14.7741 1198 99.7638 1239.55 505.308
114 0 79.06 14.4953 1146 102.761 1239.24 506.443
115 0 74.19 12.4815 926 102.202 1237.19 507.031
116 0 74.19 12.4949 927 141.291 1236.2 506.961
117 0 75.1761 13.2622 997 138.229 1235.24 506.053
118 1 41.0335 6.53126 268 100.724 1231.79 525.672
119 0 36.0278 7.79954 281 101.783 1231.27 523.206
120 0 38.0317 8.91361 339 98.177 1229.49 520.153
121 0 38.0344 8.5449 325 93.3415 1229.97 518.098
122 0 36.0358 9.35181 337 88.451 1228.91 516.961
123 0 35.0323 8.50645 298 87 1229.43 511.899
124 0 34.0298 7.69913 262 84.4008 1230.94 512.954
125 0 36.0117 10.8853 392 80.0689 1231.97 511.362
126 1 115.34 11.5051 1327 99.416 1234.63 473.142
127 0 114.293 11.1817 1278 101.493 1237.33 470.238
128 0 114.145 10.7145 1223 101.679 1239.59 469.86
129 0 115.357 12.1536 1402 97.766 1242.2 469.819
130 0 111.195 10.2792 1143 102.546 1244.32 470.912
131 0 112.277 7.43694 835 110.964 1246.1 463.999
132 0 112.415 8.72656 981 105.923 1248.49 469.6
133 0 111.17 8.95928 996 106.236 1249.92 470.412
134 0 113.31 11.6759 1323 98.6311 1250.79 479.034
135 0 119.176 11.8565 1413 93.9505 1251.6 476.665
136 0 113.27 7.73372 876 107.783 1252.82 463.87
137 0 112.127 6.99209 784 109.446 1252.31 463.858
138 0 110.162 8.33319 918 105.168 1251.42 470.233
139 0 106.234 7.67172 815 108.083 1250.75 467.491
