time division length width area intensity CMx CMy
0 0 46.048 13.4425 619 106.604 964.79 496.627
1 0 46.0268 13.4052 617 105.512 965.791 498.653
2 0 47.0408 14.5831 686 104.08 966.571 497.509
3 0 49.0336 13.6437 669 105.112 967.448 497.883
4 0 50.0342 13.0311 652 107.652 966.748 498.189
5 0 52.0374 14.3743 748 104.188 965.558 498.952
6 0 52.0788 13.8444 721 106.305 965.333 499.845
7 0 55.0509 13.1878 726 107.208 964.876 500.667
8 0 56.0535 14.0045 785 105.702 963.591 499.35
9 0 58.0264 13.58 788 107.586 962.377 498.656
10 0 59.0852 13.269 784 108.599 960.913 497.881
11 0 63.0465 13.8628 874 105.387 959.626 498.421
12 1 33.0043 12.1802 402 107.624 957.112 514.236
13 0 35.0545 12.8086 449 108.739 956.481 512.922
14 0 34.114 13.1617 449 109.004 953.655 513.428
15 0 36.0708 11.4497 413 110.925 952.806 513.554
16 0 38.0325 11.8846 452 110.491 949.874 512.234
17 0 39.0432 13.2417 517 107.863 947.104 510.567
18 0 39.03 11.9395 466 102.852 945.959 508.249
19 0 38.052 11.8785 452 103.389 944.838 505.748
20 0 41.0735 13.6585 561 105.112 940.201 508.811
21 0 44.0969 14.3321 632 102.441 940.348 507.419
22 0 44.1873 13.1486 581 105.25 940.664 507.606
23 0 48.1077 14.2181 684 100.673 941.006 504.765
24 0 48.1616 13.2263 637 104.812 942.151 503.042
25 0 50.0408 14.0885 705 103.34 943.216 501.139
26 0 53.0489 15.0239 797 100.627 945.247 500.371
27 0 51.1007 14.8922 761 103.775 946.803 500.577
28 0 52.2082 13.0631 682 107.334 948.864 499.396
29 0 56.0681 14.197 796 103.533 951.346 498.545
30 0 58.0652 14.1565 822 102.82 953.691 498.004
31 0 58.119 12.7153 739 106.965 957.294 499.704
32 0 61.168 13.2095 808 105.262 957.455 499.402
33 0 64.1462 14.8255 951 101.287 958.398 498.652
34 0 66.1065 14.7035 972 100.173 959.398 499.526
35 0 69.1983 15.0871 1044 99.817 959.676 498.984
36 0 71.2347 14.0241 999 101.324 958.542 499.845
37 1 37.0385 11.7175 434 102.5 958.127 517.5
38 0 35.0989 9.77239 343 106.344 956.872 519.041
39 0 40.0376 11.0896 444 105.502 955.743 517.631
40 0 41.0946 12.7024 522 100.985 953.816 517.119
41 0 43.115 10.5996 457 103.6 951.61 519.107
42 0 43.0414 9.85099 424 105.403 949.516 518.172
43 0 46.1042 13.014 600 99.0633 948.122 516.695
44 0 48.097 12.6827 610 98.3344 946.659 515.977
45 0 48.097 12.6411 608 136.391 944.681 515.933
46 0 49.2037 12.743 627 98.622 941.724 516.872
47 0 52.2292 14.3406 749 95.5901 940.985 515.398
48 0 52.2535 12.2289 639 102.15 938.426 514.205
49 0 58.2883 14.6342 853 96.007 936.444 511.172
50 0 60.1104 14.5732 876 94.7043 936.033 511.271
51 0 60.0888 14.0792 846 96.8546 934.61 505.39
52 0 62.0558 14.3742 892 97.87 932.411 505.64
53 0 65.163 15.1466 987 95.5704 932.654 503.787
54 0 68.1143 14.2995 974 97.7659 931.858 500.277
55 0 69.3485 15.314 1062 97.5518 931.623 497.342
56 0 72.2499 15.1004 1091 97.945 932.236 497.467
57 0 74.1818 15.4485 1146 99.8717 933.614 493.948
58 0 78.1867 14.0689 1100 102.295 935.025 492.446
59 1 39.1236 10.3518 405 105.763 937.867 511.017
60 0 42.0678 11.0298 464 104.265 939.491 509.293
61 0 42.1341 11.2023 472 104.403 942.335 509.186
62 0 43.0331 12.9668 558 102.898 944.912 507.462
63 0 46.0795 11.6104 535 104.473 946.774 508.974
64 0 46.0795 11.567 533 161.647 950.769 508.964
65 0 47.1555 14.1447 667 101.843 950.825 507.672
66 0 50.2634 14.046 706 101.003 950.375 506.664
67 0 52.1862 13.5093 705 101.956 951.274 507.851
68 0 51.1297 13.2799 679 100.934 952.803 505.482
69 0 52.1769 12.7451 665 102.651 951.128 512.614
70 0 55.0667 14.1102 777 99.556 949.767 511.671
71 0 54.224 12.9094 700 103.061 948.463 512.951
72 0 58.0403 13.0082 755 102.568 946.395 512.362
73 0 60.1851 14.3391 863 99.051 944.645 513.728
74 0 61.0978 13.192 806 103.783 943.603 511.021
75 0 63.1561 13.2054 834 104.169 941.86 512.864
76 0 67.1802 13.9327 936 101.871 939.468 510.834
77 0 67.2538 14.2892 961 103.472 938.07 510.477
78 0 72.1314 15.4024 1111 98.3834 935.826 510.859
79 0 72.1462 13.6528 985 103.836 933.515 508.86
80 0 73.0669 13.5082 987 105.146 931.502 508.163
81 0 76.0543 14.7658 1123 103.721 930.79 504.189
82 0 81.1389 15.2701 1239 101.743 928.889 503.801
83 0 84.157 14.6037 1229 102.374 927.828 503.055
84 0 84.1796 15.0749 1269 102.848 926.89 498.067
85 0 88.1394 14.1821 1250 104.607 926.088 492.869
86 0 90.1051 14.3943 1297 105.407 925.897 494.114
87 0 94.1256 13.8326 1302 106.045 925.857 491.926
88 0 95.1472 14.672 1396 106.231 925.188 489.049
89 1 51.118 11.5615 591 109.575 925.203 509.122
90 0 52.1546 11.255 587 109.063 926.182 510.661
91 0 55.1222 12.9712 715 106.178 927.807 507.924
92 0 59.1068 13.7548 813 103.768 929.215 507.028
93 0 59.1068 13.7886 815 152.336 931.214 507.011
94 0 59.2165 13.3071 788 103.656 931.929 507.115
95 0 64.101 15.1792 973 97.9753 934.562 504.305
96 0 65.1995 15.0615 982 99.9888 937.545 503.813
97 0 66.0755 13.7419 908 103.64 939.914 503.542
98 0 68.1623 13.4238 915 103.35 942.257 502.416
99 0 70.1335 14.2015 996 102.206 944.321 503.007
100 0 73.1375 12.7568 933 102.458 945.375 506.746
101 0 75.2665 14.163 1066 101.504 945.847 503.62
102 0 78.236 13.8683 1085 99.5972 946.609 503.772
103 0 79.1306 13.3956 1060 101.779 946.282 503.587
104 0 83.1399 13.2548 1102 102.179 944.832 503.319
105 0 86.4084 12.6029 1089 100.948 944.087 504.309
106 0 88.1423 13.8186 1218 99.6724 942.136 500.523
107 0 91.1541 13.0548 1190 101.647 941.275 498.814
108 1 48.1634 9.38472 452 101.529 940.31 521.066
109 0 50.2364 11.2667 566 99.7085 937.292 522.171
110 0 54.1697 10.5225 570 101.404 936.891 519.356
111 0 54.1755 10.5952 574 101.057 935.108 517.739
112 0 55.174 12.0165 663 100.19 933.053 515.089
113 0 58.2405 11.6757 680 92.75 930.375 513.741
114 0 60.2315 12.4021 747 91.8153 928.621 511.317
115 0 61.1011 12.3729 756 98.3677 927.454 511.734
116 0 64.1623 12.1878 782 95.1624 925.793 512.091
117 0 66.4303 13.3975 890 94.9067 923.989 510.007
118 0 69.152 14.7501 1020 93.3108 923.761 508.25
119 0 72.2801 13.6552 987 95.2391 923.279 506.595
120 0 74.2837 13.4484 999 96.7908 922.476 501.54
121 0 76.2087 12.2689 935 99.3882 922.618 500.578
122 0 77.2819 13.4314 1038 96.8574 922.879 498.186
123 0 80.1594 12.6747 1016 98.3986 923.191 494.282
124 0 83.2021 13.1607 1095 95.7087 923.276 495.15
125 0 85.3273 12.2938 1049 97.3985 923.392 491.561
126 0 89.252 13.4787 1203 95.6742 924.804 491.746
127 0 92.1542 13.1953 1216 97.0214 927.952 489.947
128 0 95.2027 13.1299 1250 96.7592 930.21 488.45
129 0 100.157 13.0494 1307 103.089 932.858 486.181
130 1 51.0406 8.48345 433 97.0439 937.894 515.062
131 0 54.0411 11.5838 626 93.4201 938.599 512.788
132 0 56.103 12.8514 721 90.8502 940.549 512.53
133 0 58.1698 12.9792 755 92.0861 942.481 511.049
134 0 60.0642 13.1692 791 93.4324 941.023 514.606
135 0 61.0485 12.6621 773 95.1449 941.512 511.49
136 0 63.0679 12.3676 780 94.6051 941.62 512.109
137 0 67.2132 12.8695 865 92.8983 941.296 512.01
138 0 69.3223 14.0647 975 89.7887 941.06 510.66
139 0 70.1813 12.6672 889 93.4196 938.318 509.24
140 0 74.3495 13.3424 992 91.75 937.475 511.259
141 0 77.1986 13.0961 1011 92.0841 936.623 509.872
142 1 42.0365 11.4186 480 90.95 933.148 526.379
143 0 42.0371 10.8713 457 135.114 931.105 525.834
144 0 43.0787 11.2352 484 91.0702 931.149 526.556
145 0 43.0648 11.0763 477 126.3 931.067 526.205
146 0 44.0486 10.443 460 93.9891 927.728 526.17
147 0 46.0901 12.801 590 92.3407 925.646 524.903
148 0 49.0644 12.2084 599 93.1803 923.836 523.669
149 0 49.0983 12.2611 602 94.1711 923.101 521.816
150 0 50.11 12.3728 620 93.2839 922.026 523.64
151 0 52.0565 13.0819 681 92.4919 921.342 520.602
152 0 53.1757 12.2424 651 94.0323 920.335 518.243
153 0 55.1306 12.2074 673 94.2184 920.027 516.052
154 0 56.1665 11.5905 651 95.9355 920.128 514.141
155 0 58.149 12.9151 751 92.8868 920.097 513.55
156 0 58.2298 14.4256 840 89.9643 920.368 510.048
157 0 59.1404 13.5102 799 91.5419 920.74 509.348
158 0 63.1316 12.8779 813 91.7614 922.057 508.862
159 0 63.0944 13.3292 841 91.6885 923.114 505.515
160 0 65.2627 13.7291 896 90.99 926.035 503.715
161 0 66.2122 13.4567 891 93.0101 927.799 502
162 0 69.3074 13.9668 968 91.7252 929.62 501.996
163 0 72.1919 14.5861 1053 90.4141 932.671 500.998
164 1 35.113 8.7432 307 94.4169 936.554 521.586
165 0 34.1202 8.90969 304 147.872 938.546 521.447
166 0 34.1202 8.90969 304 147.388 940.546 521.447
167 0 40.2096 10.8183 435 91.2897 939.17 523.699
168 0 40.121 10.4683 420 94.6119 939.281 524.102
169 0 40.2343 11.2839 454 94.7401 940.286 523.35
170 0 44.2024 9.99945 442 95.2172 941.038 523.688
171 0 44.2024 9.93158 439 135.754 944 523.651
172 0 47.0956 12.2517 577 90.2634 941.603 522.215
173 0 47.0645 12.111 570 91.6509 939.914 521.837
174 0 49.1523 13.387 658 89.7264 938.299 521.342
175 0 51.0443 13.0279 665 90.0632 936.188 521.516
176 0 52.0155 15.0532 783 86.8723 934.386 520.99
177 0 51.0379 13.4018 684 91.3304 932.721 521.963
178 0 54.0671 12.6509 684 91.2588 930.937 520.227
179 0 56.0655 13.948 782 88.0448 929.412 520.037
180 0 55.0749 13.3273 734 90.4114 926.726 518.109
181 0 56.0941 12.5325 703 91.7041 925.834 516.393
182 0 58.0579 12.522 727 92.1114 924.037 515.105
183 0 61.0332 14.3856 878 88.0558 923.163 511.771
184 0 62.0884 13.0942 813 90.7909 922.625 509.822
185 0 66.0748 13.515 893 89.9821 920.465 507.75
186 0 69.0899 14.5463 1005 86.799 919.547 505.98
187 1 36.0552 11.2328 405 88.563 918.931 522.301
188 0 36.0262 9.79841 353 92.5836 919.878 520.365
189 0 38.0597 10.6937 407 90.5111 919.703 518.948
190 0 40.0214 11.6688 467 88.0814 920.242 517.979
191 0 40.0545 11.734 470 88.717 921.732 515.489
192 0 41.1099 13.4031 551 85.7223 923.742 514.815
193 0 43.0877 11.6739 503 87.1928 926 515.648
194 0 46.0618 12.9174 595 85.7681 928.482 516.365
195 0 46.0895 12.4757 575 85.64 930.894 513.765
196 0 47.0522 13.4744 634 84.5615 933.3 515.48
197 0 47.151 10.9436 516 88.6279 936.281 515.744
198 0 48.0789 11.9179 573 87.7801 938.887 515.707
199 0 51.1517 14.4668 740 83.3473 940.242 514.986
200 0 50.0483 12.2881 615 87.9073 941.735 516.862
201 0 52.0737 12.4439 648 87.0046 942.917 516.748
202 0 52.0341 11.5501 601 89.3894 943.11 517.809
203 0 56.0505 12.8634 721 87.0555 944.078 517.176
204 0 56.0677 14.2685 800 85.545 942.986 514.428
205 0 57.1845 11.6115 664 90.631 941.84 516.184
206 0 59.1422 12.9518 766 88.3055 940.467 518.424
207 0 61.1979 12.7946 783 88.6411 938.891 515.457
208 0 61.1994 12.1733 745 90.8631 936.711 516.808
209 0 63.0487 11.1818 705 91.9745 934.87 517.142
210 0 66.4591 12.6243 839 89.1645 931.787 514.98
211 0 70.4772 12.6282 890 86.9461 929.615 517.467
212 1 41.0297 11.6988 480 86.1729 930.138 526.808
213 0 42.0553 11.9842 504 86.7639 924.911 528.294
214 0 45.0579 13.1165 591 84.242 924.059 527.452
215 0 44.048 12.282 541 84.9316 921.294 525.993
216 0 46.1483 15.1251 698 77.8911 920.023 523.64
217 0 48.0677 13.3562 642 80.3972 917.941 522.715
218 0 48.0625 13.0455 627 81.6635 917.968 522.102
219 0 50.1182 13.109 657 81.618 916.775 518.382
220 0 49.046 13.7014 672 81.5521 916.848 515.484
221 0 49.0823 12.7133 624 84.3077 917.034 515.333
222 0 53.051 13.2137 701 82.234 917.837 512.729
223 0 52.0829 11.9233 621 87.3349 918.425 513.994
224 0 55.0997 14.138 779 82.4146 922.908 512.965
225 0 56.0913 14.5834 818 82.566 924.106 510.108
226 0 56.1837 13.2067 742 87.1415 926.338 510.256
227 0 61.1252 13.9386 852 83.6362 927.863 512.234
228 0 61.065 13.7067 837 86.8315 930.201 509.763
229 0 62.0649 12.648 785 88.7287 932.718 508.353
230 0 67.0712 13.0906 878 87.0296 934.838 510.827
231 0 67.0758 13.7605 923 88.4344 936.987 506.899
232 0 71.0584 14.1433 1005 87.4159 938.778 507.807
233 0 72.0802 12.8468 926 89.9017 939.264 506.437
234 0 77.0781 14.0247 1081 87.0352 940.959 507.901
235 0 78.1107 12.303 961 90.0957 941.612 509.008
236 0 81.1104 12.2919 997 89.2869 940.303 505.199
237 1 44.1013 13.3556 589 82.8115 938.175 527.158
238 0 46.1812 12.4293 574 84.2822 936.338 526.89
239 0 42.0751 10.3149 434 87.6359 935.624 528.505
240 0 46.088 13.9733 644 83.1956 934.539 526.533
241 0 46.0415 11.2507 518 88.1293 930.639 527.378
242 0 50.0748 13.0804 655 85.6275 929.229 526.905
243 0 50.0503 12.6073 631 86.7036 928.935 527.312
244 0 53.0146 14.7884 784 82.3444 927.361 526.969
245 0 53.0874 12.6019 669 86.9432 925.549 525.36
246 0 55.2167 12.5868 695 87.3036 924.937 524.656
247 0 58.06 14.4506 839 83.1454 922.29 524.558
248 0 58.2114 12.6264 735 87.5075 920.302 519.305
249 0 61.1936 11.7006 716 88.7668 918.927 519.557
250 0 63.1819 12.0446 761 89.0683 918.02 515.757
251 0 64.2219 13.7803 885 88.4147 917.397 512.792
252 0 68.2363 13.6291 930 87.4806 916.905 511.539
253 0 72.1855 14.4212 1041 86.731 916.9 509.914
254 0 74.2886 13.5956 1010 88.8208 917.212 506.837
255 1 39.0291 10.0438 392 91.5026 917.204 522.49
256 0 39.1072 11.7114 458 91.2314 917.017 520.913
257 0 41.0374 13.3049 546 87.9066 918.084 519.106
258 0 39.0366 12.1937 476 145.765 919.941 520.357
259 0 43.1293 12.6364 545 92.1816 921.106 517.607
260 0 45.0196 12.7278 573 89.2513 921.155 517.743
261 0 46.1476 13.1101 605 88.4397 923.127 516.502
262 0 48.1027 13.9493 671 86.3308 926.72 516.791
263 0 48.0941 12.3092 592 91.6182 929.537 516.451
264 0 51.1578 15.1101 773 85.9043 931.841 515.158
265 0 51.0715 13.4713 688 90.1715 935.016 514.865
266 0 51.1625 14.2096 727 89.5488 935.747 515.678
267 0 55.0767 13.1453 724 88.3494 937.946 518.267
268 0 55.2418 13.6853 756 90.1759 938.071 516.579
269 0 58.1246 14.5033 843 87.4104 938.509 517.824
270 0 60.0514 14.038 843 88.5741 938.904 517.095
271 0 60.0981 14.1103 848 88.8432 936.417 518.325
272 0 62.1109 14.2648 886 89.0553 935.774 516.331
273 0 64.0916 14.3701 921 89.088 935.554 514.631
274 0 64.0916 14.3545 920 143.646 934.561 514.697
275 0 67.0341 13.978 937 89.4856 930.923 514.364
276 0 72.144 15.1364 1092 85.6117 931.1 514.998
277 1 36.1176 11.5733 418 89.2416 927.328 530.88
278 0 39.1027 11.5082 450 88.3444 926.151 529.953
279 0 38.0381 10.2792 391 91.688 924.951 529.637
280 0 37.0673 9.73904 361 90.2327 924.413 532.324
281 0 42.047 11.4396 481 87.9148 923.033 530.674
282 0 42.0742 12.169 512 87.8418 920.799 526.644
283 0 42.0204 11.2088 471 89.7028 918.355 524.115
284 0 43.0501 11.6376 501 89.6228 918.174 524.196
285 0 44.0361 12.0583 531 85.8964 917.915 523.913
286 0 46.1758 12.0409 556 85.2158 916.455 518.563
287 0 47.0967 13.6103 641 82.674 916.289 518.676
288 0 47.0967 13.6315 642 129.241 915.266 518.752
289 0 50.3012 13.2005 664 84.988 917.175 514.892
290 0 52.1436 13.7888 719 83.0056 919.097 514.321
291 0 52.1501 13.0009 678 84.9734 919.516 514.018
292 0 55.0499 14.0781 775 82.5794 920.36 511.735
293 0 54.1525 13.7205 743 83.6958 923.001 511.678
294 0 57.112 13.2196 755 84.5563 925.346 508.301
295 0 57.112 13.2897 759 126.847 928.329 508.398
296 0 60.2364 13.281 800 84.5362 930.176 511.15
297 0 63.2451 14.9577 946 81.6416 933.161 509.105
298 0 64.1975 13.661 877 84.3569 935.68 508.353
299 0 66.2217 13.5303 896 85.423 937.098 507.823
300 0 68.2173 14.4685 987 84.6454 939.626 508.512
301 0 68.162 13.0425 889 88.4286 939.992 508.665
302 0 69.1002 12.6049 871 89.6579 939.827 508.9
303 0 71.1715 11.8446 843 91.0558 940.629 508.235
304 1 42.0521 12.2943 517 86.7718 941.197 529.068
305 0 43.0709 9.70492 418 89.6555 940 528.012
306 0 44.0589 11.2123 494 88.1336 938.439 528.796
307 0 48.1469 10.2395 493 89.5355 936.554 527.114
308 0 48.1469 10.281 495 148.547 933.55 527.022
309 0 52.2253 14.0162 732 84.1462 932.866 524.012
310 0 51.0517 13.5745 693 85.619 931.322 523.411
311 0 56.3263 13.0667 736 86.6005 928.724 524.205
312 0 53.1494 12.4366 661 89.3676 928.36 522.775
313 0 56.1169 13.2046 741 87.9001 926.599 520.869
314 0 59.1046 13.4338 794 86.8627 924.762 522.786
315 0 63.236 14.5803 922 84.6855 923.747 519.13
316 0 62.1346 13.004 808 86.2314 921.606 517.102
317 0 64.2382 13.1697 846 87.5851 920.578 515.1
318 0 66.1303 12.3846 819 88.1551 918.618 515.298
319 1 35.057 9.07094 318 90.4686 918.858 527.462
320 0 39.0213 9.32824 364 87.9341 918.058 526.585
321 0 40.0715 10.8556 435 90.131 917.869 521.949
322 0 41.044 11.7922 484 86.062 917.574 521.037
323 0 44.059 11.2576 496 87.881 917.865 518.21
324 0 45.0683 12.825 578 86.5 919.152 515.388
325 0 45.0329 11.3028 509 88.5599 919.53 514.468
326 0 46.111 11.8193 545 87.4514 920.572 513.16
327 0 46.0205 11.082 510 89.3294 919.855 512.79
328 0 50.1413 13.0631 655 83.4855 922.666 510.886
329 0 51.2018 11.7769 603 86.0846 925.715 512.171
330 0 55.0873 12.9431 713 82.3955 927.449 512.297
331 0 55.1877 13.3001 734 82.2684 930.7 511.153
332 0 56.0486 12.4713 699 85.6652 933.406 512.3
333 0 58.1173 13.4383 781 84.6453 935.593 513.353
334 0 59.1175 11.8916 703 87.8378 937.649 512.667
335 0 62.1451 13.3076 827 84.3482 937.3 512.609
336 0 62.0912 14.1888 881 84.2316 938.233 513.145
337 0 64.0759 14.1083 904 84.99 937.353 512.986
338 0 67.1322 15.0449 1010 83.205 937.573 512.295
339 0 67.0388 13.3654 896 86.6864 935.727 513.286
340 0 72.1334 14.4593 1043 84.6855 934.233 512.259
341 0 76.1513 16.0076 1219 81.242 932.841 512.094
342 0 76.1768 14.1119 1075 86.5265 931.211 513.057
343 0 79.1541 13.6569 1081 86.5634 928.174 511.014
344 0 80.1969 12.6564 1015 89.0611 927.708 507.797
345 0 85.1575 15.5946 1328 83.1017 925.95 509.928
346 1 44.0603 9.48699 418 91.0048 924.337 529.912
347 0 46.05 10.1194 466 88.2768 922.167 529.955
348 0 48.0912 12.2268 588 88.1531 921.98 527.951
349 0 46.0501 10.5103 484 93.0847 921.535 526.603
350 0 50.0991 12.6349 633 89.9021 919.439 522.758
351 0 52.0657 12.6571 659 87.8209 920.343 520.712
352 0 52.0651 12.9453 674 87.3665 918.528 518.325
353 0 55.0549 13.6773 753 83.6494 917.967 515.232
354 0 55.0586 13.5674 747 86.589 917.398 515.61
355 0 55.0338 13.2282 728 87.7912 916.838 517.128
356 0 58.1709 13.2884 773 86.7671 917.358 515.887
357 0 58.0514 12.6267 733 91.6248 917.95 509.741
358 0 62.0798 13.6759 849 88.9223 917.628 510.138
359 0 64.1135 12.4935 801 92.1061 918.785 510.136
360 0 66.1521 14.4969 959 87.7643 921.492 507.757
361 0 67.1417 13.6726 918 90.0817 923.182 506.345
362 0 70.075 13.4285 941 90.3592 927.023 504.026
363 0 73.1008 13.6934 1001 89.2697 929.621 503.799
364 0 75.0498 14.2838 1072 88.8591 933.813 503.747
365 0 78.0792 13.9986 1093 90.7246 936.045 501.005
366 0 81.0944 14.477 1174 90.2249 938.716 501.079
367 0 81.0944 14.5633 1181 159.218 941.712 501.141
368 0 81.0909 14.5392 1179 158.817 944.712 501.135
369 0 86.2549 13.5297 1167 94.8141 941.028 502.524
370 0 92.1853 14.1671 1306 92.5567 939.76 504.281
371 0 95.2837 14.9868 1428 92.521 939.008 500.179
372 0 97.1915 13.5197 1314 95.5312 938.607 502.052
373 0 101.392 15.0505 1526 92.0976 935.818 499.229
374 0 103.469 13.608 1408 95.3217 934.857 501.259
375 0 106.519 14.2134 1514 93.9511 931.805 498.904
376 0 110.42 15.1512 1673 92.4728 929.704 496.558
377 0 111.354 13.0305 1451 97.4431 928.417 493.518
378 0 117.294 14.2207 1668 93.9568 927.119 493.075
379 1 62.1242 9.17516 570 90.0035 925.258 517.621
380 0 67.1192 9.04361 607 87.5947 924.585 514.102
381 0 68.2646 9.22879 630 85.4032 922.151 515.14
382 0 70.1807 11.2852 792 84.1338 920.583 509.479
383 0 73.3748 11.8706 871 81.3777 920.147 506.262
384 0 74.1807 10.4205 773 83.8564 918.966 508.36
385 0 77.2152 11.9925 926 79.8585 918.578 507.134
386 0 79.1747 11.6451 922 80.0499 916.692 507.549
387 0 82.2546 12.1331 998 79.9529 916.532 504.037
388 0 86.2047 11.8091 1018 80.334 915.528 500.578
389 0 86.4402 10.9671 948 83.2595 915.46 495.456
390 0 92.3225 12.0664 1114 80.8923 916.165 497.68
391 0 94.1283 13.3222 1254 79.4561 916.768 492.187
392 0 95.2364 11.6132 1106 82.9168 917.975 490.703
393 1 51.0923 10.0406 513 83.5322 920.591 517.86
394 0 53.1028 11.6566 619 77.3667 922.599 514.423
395 0 56.1361 10.5992 595 80.3294 925.215 512.709
396 0 57.2115 12.1129 693 75.7706 926.423 509.42
397 0 58.0821 11.983 696 79.4009 930.721 513.012
398 0 60.2489 12.1496 732 79.9276 932.316 511.656
399 0 61.1147 12.6974 776 79.8634 935.724 510.939
400 0 64.1242 13.1776 845 77.3752 937.795 511.898
401 0 66.1903 13.6576 904 77.1117 937.977 510.298
402 0 68.2759 11.9954 819 80.9646 939.552 510.105
403 0 67.1449 13.0911 879 80.7873 940.064 511.645
