time division length width area intensity CMx CMy
0 0 32.0518 11.6686 374 108.187 1116.2 503.04
1 0 33.0502 13.5249 447 100.973 1117 504.21
2 0 33.0187 13.4166 443 102.837 1118.16 505.395
3 0 32.0065 11.8413 379 107.599 1119.04 504.807
4 0 35.0614 13.8899 487 101.415 1118.59 504.75
5 0 34.0399 13.2198 450 104.496 1117.58 507.073
6 0 37.0368 14.9851 555 98.9117 1117.38 507.169
7 0 37.0451 13.0652 484 103.826 1117.35 509.207
8 0 37.0467 12.9296 479 103.353 1115.02 508.743
9 0 36.031 11.9619 431 104.691 1114.34 510.671
10 0 39.0141 14.5845 569 101.612 1112.79 509.432
11 0 40.1799 13.6636 549 100.936 1112.56 509.355
12 0 40.0542 13.6315 546 102.658 1110.12 510.722
13 0 41.1087 13.3792 550 103.844 1109.35 509.54
14 0 41.1038 12.9915 534 104.633 1106.49 511.487
15 0 44.0424 14.9175 657 99.4384 1105.41 510.065
16 0 45.1115 13.9654 630 102.417 1102.29 509.886
17 0 44.0314 14.3761 633 103.15 1099.7 509.153
18 0 47.0428 15.2414 717 98.6583 1098.21 507.819
19 0 47.0495 12.795 602 101.738 1096.94 508.397
20 0 50.2628 15.3593 772 97.1451 1092.55 504.516
21 0 53.0243 14.8234 786 96.9796 1092.68 504.463
22 0 52.0544 13.7164 714 100.273 1093.21 504.22
23 0 56.1343 15.4629 868 94.3906 1093.51 501.715
24 0 56.1422 15.247 856 96.2407 1094.34 500.137
25 0 59.0978 15.7705 932 94.7661 1095.52 498.929
26 0 59.0324 15.212 898 98.0523 1097.62 497.473
27 0 60.0978 13.8108 830 102.31 1098.19 498.199
28 0 64.1057 15.5836 999 99.046 1100.37 494.657
29 0 64.1635 14.6812 942 102.515 1102.77 496.005
30 0 65.085 14.6117 951 103.298 1105.99 495.061
31 0 69.0685 15.9841 1104 100.192 1109.07 494.442
32 0 70.1692 14.7643 1036 102.515 1109.54 496.493
33 1 35.0271 12.3618 433 109.471 1111.02 514
34 0 36.0543 11.7878 425 110.511 1111.77 513.638
35 0 36.0295 12.1845 439 110.173 1111.36 516.285
36 0 42.0466 12.5099 526 105.971 1110.86 516.96
37 0 39.0204 11.1993 437 113.217 1110.73 516.819
38 0 42.0591 12.8153 539 108.987 1109 516.425
39 0 43.0417 12.9409 557 109.474 1107.29 517.129
40 0 45.0275 15.435 695 105.289 1105.7 515.076
41 0 47.0614 16.1279 759 102.989 1103.55 516.108
42 0 49.0542 14.5349 713 106.59 1101.42 515.374
43 0 49.0458 14.0073 687 110.134 1099.96 514.882
44 0 52.1211 14.4855 755 107.706 1098.14 514.338
45 0 52.127 15.1361 789 154.555 1096.21 514.838
46 0 54.057 14.3552 776 105.549 1093.55 515.714
47 0 58.1243 15.7249 914 102.626 1092.77 513.268
48 0 61.1072 16.0538 981 101.558 1089.83 513.024
49 0 61.0834 15.9781 976 103.382 1088.15 510.099
50 0 65.0807 17.486 1138 99.7118 1087.27 509.785
51 0 66.1251 16.5746 1096 101.953 1085.97 504.385
52 0 66.0759 16.0573 1061 105.562 1084.64 503.477
53 0 70.1061 15.0914 1058 106.402 1084.63 499.973
54 0 71.2063 15.6728 1116 105.22 1083.33 498.555
55 0 74.0981 15.2501 1130 106.604 1083.18 495.574
56 0 77.1888 15.6759 1210 104.537 1083.76 496.043
57 0 80.1034 16.6784 1336 103.909 1085.01 492.037
58 0 82.1611 15.6887 1289 104.445 1086.58 491.194
59 1 42.0765 13.1665 554 105.643 1088.79 509.82
60 0 43.0796 12.6742 546 106.808 1090.31 509.538
61 0 44.1874 11.7907 521 108.393 1093.61 509.695
62 0 46.0512 13.5501 624 107.45 1095.86 507.771
63 0 47.0489 13.5603 638 106.125 1097.38 508.605
64 0 47.0489 13.3903 630 149.933 1098.37 508.784
65 0 51.0697 13.8047 705 104.957 1102.6 508.441
66 0 54.0758 14.9235 807 105.276 1102.34 506.981
67 0 56.2652 14.3428 807 107.429 1102.89 508.068
68 0 58.1818 14.3516 835 106.844 1103.97 507.147
69 0 60.2295 14.5942 879 106.838 1104.28 508.564
70 0 62.167 14.7828 919 107.909 1102.81 506.414
71 0 63.1932 15.144 957 106.611 1101.55 507.484
72 0 67.1569 15.5755 1046 105.416 1099.51 506.456
73 0 68.1327 14.3984 981 107.323 1097.78 506.445
74 0 70.1054 14.9489 1048 106.939 1096.58 504.058
75 0 71.1071 15.1321 1076 144.824 1096.57 504.52
76 0 76.091 15.1398 1152 105.03 1092.43 502.444
77 0 77.102 14.9023 1149 102.895 1090.98 501.169
78 0 81.1699 15.3752 1248 101.547 1088.48 501.066
79 0 85.2188 14.9732 1276 101.147 1086.5 500.488
80 0 87.1015 14.5807 1270 102.526 1084.5 499.402
81 1 47.0268 10.9512 515 101.458 1084.03 521.062
82 0 50.1978 10.9567 550 101.595 1081.93 518.598
83 0 51.359 11.2931 580 100.424 1081.14 518.509
84 0 53.1177 13.6113 723 96.7026 1079.86 513.855
85 0 52.1217 13.1999 688 97.1061 1079.28 509.422
86 0 56.2184 12.7005 714 98.423 1078.59 508.525
87 0 58.2806 13.4693 785 96.4841 1078.3 506.755
88 0 60.1505 14.3972 866 96.5624 1078.26 505.612
89 0 62.1602 13.6743 850 98.2412 1078.62 502.014
90 0 64.1451 14.779 948 96.4483 1079.17 502.528
91 0 66.182 13.2211 875 98.4206 1080.52 501.478
92 0 68.1573 14.5252 990 97.1434 1081.97 501.193
93 0 68.1734 14.4925 988 129.874 1082.96 501.24
94 0 76.2219 16.5044 1258 93.9992 1085.76 495.804
95 0 78.2525 14.581 1141 97.9623 1088.19 494.089
96 0 82.1692 14.3119 1176 98.3478 1091 493.435
97 0 83.4059 14.903 1243 97.7337 1093.36 493.596
98 0 87.1812 14.9574 1304 98.2155 1095.57 492.487
99 1 46.0771 11.7846 543 97.0663 1098.57 514.915
100 0 47.3344 11.0279 522 100.686 1099.84 514.644
101 0 48.3972 12.1495 588 99.6208 1099.16 514.969
102 0 50.4372 14.1166 712 95.0899 1099.81 513.444
103 0 52.3024 13.3837 700 96.9729 1098.77 515.734
104 0 55.0274 13.048 718 97.4805 1097.41 515.815
105 0 55.1091 14.0086 772 95.6697 1095.96 517.054
106 0 56.1649 13.6206 765 96.549 1094.22 516.382
107 0 59.1157 12.7208 752 99.4947 1092.95 513.064
108 0 60.1407 12.5206 753 98.6189 1091.31 515.895
109 0 64.27 14.3302 921 96.3181 1089.74 514.367
110 0 68.2466 14.0813 961 95.0364 1087.91 512.824
111 0 68.0901 13.629 928 95.6401 1086.16 511.616
112 0 69.2395 12.4207 860 98.8907 1084.18 510.27
113 0 74.1162 13.9106 1031 95.9059 1082.04 508.256
114 0 77.0809 15.1529 1168 93.4195 1080.08 507.421
115 0 79.1271 14.3819 1138 94.7276 1077.59 505.198
116 1 45.1385 11.4536 517 95.6518 1075.27 522.437
117 0 46.2198 11.0991 513 98.7037 1073.95 518.649
118 0 47.0891 10.2359 482 99.7178 1073.63 520.988
119 0 50.1544 12.2223 613 96.9527 1073.1 518.077
120 0 50.0618 12.4446 623 98.9454 1072.45 514.644
121 0 53.0982 12.9948 690 97.3391 1072.71 512.204
122 0 54.0387 13.3793 723 96.2835 1073.26 509.306
123 0 55.0698 12.8019 705 96.7333 1073.25 508.797
124 0 56.0811 12.7494 715 95.7622 1075.04 509.832
125 0 58.0871 11.9131 692 96.4798 1074.84 507.863
126 0 59.1783 13.2481 784 94.4936 1076.12 505.918
127 0 62.0441 12.2494 760 95.8513 1079.39 505.403
128 0 65.1954 12.7463 831 94.1721 1081.52 503.475
129 0 67.0492 14.3477 962 91.6102 1085.22 504.933
130 0 68.075 12.4569 848 96.2877 1087.17 503.544
131 0 72.1154 13.1317 947 94.2323 1088.18 502.771
132 0 75.1719 13.7817 1036 92.029 1090.5 504.068
133 0 77.0621 13.1971 1017 94.0865 1092.38 504.593
134 0 81.2088 12.9543 1052 94.7586 1093.39 505.694
135 0 84.401 14.9169 1259 91.5425 1094.64 503.102
136 1 43.2478 11.3532 491 95.8921 1093.55 522.707
137 0 45.3328 11.6913 530 92.8755 1093.71 524.457
138 0 46.1885 11.3881 526 94.4297 1093.03 523.662
139 0 44.1161 12.1044 534 93.9101 1090.47 522.354
140 0 47.0885 13.5065 636 92.088 1089.72 524.281
141 0 48.1426 11.6736 562 94.7616 1088.74 523.993
142 0 48.1235 11.7614 566 88.3604 1085.99 515.065
143 0 50.1227 12.649 634 118.058 1082.93 516.632
144 0 51.0824 13.8991 710 91.8239 1083.85 520.852
145 0 51.0989 13.7968 705 121.248 1082.86 520.833
146 0 53.1445 13.0211 692 91.8858 1080.39 520.367
147 0 54.4046 13.7672 749 91.2964 1078.8 520.965
148 0 55.2128 14.8154 818 88.3178 1077.27 520.787
149 0 54.1335 13.1711 713 92.3296 1076.56 519.008
150 0 55.2879 14.0899 779 90.1913 1074.65 518.763
151 0 56.2795 14.0549 791 89.2023 1074.18 516.995
152 0 56.1741 13.6896 769 89.8804 1072.85 515.035
153 0 57.194 13.3231 762 90.3766 1072.56 511.463
154 0 58.2533 12.5658 732 90.5833 1072.62 512.549
155 0 57.1128 14.0949 805 88.5217 1072.67 512.266
156 0 58.1021 12.2027 709 90.323 1072.68 509.083
157 0 59.1372 13.883 821 87.0877 1073.4 507.191
158 0 58.3519 14.0184 818 86.1736 1075.47 508.342
159 1 14.0225 8.34374 117 84.5726 1078.43 529.103
160 0 18.0177 6.4381 116 85.3707 1078.69 528.879
161 0 22.0448 7.12186 157 85.5796 1080.73 526.892
162 0 22.004 7.40773 163 86.0614 1082.75 526.81
163 0 28.0144 5.3187 149 88.0872 1084.59 525.946
164 0 23.0354 8.07453 186 83.7419 1087.36 528.177
165 0 23.0354 8.03112 185 114.497 1089.34 528.162
166 0 23.0354 7.85747 181 114.238 1091.36 528.166
167 0 27.0224 8.25242 223 84.4619 1091.28 527.448
168 0 27.0308 6.69605 181 85.9613 1093.78 528.177
169 0 28.0184 7.63782 214 84.6168 1094.62 528.972
170 0 30.0184 5.86307 176 84.6193 1095.83 531.267
171 0 30.0184 5.86307 176 117.062 1095.85 531.358
172 0 23.0136 6.56134 151 79.7616 1093.46 534.51
173 0 29.0991 9.24428 269 80.4572 1091.35 530.55
174 0 29.0849 6.15439 179 83.2179 1090.07 531.67
175 0 29.0239 6.92532 201 83.5323 1087.74 530.438
176 0 27.0038 6.2954 170 80.6 1086.15 534.365
177 0 26.0045 6.76805 176 79.4489 1085.12 535.205
178 0 23.0296 8.77134 202 79.0891 1082.82 533.188
179 0 22.0617 9.5641 211 75.4976 1081.68 535.152
180 0 26.1937 9.31523 244 76.8688 1078.45 532.332
181 0 28.1308 9.06479 255 78.7373 1077.47 529.847
182 0 20.1312 7.74917 156 76.4295 1076.56 533.096
183 0 20.0398 7.38531 148 77.3919 1075.76 531.811
184 0 25.0408 9.66422 242 75.1818 1074.74 528.835
185 0 27.0462 7.94935 215 78.2372 1072.24 526.033
186 0 33.0228 11.9311 394 75.2716 1071.05 522.703
187 0 21.0596 6.17296 130 81.6923 1070.97 526.831
188 0 19.0127 4.99665 95 80.621 1071.87 527.947
189 0 28.0166 6.13922 172 82.1046 1072.23 523.204
190 0 23.0111 9.16948 211 76.8768 1073.27 525.872
191 0 26.0314 5.14764 134 82.9254 1074.65 521.597
192 0 24.0292 8.28158 199 79.5126 1076.05 523.417
193 0 23.0254 8.81633 203 77.6946 1078.15 523.389
194 0 26.0101 7.88154 205 80.6976 1080.37 522.151
195 0 24.0374 7.23871 174 77.8563 1082.84 523.885
196 0 27.0623 10.5682 286 76.3846 1085.15 524.381
197 0 23.0369 4.64471 107 80.9626 1088.09 526.037
198 0 30.0274 8.15921 245 80.0408 1090.52 522.31
199 0 29.0367 8.81644 256 77.3984 1092.56 525.746
200 0 20.0143 9.74304 195 76.0359 1093.77 529.446
201 0 20.0078 8.2468 165 76.0364 1094.94 529.879
