time division length width area intensity CMx CMy
0 0 49.1355 15.8338 778 118.062 504.437 504.127
1 0 51.1284 16.1163 824 115.205 506.874 505.487
2 0 50.1018 15.3487 769 120.424 506.437 505.398
3 0 52.0426 15.9869 832 117.346 507.444 505.419
4 0 53.163 16.1202 857 117.457 507.377 506.447
5 0 56.088 17.0268 955 112.387 507.502 507.356
6 0 57.2317 17.4903 1001 111.597 506.484 509.065
7 0 58.2036 18.0229 1049 109.702 505.322 508.935
8 0 61.1309 16.7019 1021 112.467 503.772 508.437
9 0 61.1455 17.074 1044 114.217 502.784 508.879
10 1 33.0454 11.2875 373 126.043 501.142 522.338
11 0 35.0059 11.598 406 118.084 499.234 525.281
12 0 34.0725 10.2722 350 121.354 497.529 526.986
13 0 33.0714 9.82723 325 175.538 496.677 526.686
14 0 36.0539 12.7309 459 117.614 494.444 525.453
15 0 37.0194 11.5615 428 120.175 492.023 524.946
16 0 40.0494 12.5845 504 115.855 489.631 524.431
17 0 40.0453 12.6856 508 116.451 488.25 523.648
18 0 41.0113 13.3378 547 115.302 485.411 521.967
19 0 44.1251 13.5071 596 112.406 483.914 521.574
20 0 48.1609 12.8527 619 114.653 480.502 518.501
21 0 46.0372 14.3362 660 111.708 481.555 516.655
22 0 50.0577 16.1414 808 108.267 482.657 515.239
23 0 50.0251 14.4727 724 111.126 482.808 514.294
24 0 51.0856 16.0123 818 108.996 483.449 512.165
25 0 54.0824 14.4409 781 111.515 484.753 510.899
26 0 54.0397 14.4523 781 111.557 487.283 510.405
27 0 57.1108 14.8658 849 109.941 489.121 508.352
28 0 58.0449 15.2468 885 109.14 490.806 507.666
29 0 59.0363 15.3296 905 109.693 493.071 508.2
30 0 61.0837 15.5688 951 106.531 494.631 508.14
31 0 62.1788 15.1659 943 106.964 496.55 507.099
32 0 65.1402 16.4722 1073 102.106 498.889 509.003
33 0 66.1931 15.6058 1033 105.115 499.728 510.232
34 0 69.1581 14.85 1027 104.407 499.611 506.092
35 0 71.1219 15.9444 1134 101.399 500.197 510.381
36 0 73.1931 16.5999 1215 100.52 499.721 510.3
37 0 75.1249 14.8153 1113 105.646 499.46 509.29
38 0 80.1558 15.9939 1282 102.448 497.748 508.987
39 1 42.039 11.4893 483 105.822 495.255 528.994
40 0 42.0453 11.9157 501 106.026 493.794 527.723
41 0 44.0131 11.1785 492 106.97 491.553 526.892
42 0 45.0924 13.0177 587 102.545 489.523 526.612
43 0 45.03 12.1697 548 103.44 487.993 526.688
44 0 50.014 13.4562 673 100.134 485.967 524.541
45 0 50.1449 14.139 709 97.8322 484.636 522.927
46 0 52.092 14.4744 754 103.44 482.557 525.813
47 0 55.0527 16.0755 885 99.6814 480.225 525.158
48 0 56.034 14.3484 804 103.949 477.781 523.815
49 0 59.1527 14.9951 887 101.387 477.32 520.972
50 0 60.146 14.5147 873 104.08 475.842 519.784
51 0 63.0368 15.9272 1004 100.322 473.598 515.18
52 0 65.0972 14.6857 956 102.786 473.131 515.567
53 0 68.1158 15.6792 1068 102.529 471.908 512.218
54 0 70.0762 14.1418 991 107.898 472.51 508.918
55 0 74.0528 15.0298 1113 106.424 472.858 507.432
56 0 76.1465 16.5733 1262 103.165 472.518 504.521
57 0 78.1511 15.7259 1229 105.713 474.168 502.306
58 0 80.1892 15.3761 1233 106.589 474.811 501.527
59 1 40.055 9.96129 399 108.018 478.153 521.862
60 0 43.033 11.8514 510 106.431 480.626 518.865
61 0 46.0252 11.5154 530 101.864 481.794 523.392
62 0 46.0883 10.9138 503 108.74 483.612 519.903
63 0 47.1316 12.1574 573 106.127 485.991 520.363
64 0 49.0801 13.2233 649 103.205 487.527 518.982
65 0 47.1873 12.2279 577 106.96 488.676 520.34
66 0 52.0704 13.501 703 102.728 493.112 521.189
67 0 55.0262 14.0478 773 100.634 493.05 521.639
68 0 55.0509 13.2241 728 103.804 492.941 520.446
69 0 59.118 13.989 827 101.761 492.132 521.146
70 0 60.0736 13.3503 802 104.714 490.978 521.302
71 0 63.1502 13.9509 881 102.88 490.082 521.405
72 0 65.0478 14.1281 919 103.686 488.399 518.646
73 0 67.1111 13.8427 929 106.113 486.156 519.101
74 0 69.1163 13.6147 941 106.545 484.499 519.562
75 0 72.157 14.4269 1041 105.05 481.875 519.646
76 0 76.1385 14.7363 1122 104.348 480.867 518.237
77 0 77.1259 14.405 1111 107.358 477.435 515.976
78 0 81.1328 15.0371 1220 107.534 475.977 514.701
79 1 43.031 11.1315 479 110.177 475.843 533.877
80 0 43.0209 10.1811 438 111.847 473.936 534.838
81 0 47.0752 10.77 507 111.621 472.469 531.706
82 0 48.05 13.0697 628 108.385 471.664 528.502
83 0 50.0764 13.1199 657 107.776 469.866 529.079
84 0 50.0862 13.0775 655 110.927 469.023 525.736
85 0 53.0779 13.9983 743 103.358 467.871 523.791
86 0 55.0554 13.5136 744 105.052 466.695 522.208
87 0 57.121 14.0929 805 103.513 467.104 521.764
88 0 59.0959 13.7404 812 106.559 467.344 518.755
89 0 59.1634 12.9641 767 108.545 468.572 518.181
90 0 62.0506 13.1989 819 106.973 467.733 517.015
91 0 64.0689 13.8133 885 107.118 469.119 515.638
92 0 63.0918 12.7433 804 111.908 471.381 514.205
93 0 68.0498 14.1367 962 106.604 472.726 515.793
94 0 71.0995 13.4178 954 111.555 474.577 514.176
95 0 72.0586 13.8915 1001 111.518 478.27 511.903
96 0 73.1044 14.2262 1040 112.094 480.257 511.015
97 0 76.1268 13.6089 1036 113.027 483.009 511.602
98 0 77.1055 13.8771 1070 112.468 485.688 510.71
99 0 81.1016 14.8086 1201 109.025 487.022 510.115
100 0 84.1 13.8645 1166 112.313 487.794 511.102
101 1 46.0537 9.03294 416 113.44 488.245 531.017
102 0 47.0492 9.64947 454 115.148 488.425 530.808
103 0 49.0353 9.80926 481 112.474 488.069 532.588
104 0 48.0431 10.0327 482 113.039 486.595 530.085
105 0 51.0867 12.332 630 106.87 484.694 528.971
106 0 52.2333 11.8698 620 106.479 481.69 528.453
107 0 55.0906 12.779 704 101.793 481.452 527.709
108 0 57.105 13.1337 750 100.784 479.452 528.405
109 0 57.1165 11.3802 650 103.735 477.777 530.243
110 0 60.0662 12.3697 743 101.405 475.734 527.382
111 0 63.1119 13.0879 826 99.2567 473.939 525.19
112 0 63.1304 12.688 801 100.434 473.13 525.437
113 0 67.0917 13.4145 900 99.2789 471.857 523.259
114 0 68.0884 12.3075 838 102.464 470.442 520.158
115 0 72.0821 13.9841 1008 98.1875 468.682 521.149
116 0 73.1121 13.3904 979 100.663 467.166 520.538
117 0 74.1063 11.7804 873 104.731 466.48 518.86
118 0 76.0911 12.1302 923 106.319 465.389 517.303
119 0 80.1556 14.397 1154 101.591 464.554 512.036
120 0 81.118 12.0812 980 107.156 463.95 509.084
121 0 85.2279 14.2324 1213 102.317 462.586 505.65
122 1 47.0739 9.94182 468 106.073 463.816 526.716
123 0 48.1152 10.9321 526 106.215 463.627 522.781
124 0 51.1097 11.0742 566 102.841 465.555 524.76
125 0 51.0858 11.2752 576 104.366 466.488 520.387
126 0 52.261 12.1123 633 94.0822 467.785 515.905
127 0 52.1323 11.2023 584 98.476 470.11 514.101
128 0 55.0507 11.6438 641 98.7286 472.526 520.41
129 0 56.1011 12.4418 698 97.447 475.345 521.063
130 0 57.2433 11.7918 675 98.4444 477.936 520.428
131 0 60.3721 12.3898 748 97.0829 479.274 520.091
132 0 64.1867 12.5415 805 95.8559 481.166 519.653
133 0 65.2862 13.8008 901 93.9867 481.921 517.954
134 0 69.1771 12.3307 853 96.4197 483.88 521.508
135 0 72.2428 12.4857 902 95.5687 483.782 519.91
136 0 73.2223 12.6191 924 95.5509 484.371 520.392
137 0 73.2372 10.9371 801 99.1748 482.954 517.099
138 1 39.0177 10.6106 414 92.8551 484.08 538.49
139 0 41.0406 8.26012 339 95.9056 481.953 540.148
140 0 44.0397 10.6949 471 90.1592 480.236 540.363
141 0 42.0141 9.5206 400 97.01 478.69 539.348
142 0 45.0216 8.97348 404 98.5545 478.131 536.611
143 0 47.0464 11.223 528 92.6856 476.191 537.443
144 0 49.1059 12.5036 614 89.7492 472.691 535.928
145 0 50.1704 12.4177 623 89.7737 470.295 533.39
146 0 51.0772 12.4909 638 88.1599 468.691 535.846
147 0 53.1002 12.3917 658 89.0669 468.903 534.581
148 0 53.1002 12.4482 661 127.082 469.891 534.277
149 0 54.0384 12.6577 684 89.9868 464.82 530.316
150 0 55.1304 12.0623 665 91.779 464.591 530.355
151 0 58.2011 12.2678 714 90.3824 463.331 529.126
152 0 58.0962 10.758 625 94.7392 462.014 525.854
153 0 61.1072 11.4553 700 93.5486 461.641 524.077
154 0 65.1913 13.5908 886 89.86 460.962 521.809
155 0 66.1854 13.855 917 91.0742 461 518.863
156 0 67.1916 12.323 828 94.6534 462.118 516.132
157 0 71.1873 13.9913 996 91.744 462.479 515.143
158 0 73.1863 14.3879 1053 91.6543 464.27 514.765
159 0 72.2891 13.0587 944 95.2744 464.959 510.899
160 0 77.1546 14.7496 1138 91.3612 467.151 510.924
161 1 40.0754 10.4054 417 98.5875 470.523 530.487
162 0 43.0433 10.3152 444 101.255 472.788 528.374
163 0 45.0285 11.0375 497 97.3119 475.463 531.394
164 0 45.0188 11.0176 496 99.5544 476.861 530.718
165 0 47.0175 12.1231 570 98.7737 479.563 529.475
166 0 47.049 11.4349 538 101.338 480.533 529.162
167 0 49.0647 11.3931 559 101.288 481.556 532.12
168 0 51.0752 10.9642 560 103.236 482.684 531.418
169 0 54.0986 12.9024 698 100.272 481.947 529.662
170 0 54.0432 12.2865 664 101.128 481.117 531.553
171 0 57.057 12.8819 735 96.8381 479.38 531.076
172 0 59.0599 13.9858 826 94.7833 477.907 530.045
173 0 63.0329 14.7383 929 92.3315 477.004 530.693
174 0 63.0679 13.2238 834 97.4017 474.795 529.185
175 0 64.05 13.3802 857 98.3337 473.611 527.93
176 0 66.0309 14.0995 931 96.391 470.777 529.36
177 0 67.0674 13.9412 935 98.0032 469.218 526.645
178 0 67.0674 13.9561 936 143.342 467.212 526.661
179 0 72.1337 14.2652 1029 97.1361 466.672 525.923
180 0 74.1368 14.6891 1089 97.0578 464.64 524.294
181 0 75.1355 13.5888 1021 100.339 463.214 521.063
182 1 39.0465 10.6028 414 104.097 459.64 538.37
183 0 40.0957 9.77661 392 104.587 460.293 538.663
184 0 43.0587 12.4946 538 98.79 460.829 534.623
185 0 44.0532 11.645 513 100.889 459.647 535.364
186 0 44.0281 11.1974 493 100.98 458.247 535.051
187 0 45.0609 12.2057 550 101.74 456.873 528.507
188 0 47.108 12.5244 590 100.492 456.786 527.859
189 0 47.0211 12.6539 595 100.64 458.871 525.291
190 0 47.0562 11.9219 561 102.062 459.173 526.934
191 0 51.0901 13.1728 673 98.0877 460.657 524.932
192 0 52.0496 11.1624 581 102.53 462.377 525.589
193 0 52.0973 12.8989 672 100.196 464.217 523.51
194 0 54.0964 13.5314 732 98.2268 465.798 524.851
195 0 56.0573 13.4684 755 98.0768 468.385 521.257
196 0 59.0737 13.5424 800 97.2762 471.966 522.611
197 0 61.212 13.7065 839 97.1871 474.642 521.634
198 0 63.2527 13.5014 854 98.1452 476.947 521.938
199 0 66.1055 13.3423 882 99.1553 479.499 521.096
200 0 67.1378 12.6605 850 100.912 480.186 521.853
201 0 69.232 13.202 914 100.45 481.177 520.131
202 0 72.1841 14.657 1058 97.1919 482.444 521.33
203 0 75.187 14.4174 1084 97.9179 481.081 521.881
204 0 75.1385 13.2555 996 102.376 480.867 520.523
205 0 79.1031 14.1461 1119 101.058 479.698 519.34
206 0 83.1278 14.3875 1196 99.8763 477.602 520.319
207 0 84.0961 13.7462 1156 102.203 477.715 518.657
208 0 86.1454 13.2334 1140 102.675 475.658 521.278
209 0 90.1316 14.6342 1319 100.837 472.5 517.517
210 0 93.1094 14.0587 1309 101.952 472.2 516.488
211 0 95.2327 14.3753 1369 104.915 470.898 514.947
212 0 102.275 13.7961 1411 103.702 469.067 504.102
213 0 107.184 14.1718 1519 102.35 464.597 507.585
214 0 110.256 13.7589 1517 105.987 463.999 505.351
215 0 113.325 13.4833 1528 106.863 461.605 503.456
216 0 118.256 14.1472 1673 105.439 460.766 501.066
217 0 123.166 14.6712 1807 106.231 459.307 494.406
218 0 125.305 13.1998 1654 110.068 458.859 492.735
219 0 132.233 15.0491 1990 103.457 458.191 488.127
220 0 137.389 13.1233 1803 108.144 457.681 484.451
221 1 76.2604 11.0673 844 104.065 457.462 515.366
222 0 80.2133 13.1774 1057 103.441 458.643 512.065
223 0 83.2474 13.4298 1118 105.079 459.61 509.206
224 0 82.2245 11.4929 945 101.273 461.567 505.595
225 0 88.1961 13.1298 1158 98.1926 463.734 503.451
226 0 87.3548 12.6267 1103 102.384 466.245 500.837
227 0 94.2616 13.8869 1309 104.898 467.966 503.711
228 1 49.1765 10.7775 530 105.551 468.291 526.932
229 0 52.1394 11.661 608 101.918 471.493 528.493
230 0 53.0741 11.1354 591 102.653 477.398 529.618
231 0 56.1022 13.0476 732 100.404 477.272 527.384
232 0 56.1022 13.1011 735 151.098 479.26 527.412
233 0 60.0522 13.2218 794 96.3892 479.21 527.945
234 0 60.1451 13.5672 816 96.299 479.613 528.198
235 0 61.0741 12.3457 754 98.5796 478.94 530.243
236 0 63.0637 12.3843 781 99.4725 479.038 528.793
237 0 68.0986 13.5098 920 96.8424 478.295 526.688
238 0 69.1206 13.7007 947 96.6874 477.011 528.458
239 0 70.1119 12.4373 872 99.156 475.329 528.144
240 0 74.1076 14.1686 1050 95.781 474.7 527.206
241 0 75.117 13.1661 989 98.723 475.069 524.436
242 0 78.142 13.0276 1018 99.5255 472.937 525.324
243 0 81.1339 13.9892 1135 99.3066 471.074 522.621
244 0 83.144 13.3263 1108 101.884 470.206 521.986
245 1 44.0192 9.22325 406 103.135 469.436 542.815
246 0 45.0466 9.87866 445 104.78 466.369 539.312
247 0 49.0797 11.1655 548 102.232 464.305 537.998
248 0 48.0458 11.156 536 102.612 463.554 537.935
249 0 50.0308 11.2531 563 103.202 461.266 536.275
250 0 53.1094 12.2012 648 100.704 459.809 532.156
251 0 53.1347 12.2895 653 135.331 457.818 532.144
252 0 54.0284 11.2533 608 100.03 455.674 530.053
253 0 54.0645 11.7822 637 99.7174 454.724 526.549
254 0 56.3025 11.8823 669 98.7922 456.903 527.121
255 0 57.0952 11.9625 683 100.559 456.419 524.193
256 0 59.1164 12.856 760 98.5329 457.187 522.988
257 0 62.0777 13.1287 815 97.7325 457.416 520.52
258 0 64.0735 13.266 850 97.5 459.231 518.871
259 0 67.165 13.3105 894 97.5235 459.747 516.141
260 0 65.111 12.3942 807 100.52 462.466 515.284
261 0 68.0943 13.2023 899 98.2814 465.92 514.232
262 0 72.1844 12.5789 908 98.2092 467.031 513.198
263 0 75.178 14.7383 1108 93.8863 470.644 513.531
264 1 40.0697 9.85783 395 95.4025 471.896 531.253
265 0 40.0402 9.59036 384 100.326 476.445 532.109
266 0 42.1272 11.4178 481 96.8836 478.84 532.854
267 0 44.055 11.3948 502 95.3845 478.759 534.94
268 0 43.042 11.8489 510 95.3176 479.11 534.357
269 0 46.0766 11.7196 540 96.3056 478.476 534.906
270 0 47.0994 12.1658 573 94.1309 479.684 536.928
271 0 46.0437 10.5986 488 95.1352 478.969 536.648
272 0 49.0615 12.3722 607 93.2306 477.156 535.361
273 0 52.083 13.0561 680 90.3353 475.529 536.904
274 0 52.0954 11.9012 620 94.0823 474.574 535.956
275 0 54.068 11.8554 641 94.1732 472.105 533.087
276 0 55.124 12.5898 694 92.4496 470.431 534.715
277 0 58.1591 13.3255 775 90.1523 468.515 533.654
278 0 59.1255 13.0232 770 91.2545 467.526 531.117
279 0 61.1356 13.5437 828 90.6582 466.281 529.918
280 0 63.1977 13.4657 851 90.5053 464.72 530.524
281 0 64.0887 12.7948 820 92.3317 462.44 530.087
282 0 65.1135 13.4995 879 92.2571 461.484 525.083
283 0 68.0822 11.3245 771 95.1349 461.193 527.28
284 0 70.1411 12.2182 857 94.3419 457.916 523.901
285 0 73.1245 13.1146 959 94.1157 457.571 520.968
286 0 74.2692 12.7644 948 95.5918 456.678 516.212
287 0 79.0879 13.0867 1035 94.7449 456.287 513.117
288 0 82.1028 13.8607 1138 93.5018 456.056 510.637
289 1 44.0303 10.1975 449 96.3675 455.454 530.886
290 0 46.1469 10.6616 492 95.0183 457.728 529.234
291 0 48.0722 10.9211 525 95.9733 458.021 527.739
292 0 48.0378 11.366 546 96.3187 460.203 526.707
293 0 52.0178 12.6687 659 94.3718 462.674 525.514
294 0 53.0498 12.5542 666 92.449 465.689 523.336
295 0 53.0842 11.7361 623 95.4607 468.857 524.729
296 0 54.1022 11.3489 614 95.7687 470.267 525.016
297 0 55.105 11.1787 616 95.0325 474.362 525.333
298 0 57.1483 11.9514 683 95.0512 475.892 523.182
299 0 60.0683 11.5202 692 96.2095 479.364 525.113
300 0 63.2416 11.7012 740 95.4 479.743 525.15
301 0 63.0783 12.6192 796 95.6683 481.054 525.695
302 0 65.095 11.3066 736 98.3125 481.827 526.357
303 0 70.1367 12.0764 847 96.7898 481.881 526.773
304 0 72.1149 12.4662 899 97.8443 480.813 525.064
305 0 74.1535 11.9077 883 99.8177 480.435 523.903
306 0 78.1056 12.5599 981 98.9134 478.505 523.227
307 1 41.0032 10.4626 429 100.991 477.916 541.14
308 0 42.0119 9.14026 384 103.211 476.419 540.557
309 0 43.1209 10.2734 443 100.391 473.454 541.641
310 0 45.0241 10.0169 451 101.969 470.922 540.647
311 0 44.0211 10.1769 448 102.569 469.257 541.721
312 0 48.014 11.0801 532 101.227 467.97 539.346
313 0 50.0995 12.9343 648 97.1173 464.489 536.557
314 0 51.031 12.1299 619 99.9386 462.309 536.569
315 0 51.067 12.8263 655 98.884 461.927 536.009
316 0 51.0701 11.8269 604 96.7219 459.796 533.601
317 0 54.0591 12.3198 666 96.7417 458.071 532.764
318 0 54.0577 11.8947 643 98.7729 457.341 534.519
319 0 57.0208 12.6796 723 97.971 456.245 528.957
320 0 59.0908 13.2339 782 96.6458 455.694 527.391
321 0 58.0922 12.3769 719 100.381 455.47 523.896
322 0 61.0712 12.772 780 100.515 455.483 522.18
323 0 63.151 13.8557 875 97.8571 455.17 519.208
324 0 64.1842 13.4457 863 98.5249 456.377 517.441
325 0 68.0924 13.7607 937 96.047 457.943 516.099
326 0 68.182 12.8773 878 98.5444 459.189 513.213
327 0 70.1519 13.1857 925 97.3578 462.057 513.261
328 0 73.1243 13.8121 1010 96.3148 463.666 515.341
329 0 76.0845 14.7993 1126 94.2362 466.202 511.893
330 0 78.1705 13.4833 1054 97.4137 469.423 512.094
331 1 43.0176 10.2051 439 97.6492 472.444 531.064
332 0 45.0971 10.4885 473 97.0063 475.123 532.641
333 0 46.1682 11.3498 524 96.5515 477.164 529.943
334 0 46.0962 10.8903 502 96.998 479.418 531.404
335 0 48.1494 11.6512 561 95.4242 480.089 530.959
336 0 46.0569 9.96594 459 91.7996 478.904 530.068
337 0 50.0857 12.2789 615 87.548 479.514 531.415
338 0 50.0543 11.4875 575 88.92 478.522 529.633
339 0 54.059 12.1534 657 86.7808 477.056 529.878
340 0 54.1512 12.7606 691 85.7786 475.813 529.918
341 0 56.185 12.3877 696 85.4986 474.004 529.621
342 0 61.1635 14.0116 857 82.832 472.686 528.298
343 0 60.1055 12.8108 770 84.374 471.222 527.704
344 0 64.2408 11.8149 759 84.8972 467.904 524.008
345 0 65.0984 12.7499 830 82.7771 465.688 523.123
346 0 68.2008 12.6245 861 82.8839 465.077 524.367
347 0 71.2723 14.6761 1046 80.4235 464.539 522.119
348 0 74.1261 14.8666 1102 84.971 462.584 525.338
349 1 37.0202 10.2647 380 90.6605 462.718 542.79
350 0 39.0899 12.6375 494 86.6599 461.174 539.828
351 0 40.0551 11.9086 477 89.6876 458.757 536.302
352 0 41.0998 11.0463 454 89.9273 459.489 535.758
353 0 43.0705 13.4895 581 86.642 457.534 533.167
354 0 41.0686 11.9069 489 91.3374 456.699 529.955
355 0 44.0788 13.0902 577 88.3293 456.537 526.891
356 0 48.0391 13.8221 664 88.1265 455.172 529.364
357 0 47.0322 14.5645 685 86.0336 455.463 526.685
358 0 50.0206 13.8743 694 86.8833 456.932 526.416
359 0 50.0324 13.4713 674 88.3457 458.138 526.148
360 0 54.0569 13.8743 750 86.228 460.193 523.593
361 0 55.0771 14.3798 792 85.5859 461.926 521.987
362 0 56.0591 13.8604 777 86.5161 464.668 522.117
363 0 58.1263 13.9008 808 86.5248 467.959 524.521
364 0 61.162 16.6607 1019 81.8665 471.585 523.585
365 0 64.1523 15.5723 999 82.7608 473.882 521.78
366 0 65.0876 15.241 992 84.9587 475.882 520.926
367 0 67.0795 14.1027 946 87.4577 477.555 523.066
368 0 69.0522 14.3225 989 87.8332 478.213 522.586
369 0 72.1245 14.8355 1070 87.257 479.044 524.623
370 0 76.1809 15.5288 1183 85.787 478.532 523.607
371 0 78.0668 15.9735 1247 86.9038 479.199 522.312
372 0 82.1367 16.5334 1358 84.9676 477.474 522.541
373 0 84.1161 15.3003 1287 88.4118 476.869 521.314
374 0 86.1201 15.8616 1366 88.0132 475.036 521.77
375 0 90.1283 15.6444 1410 89.2709 473.465 523.21
376 1 46.0979 11.0851 511 96.8611 472.38 541.564
377 0 50.0763 10.2444 513 95.5692 469.889 542.641
378 0 53.0832 12.7347 676 92.9793 467.641 539.05
379 0 53.0611 12.7589 677 95.5391 466.789 536.035
380 0 56.1091 13.3668 750 94.4213 463.835 530.912
381 0 59.1786 14.8365 878 91.4112 462.859 529.29
382 0 61.1266 13.4639 823 95.2333 462.612 529.074
383 0 62.1438 14.1607 880 94.167 461.926 528.41
384 0 63.146 15.3137 967 91.5078 461.471 530.731
385 0 67.0414 14.1554 949 94.314 459.943 526.904
386 0 66.0948 14.3733 950 96.301 458.892 522.659
387 0 70.0765 13.471 944 97.071 458.073 521.803
388 0 75.0882 16.2609 1221 91.1122 457.602 518.237
389 0 75.0537 13.8567 1040 96.4817 456.408 515.927
390 0 78.2178 14.3318 1121 96.0428 456.566 514.856
391 0 81.1272 13.448 1091 98.1182 457.402 510.526
392 0 84.0468 13.8732 1166 98.4057 458.656 509.209
393 0 85.1841 14.8502 1265 98.5605 460.113 506.991
394 0 90.1408 14.5328 1310 98.9023 461.298 506.463
395 1 48.0587 11.2779 542 98.8819 463.78 527.875
396 0 48.1529 12.0034 578 99.7076 465.917 526.029
397 0 51.209 12.7126 651 97.7373 470.673 525.899
398 0 50.1903 11.297 567 101.564 473.097 526.328
399 0 51.1541 12.2962 629 99.1717 475.307 527.35
400 0 53.2273 12.813 682 98.4941 477.696 525.856
401 0 55.2572 13.6815 756 93.6693 479.438 528.647
402 0 58.1548 13.4813 784 95.2449 479.077 526.334
403 0 60.2965 13.3009 802 94.8653 478.752 526.532
