time division length width area intensity CMx CMy
0 0 30.0151 12.1605 365 120.167 359.362 494.8
1 0 30.016 11.8603 356 121.781 359.621 496.694
2 0 31.07 13.2604 412 120.235 360.019 496.216
3 0 32.0688 13.0345 418 123.194 360.818 498.553
4 0 35.1246 13.3525 469 120.493 361.499 498.787
5 0 35.1571 13.9659 491 121.057 359.845 499.218
6 0 38.0319 14.5667 554 119.025 358.56 500.09
7 0 38.0278 14.7524 561 121.79 357.417 501.214
8 0 41.0892 14.5537 598 119.554 357.012 500.721
9 0 39.0509 15.2365 595 122.538 355.113 500.348
10 0 42.0682 15.5224 653 119.319 353.66 501.42
11 0 42.077 14.7586 621 123.953 351.746 501.419
12 0 44.0486 15.778 695 120.688 350.95 499.845
13 0 44.0846 16.3776 722 120.885 349.463 500.608
14 0 46.0665 15.0435 693 124.75 347.609 501.433
15 0 46.0633 15.0228 692 127.507 345.345 500.001
16 0 47.023 16.6514 783 122.94 343.734 499.475
17 0 49.156 15.1151 743 126.678 341.728 498.888
18 0 50.0884 16.5108 827 122.037 339.233 497.593
19 0 52.0669 13.8091 719 131.83 337.69 496.915
20 0 53.0791 16.2211 861 126.334 335.039 495.521
21 0 55.1199 16.8723 930 121.91 334.904 495.011
22 0 57.1374 16.9241 967 120.211 335.243 494.031
23 0 58.0359 16.2486 943 121.666 336.013 494.175
24 0 60.0277 17.0421 1023 119.42 336.814 491.687
25 0 59.1807 15.9512 944 124.087 338.552 491.846
26 0 63.1037 18.2715 1153 114.416 340.304 491.251
27 0 65.2414 15.8795 1036 120.525 342.867 489.124
28 0 67.4541 17.5379 1183 117.051 345.017 488.078
29 0 67.2648 16.8439 1133 119.981 347.132 486.786
30 0 71.3811 17.3715 1240 115.962 350.073 487.452
31 0 72.29 17.748 1283 115.924 351.56 487.2
32 1 37.1048 12.7477 473 123.655 352.288 507.332
33 0 37.0713 12.5973 467 122.18 353.355 510.304
34 0 39.1262 12.1658 476 121.426 353.59 510.529
35 0 39.157 13.4586 527 122.07 353.704 511.057
36 0 41.2078 12.3035 507 123.036 353.542 513.014
37 0 43.2382 13.5066 584 120.622 352.156 511.954
38 0 42.1713 13.9194 587 123.538 350.608 509.937
39 0 47.1928 16.2525 767 116.395 348.445 510.256
40 0 48.2578 15.4379 745 121.354 346.909 509.397
41 0 51.1786 15.4557 791 119.719 345.791 510.522
42 0 52.0683 14.9995 781 121.694 343.661 509.74
43 0 53.1678 16.5138 878 118.606 342.309 508.452
44 0 54.2101 14.5729 790 123.847 340.647 507.096
45 0 55.0716 15.0531 829 122.251 339.18 507.14
46 0 60.0354 15.9573 958 117.602 336.005 506.613
47 0 60.0501 15.7035 943 119.68 334.761 505.159
48 0 62.1973 15.5151 965 119.092 332.827 504.736
49 0 66.1061 14.87 983 119.045 331.415 502.27
50 0 67.0962 14.9338 1002 118.756 330.276 501.413
51 1 37.0889 11.2432 417 117.456 328.341 514.631
52 0 36.0815 12.2223 441 117.766 326.878 512.902
53 0 39.0759 12.0535 471 117.482 327.042 511.756
54 0 41.2328 11.6655 481 117.538 326.135 509.229
55 0 41.1969 12.6708 522 118.159 326.623 506.987
56 0 42.0616 12.1013 509 117.495 327.051 506.585
57 0 46.0745 13.9991 645 113.05 328.527 505.336
58 0 46.0644 14.4363 665 113.586 330.275 503.389
59 0 48.0401 14.2797 686 112.529 332.252 503.273
60 0 47.0606 14.407 678 113.559 334.019 500.509
61 0 49.0593 14.8392 728 111.435 337.251 500.808
62 0 49.0617 14.7773 725 141.881 340.286 500.818
63 0 55.1257 13.9681 770 111.192 340.945 503.942
64 0 56.2265 14.0681 791 111.757 342.912 500.301
65 0 58.1038 15.1281 879 108.404 344.647 502.241
66 0 60.0638 14.3847 864 109.723 346.039 501.612
67 0 62.057 14.4383 896 109.734 345.992 501.799
68 0 61.2607 13.7119 840 112.393 346.465 502.448
69 0 66.062 15.0767 996 109.497 346.414 502.621
70 0 66.068 14.3186 946 112.786 345.753 503.316
71 0 70.0925 14.8661 1042 111.875 344.174 502.625
72 0 72.0808 14.0398 1012 114.409 341.996 502.725
73 0 74.084 14.3351 1062 115.411 341.139 501.311
74 0 76.1675 13.2603 1010 116.922 339.307 501.929
75 0 80.1686 14.4695 1160 114.557 337.73 500.941
76 1 39.0139 9.43252 368 120.78 335.152 519.174
77 0 45.1107 10.7513 485 115.695 333.167 519.229
78 0 45.129 11.5668 522 114.117 331.218 519.021
79 0 47.0333 14.4153 678 108.879 329.922 516.984
80 0 47.0333 14.3515 675 134.676 327.911 516.902
81 0 49.0692 13.1039 643 112.499 324.832 514.603
82 0 52.1082 13.3376 695 111.555 323.184 513.053
83 0 53.0968 13.5225 718 112.731 322.759 510.467
84 0 57.1412 14.2979 817 109.349 321.556 507.666
85 0 58.0981 14.8542 863 110.137 320.674 505.406
86 0 61.2227 14.1288 865 111.313 320.01 504.198
87 0 62.1109 13.8623 861 113.239 320.843 503.993
88 0 64.1558 13.7634 883 115.442 320.358 499.183
89 0 67.2158 14.5353 977 112.59 321.221 497.984
90 1 35.0181 10.0805 353 110.793 322.037 516.768
91 0 35.0214 10.6221 372 111.723 322.914 515.013
92 0 36.0077 10.9143 393 113.305 326.12 514.036
93 0 37.0782 10.7071 397 115.567 328.224 512.615
94 0 38.1518 11.7426 448 113.46 330.529 513.018
95 0 40.0999 13.0175 522 108.113 332.833 511.918
96 0 40.073 11.529 462 108.848 333.987 512.489
97 0 39.0645 11.2634 440 111.402 336.648 513.432
98 0 42.0643 11.8866 500 110.11 339.614 512.59
99 0 42.0294 11.0637 465 111.32 340.74 514.516
100 0 44.0569 11.8483 522 110.098 340.709 515.531
101 0 45.0223 11.994 540 111.735 341.478 512.935
102 0 46.0192 13.3857 616 109.334 340.903 514.568
103 0 48.0498 12.5079 601 110.732 340.689 518.864
104 0 51.0905 13.1336 671 110.584 338.876 515.815
105 0 52.0547 13.6779 712 108.875 337.865 515.817
106 0 55.0634 12.7126 700 110.089 335.791 516.24
107 0 54.0321 13.2699 717 110.179 335.562 515.298
108 0 56.0654 12.8065 718 111.389 333.65 516.219
109 0 59.0952 13.3852 791 110.539 331.319 514.571
110 0 61.0614 12.1353 741 112.835 328.236 513.1
111 0 64.0303 14.6181 936 107.752 326.91 511.87
112 0 66.0868 12.5138 827 112.723 325.342 512.12
113 1 36.0135 12.1899 439 108.182 323.761 527.733
114 0 37.0388 11.5015 426 112.371 322.533 525.981
115 0 39.0555 11.3172 442 113.735 321.722 523.262
116 0 40.0981 10.6738 428 113.572 319.741 525.643
117 0 41.0233 11.9444 490 113.759 318.506 522.561
118 0 40.0714 12.0535 483 116.967 318.602 521.476
119 0 44.1158 12.9432 571 113.755 317.806 519.079
120 0 46.1021 14.1859 654 110.827 317.815 515.179
121 0 47.2041 13.0921 618 114.257 317.095 514.683
122 0 47.0858 13.6559 643 120.549 317.891 511.118
123 0 50.0897 13.4559 674 119.871 318.534 511.651
124 0 51.1394 14.5485 744 117.817 319.884 510.008
125 0 51.1269 13.8283 707 121.163 320.454 509.293
126 0 52.0739 15.286 796 118.398 321.882 508.062
127 0 53.1372 14.3402 762 121.629 324.033 507.917
128 0 54.1032 14.9529 809 121.339 326.323 507.262
129 0 55.092 14.1763 781 121.927 329.133 508.65
130 0 58.0748 14.4124 837 120.703 331.798 506.808
131 0 59.0655 14.0014 827 123.181 333.157 506.936
132 0 59.0629 13.9851 826 161.487 334.183 507.05
133 0 63.0961 13.9787 882 123.978 336.753 507.367
134 0 67.0347 14.8878 998 121.188 336.786 509.121
135 1 36.0174 10.2728 370 127.968 337.973 524.097
136 0 35.108 11.7067 411 124.985 337.367 525.102
137 0 37.0105 11.9155 441 123.633 336.537 524.821
138 0 38.022 10.7306 408 126.199 335.659 524.88
139 0 40.0209 12.5435 502 122.281 334.05 524.167
140 0 42.1479 12.2663 517 123.054 332.913 524.302
141 0 42.0616 11.7922 496 128.742 332.006 523.603
142 0 44.1036 13.8764 612 125.801 330.529 521.497
143 0 45.0181 13.639 614 121.93 326.63 523.262
144 0 47.1135 12.8413 605 123.666 326.683 522.902
145 0 49.0815 13.3859 657 122.696 325.125 520.945
146 0 51.0545 13.9067 710 119.689 322.921 522.631
147 0 52.0605 15.0594 784 117.761 323.078 519.68
148 0 54.194 14.0053 759 120.423 320.49 518.047
149 0 54.1269 15.4082 834 117.989 319.055 516.712
150 0 57.1069 13.1333 750 122.465 317.571 516.459
151 0 58.0962 14.235 827 120.162 316.935 512.891
152 0 62.1232 14.1332 878 118.434 316.677 509.472
153 0 63.1044 13.6757 863 120.38 316.21 507.906
154 0 66.2199 15.9167 1054 114.097 315.883 505.322
155 0 68.1532 14.2473 971 117.199 316.288 505.1
156 1 37.0491 10.7695 399 119.805 317.977 516.907
157 0 37.022 12.0469 446 114.951 316.37 518.135
158 0 39.0734 12.1054 473 116.074 318.112 515.002
159 0 41.0837 13.0709 537 113.08 319.339 515.877
160 0 42.1315 13.268 559 112.501 319.859 514.369
161 0 42.0718 12.7164 535 109.879 323.29 514.101
162 0 45.0787 13.8425 624 107.439 326.122 514.99
163 0 44.086 12.3849 546 112.747 328.923 514.835
164 0 48.123 14.1512 681 104.012 331.398 515.678
165 0 49.0861 14.1384 694 105.254 333.849 514.241
166 0 50.1171 13.0894 656 107.793 334.384 514.657
167 0 51.0575 13.4946 689 107.45 335.489 515.139
168 0 52.1989 13.0271 680 108.513 336.594 517.735
169 0 55.1623 13.0343 719 106.676 336.898 517.156
170 0 57.1562 13.1744 753 107.401 337.199 517.78
171 0 56.0426 13.4005 751 108.35 335.856 515.514
172 0 61.0617 14.7392 900 104.773 335.026 514.153
173 0 62.2672 13.8917 865 106.462 333.074 513.331
174 0 64.1092 14.2725 915 105.962 330.978 513.129
175 0 67.1728 14.098 947 106.714 329.49 512.041
176 0 66.247 13.1478 871 106.575 327.594 510.766
177 0 70.2049 12.8054 899 106.762 326.44 509.772
178 1 39.0717 11.0566 432 106.495 325.153 526.551
179 0 41.0358 10.6736 438 104.29 322.365 527.441
180 0 39.0335 9.19723 359 110.415 320.476 525.496
181 0 44.0453 12.9639 571 102.517 318.559 522.291
182 0 45.1064 11.75 530 104.926 316.855 520.945
183 0 46.0961 12.7777 589 103.39 316.312 520.022
184 0 47.0744 13.4043 631 103.616 315.995 515.563
185 0 50.0365 14.2096 711 102.232 314.203 513.205
186 0 55.0507 13.8963 765 100.25 313.118 514.433
187 0 54.0971 13.864 750 102.843 312.223 509.693
188 0 56.0378 14.4188 808 106.724 312.173 508.267
189 0 57.0388 13.0963 747 108.763 312.53 505.802
190 0 60.0718 14.799 889 104.615 314.105 503.854
191 0 61.1173 13.9895 855 108.439 314.767 503.207
192 0 64.0396 14.413 923 105.311 317.079 502.964
193 0 66.0345 14.5379 960 104.264 318.146 503.39
194 0 69.0616 14.8853 1028 102.771 321.458 502.334
195 1 36.0367 10.7391 387 105.326 325.333 516.902
196 0 39.044 9.01548 352 109.511 328.577 517.17
197 0 41.0554 10.2301 420 107.138 330.186 515.29
198 0 43.0562 9.9405 428 105.813 333.547 519.061
199 0 45.0645 11.5834 522 105.19 335.021 517.295
200 0 45.031 11.9251 537 104.911 336.371 517.505
201 0 48.0209 13.4316 645 103.07 336.763 517.69
202 0 48.0234 14.2014 682 103.872 337.375 516.962
203 0 51.0543 12.4769 637 105.124 338.116 517.027
204 0 54.0287 13.6964 740 101.65 336.939 517.557
205 0 53.0405 12.4245 659 105.956 336.035 517.376
206 0 55.0507 13.8055 760 103.201 333.976 517.774
207 0 57.0706 13.3168 760 104.003 332.688 516.643
208 0 57.1114 13.1848 753 104.595 330.522 518.157
209 0 61.1306 13.5939 831 102.408 328.7 515.499
210 0 61.111 12.78 781 105.01 327.196 514.895
211 0 64.064 14.1421 906 101.796 325.833 515.152
212 1 38.0168 9.78514 372 102.556 322.546 526.258
213 0 38.0413 10.436 397 103.804 318.285 527.811
214 0 39.0179 9.99541 390 104.536 317.292 528.562
215 0 41.041 12.1586 499 100.653 314.884 525.052
216 0 42.0452 12.106 509 100.986 314.35 522.165
217 0 44.0348 10.9232 481 102.857 313.245 520.921
218 0 45.0602 12.1615 548 100.432 313.086 518.755
219 0 47.0736 12.7672 601 98.8735 313.576 517.882
220 0 48.0838 13.7052 659 97.7269 313.346 516.454
221 0 49.0454 13.7424 674 98.3591 312.524 513.039
222 0 52.0312 14.8949 775 96.711 312.685 512.507
223 0 53.022 13.2209 701 99.5021 314.501 511.889
224 0 52.0467 11.4897 598 104.462 315.905 510.376
225 0 53.0495 12.4035 658 104.166 317.342 509.125
226 0 57.0458 13.3226 760 100.867 319.709 508.014
227 0 59.0597 14.9002 880 97.3489 322.491 507.101
228 0 58.0625 12.5554 729 102.759 324.632 508.387
229 0 62.0398 13.8137 857 100.526 326.953 508.058
230 0 64.0961 12.6529 811 100.905 329.899 506.348
231 0 66.1344 12.7921 846 101.519 332.051 504.622
232 0 68.0604 13.4293 914 100.247 333.487 507.023
233 0 70.0712 13.2008 925 100.139 334.752 507.491
234 0 72.1109 13.8259 997 99.1133 335.91 506.525
235 0 76.0543 12.307 936 101.565 335.916 505.331
236 1 39.0353 10.4265 407 102.939 335.722 523.855
237 0 41.0423 11.1349 457 101.077 333.562 525.046
238 0 41.0546 10.8879 447 100.819 332.004 527.418
239 0 44.0214 10.4722 461 101.857 331.529 525.646
240 0 44.0154 10.7689 474 104.236 328.504 526.264
241 0 47.0897 11.7223 552 102.58 326.855 525.44
242 0 49.0414 12.4385 610 101.116 325.184 524.938
243 0 51.067 13.4333 686 100.146 324.204 523.751
244 0 51.0648 13.1793 673 96.3105 323.856 523.208
245 0 53.0224 14.409 764 94.9476 322.132 522.8
246 0 54.0325 12.7701 690 98.5362 320.368 522.323
247 0 54.0107 12.2383 661 101.017 318.672 521.08
248 0 57.0515 13.4089 765 98.2614 317.431 518.686
249 0 60.0357 13.6919 822 98.0231 315.506 518.3
250 0 61.0697 14.7373 900 96.6022 313.266 514.187
251 0 62.0646 13.5987 844 99.7393 312.857 514.597
252 0 65.0648 14.6931 956 97.2856 311.91 510.198
253 0 66.0425 14.309 945 99.2169 311.414 508.08
254 0 69.038 14.4268 996 98.8474 311.988 506.103
255 0 71.0338 13.8103 981 101.075 312.02 501.487
256 0 75.0392 15.9916 1200 95.2633 311.756 500.761
257 0 76.0742 13.684 1041 100.91 312.478 498.73
258 0 80.0656 14.051 1125 99.112 313.495 497.233
259 0 83.1367 15.0355 1250 97.1032 316.025 496.639
260 1 44.0338 12.286 541 99.4067 317.451 515.941
261 0 44.0191 12.699 559 98.4043 320.365 516.605
262 0 43.0773 10.4928 452 103.007 321.841 516.923
263 0 46.0245 13.1234 604 99.9189 325.267 514.978
264 0 48.0856 13.0809 629 98.2798 329.169 515.782
265 0 48.0848 14.3288 689 95.1713 331.329 514.952
266 0 52.163 14.4164 752 93.6064 332.654 515.572
267 0 52.1336 15.1534 790 94.7924 333.665 515.391
268 0 52.1024 13.7614 717 101.213 333.41 515.509
269 0 56.1437 14.5341 816 98.4179 333.512 515.653
270 0 58.0622 16.4651 956 93.6151 334.362 516.958
271 0 59.1146 15.6814 927 96.0928 332.544 515.614
272 0 58.1575 13.6182 792 101.434 330.886 517.018
273 0 63.1001 14.7226 929 98.3466 330.667 513.948
274 0 62.0739 14.7727 917 99.9258 328.073 513.049
275 0 65.096 15.2083 990 98.4152 326.205 513.277
276 0 67.0924 15.5755 1045 98.0957 324.858 512.477
277 0 69.0868 14.5035 1002 99.8902 323.409 512.157
278 0 70.0765 13.999 981 101.743 321.597 509.835
279 0 75.1289 16.2787 1223 96.5437 320.354 508.576
280 0 77.0539 14.5353 1120 100.046 319.05 507.654
281 0 78.1432 13.8464 1082 102.4 317.666 507.886
282 0 82.2056 14.8895 1224 98.9208 315.91 503.01
283 0 87.1665 14.5239 1266 99.0205 314.406 502.384
284 1 43.1151 9.6486 416 104.704 313.81 520.863
285 0 48.0404 10.3871 499 101.641 314.088 518.812
286 0 47.0855 12.1481 572 98.9808 312.262 513.325
287 0 50.1872 11.5966 582 98.3643 311.997 513.23
288 0 53.0838 13.5634 720 94.4236 311.774 511.224
289 0 52.0733 12.7705 665 96.3383 312.493 510.418
290 0 57.0691 15.7178 897 89.9208 313.913 507.453
291 0 57.0771 14.7169 840 92.0952 315.002 507.386
292 0 57.15 12.7734 730 96.1493 315.897 505.138
293 0 60.1263 13.3885 805 94.4137 318.272 503.822
294 0 61.0835 13.3097 813 93.6777 320.775 504.813
295 0 66.1833 14.5203 961 90.8907 323.161 504.343
296 0 67.1511 14.6684 985 91.7838 325.295 502.16
297 0 69.1211 14.0334 970 91.9722 328.005 503.364
298 0 71.1272 13.4407 956 92.9718 330.439 501.513
299 0 74.137 15.876 1177 89.3161 333.102 500.444
300 0 75.2335 14.0496 1057 92.1485 333.61 501.399
301 0 79.0677 15.1136 1195 87.549 335.636 502.899
302 1 36.0356 9.49062 342 91.4766 335.319 524.389
303 0 43.0268 8.36688 360 90.7972 335.408 525.464
304 0 44.1214 10.2218 451 88.0776 334.528 524.381
305 0 44.0474 9.58058 422 90.4479 334.592 522.012
306 0 46.207 9.24102 427 90.7822 331.614 520.822
307 0 48.3066 12.3379 596 87.2987 329.919 516.727
308 0 49.5187 11.0261 546 89.011 327.919 516.872
309 0 55.4633 13.7929 765 82.9359 325.38 517.013
310 0 56.0844 12.7665 716 86.2807 325.303 520.126
311 0 56.0673 14.2151 797 84.6274 323.492 519.859
312 0 58.0736 13.569 788 85.6218 321.999 516.614
313 0 58.1024 12.0477 700 88.7071 319.856 513.544
314 0 60.0941 13.4456 808 86.7958 317.16 515.949
315 0 64.1561 12.3605 793 87.8499 316.794 514.47
316 0 65.1735 12.858 838 86.1957 315.195 510.257
317 0 69.0767 13.2896 918 85.7429 314.636 510.056
318 0 72.169 13.0943 945 86.7439 313.506 509.347
319 0 74.2522 14.1006 1047 86.0439 312.798 502.85
320 0 78.2557 14.2098 1112 86.4505 310.985 502.153
321 0 80.2388 13.3601 1072 88.6334 311.526 500.314
322 1 43.0316 10.5969 456 88.9342 311.535 516.035
323 0 46.0602 8.79284 405 89.316 312.254 515.914
324 0 46.1418 11.2913 521 86.0633 314.177 515.298
325 0 47.1655 11.6187 548 86.2099 316.139 509.062
326 0 49.1416 10.1543 499 90.1824 317.451 508.23
327 0 51.0659 12.9832 663 84.6591 318.922 509.546
328 0 50.1242 13.5065 677 83.2097 320.802 509.022
329 0 51.1136 11.7777 602 86.0449 323.527 508.394
330 0 52.1907 11.8795 620 85.7097 327.203 509.713
331 0 55.0654 11.6225 640 85.7016 329.981 506.992
332 0 58.0877 12.4811 725 83.7531 331.681 509.301
333 0 61.1701 13.5033 826 82.8874 333.305 508.263
334 0 62.2155 11.0744 689 86.3599 335.547 509.483
335 0 66.1766 13.9324 922 82.1985 336.324 509.829
336 0 68.3404 13.3011 909 83.4818 335.776 508.721
337 0 69.1962 12.6452 875 89.0103 335.565 508.951
338 0 70.1502 13.2002 926 90.013 334.61 508.207
339 0 75.2862 14.0929 1061 88.8652 333.153 506.488
340 0 80.2004 14.9999 1203 86.7215 330.995 507.265
341 0 81.262 13.0688 1062 90.4972 329.728 508.136
342 0 82.2985 13.4632 1108 91.0388 327.922 505.387
343 0 86.218 13.9762 1205 90.3544 325.918 504.107
344 1 46.2057 10.0204 463 90.9914 324.89 525.121
345 0 47.0821 9.62149 453 91.2583 323.534 524.468
346 0 47.1001 11.9108 561 90.861 322.41 521.613
347 0 48.1234 11.1588 537 89.7691 320.268 522.365
348 0 48.1464 10.9873 529 90.811 319.314 522.631
349 0 51.5932 12.5404 647 87.932 316.841 514.481
350 0 54.1446 13.6671 740 83.9432 313.38 514.636
351 0 55.0915 12.5609 692 87.5882 312.413 514.931
352 0 56.2653 13.1342 739 87.9892 311.924 512.53
353 0 58.2307 12.5192 729 88.3457 309.649 509.556
354 0 58.1459 13.3973 779 88.4121 310.385 509.866
355 0 62.1335 13.5676 843 86.242 310.401 508.311
356 0 62.2129 13.8878 864 87.6968 310.175 504.139
357 0 65.3231 13.992 914 87.2418 310.592 505.172
358 0 63.1505 12.1298 766 94.158 311.769 501.446
359 0 68.2331 14.3479 979 89.3003 312.311 501.753
360 0 69.1729 13.5168 935 92.7155 314.147 498.735
361 0 71.204 14.0722 1002 91.0778 316.715 501.283
362 0 74.2555 13.6151 1011 93.8042 319.302 497.365
363 1 39.0264 9.17327 358 98.0838 321.665 517.838
364 0 41.0304 9.84637 404 97.948 325.423 517.856
365 0 42.1005 11.0212 464 94.8599 327.308 516.028
366 0 44.0142 11.2237 494 95.7085 330.925 516.526
367 0 43.0266 9.64521 415 99.3542 332.761 518.918
368 0 45.1163 11.415 515 98.4427 333.604 518.274
369 0 46.0455 11.0977 511 99.1311 334.387 519.323
370 0 50.0878 14.0154 702 94.5997 334.996 518.255
371 0 50.0451 13.1082 656 97.1433 335.172 520.764
372 0 52.0657 13.4445 700 97.3514 333.324 519.373
373 0 53.0985 13.3149 707 97.5672 331.818 520.3
374 0 57.03 15.0623 859 92.929 330.868 520.831
375 0 59.1034 14.9737 885 93.6079 329.129 519.611
376 0 59.1671 14.1464 837 95.9964 327.361 517.772
377 0 61.0662 13.5427 827 97.2177 325.961 518.941
378 0 63.1437 13.9206 879 95.9681 323.923 516.557
379 0 66.208 15.0888 999 92.6887 322.574 513.668
380 0 66.1425 13.4558 890 97.2697 322.067 511.757
381 0 69.1607 13.6927 947 95.963 320.291 511.842
382 0 69.0515 13.2944 918 97.707 319.101 510.265
383 0 73.0733 13.548 990 95.4131 317.948 510.772
384 0 76.2533 14.6223 1115 93.2099 317.696 508.385
385 0 78.1591 14.0611 1099 94.7279 315.651 504.369
386 0 78.1888 12.457 974 97.9579 314.776 500.742
387 0 82.1832 13.5064 1110 95.6766 313.492 500.404
388 0 84.0957 13.7938 1160 94.9845 313.274 495.611
389 1 44.0298 9.539 420 97.3524 313.762 517.912
390 0 44.0807 10.2085 450 98.9556 313.609 515.747
391 0 46.0373 9.31853 429 99.9883 314.828 512.834
392 0 50.0648 12.8833 645 92.1953 315.363 513.198
393 0 51.0833 12.6069 644 94.0388 316.579 509.559
394 0 52.1337 13.2928 693 91.7446 314.208 506.417
395 0 53.0679 13.8879 737 88.9118 316.096 509.498
396 0 54.0423 13.5819 734 90.6294 320.075 508.286
397 0 55.1692 13.3226 735 89.5143 323.737 509.633
398 0 57.1118 13.5699 775 88.7587 326.11 507.91
399 0 59.1413 14.5414 860 88.4 328.659 509.57
400 0 59.0421 12.8891 761 91.4455 331.318 508.874
401 0 61.1907 13.0575 799 90.5982 332.637 508.026
402 0 63.1262 13.4968 852 90.6185 332.252 508.815
403 0 65.1311 13.2041 860 91.4791 333.349 510.117
