time division length width area intensity CMx CMy
0 0 44.0261 16.1041 709 98.9337 738.705 493.092
1 0 44.11 16.0735 709 100.924 738.578 490.437
2 0 44.1617 16.983 750 104.471 739.445 492.381
3 0 48.1647 16.7965 809 100.603 740.509 494.436
4 0 46.1069 16.1364 744 106.933 740.573 493.513
5 0 47.0675 16.5719 780 105.838 739.396 493.963
6 0 49.15 16.0529 789 108.251 738.054 496.289
7 0 50.1168 17.7585 890 105.09 736.954 496.846
8 0 50.0622 16.859 844 107.209 736.185 495.573
9 0 52.1019 17.0819 890 106.671 734.216 497.43
10 0 53.0263 16.8407 893 108.116 732.443 496.178
11 0 53.0957 16.7433 889 107.183 730.532 496.164
12 0 55.0706 17.6682 973 105.941 729.695 496.118
13 0 57.0662 18.6626 1065 103.641 728.433 497.56
14 0 59.0803 16.9092 999 107.244 726.476 497.026
15 0 60.0583 17.2333 1035 107.696 724.426 496.26
16 0 61.1304 16.7184 1022 110.842 722.238 493.537
17 0 63.0702 17.4885 1103 109.112 720.271 493.48
18 0 65.0981 16.5135 1075 110.577 717.737 492.687
19 0 68.1241 16.6461 1134 111.369 716.385 491.392
20 1 36.0386 12.1259 437 120.65 713.812 506.389
21 0 37.0446 11.7696 436 121.337 713.915 505.644
22 0 43.0631 11.6341 501 116.647 714.669 505.8
23 0 38.0755 11.6348 443 121.106 715.111 503.768
24 0 41.0796 11.3925 468 120.652 716.009 502.707
25 0 45.0921 13.4835 608 113.715 718.37 502.385
26 0 45.1813 13.147 594 115.488 719.625 499.886
27 0 47.1903 12.9688 612 115.098 722.742 499.044
28 0 49.2517 14.1112 695 115.685 724.548 497.012
29 0 50.1604 14.2742 716 113.855 726.584 497.561
30 0 51.0218 15.5424 793 112.098 729.387 496.827
31 0 53.0279 15.7087 833 112.393 730.963 497.286
32 0 53.0329 15.4244 818 113.504 731.578 496.947
33 0 55.0677 15.0724 830 113.349 732.601 498.331
34 0 59.1177 16.0358 948 108.571 732.917 498.962
35 0 61.0313 16.2703 993 107.921 732.52 500.043
36 0 61.0283 15.8615 968 108.627 731.753 499.886
37 0 62.0976 13.8492 860 113.87 730.621 499.509
38 0 66.1258 16.5896 1097 108.58 729.497 497.042
39 0 69.08 15.359 1061 111.057 727.641 500.361
40 0 69.0368 16.3391 1128 110.706 726.437 498.265
41 0 73.0999 14.7606 1079 114.41 725.189 496.433
42 0 77.1639 15.4865 1195 112.132 723.03 496.838
43 0 78.2569 15.0019 1174 114.083 721.589 496.588
44 1 41.0762 10.6874 439 117.123 719.95 513.708
45 0 43.1183 11.0858 478 113.536 718.818 513.379
46 0 46.1455 11.9622 552 111.889 715.571 513.094
47 0 44.0343 11.3775 501 114.076 715.066 513.383
48 0 46.0679 13.3064 613 111.272 712.272 510.716
49 0 49.0431 12.7235 624 111.163 711.691 508.274
50 0 51.2158 14.7806 757 104.021 710.548 506.771
51 0 51.0408 14.028 716 105.545 708.651 503.087
52 0 51.0408 13.93 711 145.035 706.681 503.114
53 0 55.0754 14.4166 794 105.516 706.552 501.146
54 0 57.0761 14.3142 817 105.622 705.421 498.771
55 0 59.1307 13.8338 818 106.978 705.979 498.478
56 0 60.0526 14.121 848 106.994 706.368 495.381
57 0 62.0797 15.319 951 104.571 707.598 492.621
58 0 65.0788 15.074 981 105.37 709.236 492.139
59 0 66.1854 14.2176 941 107.163 711.147 492.282
60 0 68.0619 14.8394 1010 106.032 712.887 487.314
61 0 71.2818 15.6842 1118 103.308 715.991 489.597
62 0 71.2818 15.6983 1119 141.265 718.983 489.613
63 0 77.2541 15.326 1184 106.277 720.076 490.004
64 0 78.226 15.1356 1184 108.207 722.199 487.421
65 1 41.1563 11.0068 453 108.664 724.596 509.181
66 0 43.1379 11.9385 515 105.507 726.491 509.089
67 0 45.0831 12.2219 551 106.328 726.459 508.773
68 0 46.0648 13.6764 630 102.344 726.411 509.321
69 0 47.0412 12.4997 588 107.095 726.292 509.67
70 0 47.2121 12.1367 573 107.726 724.138 509.426
71 0 50.0945 14.9717 750 103.539 722.643 509.523
72 0 53.0856 13.7702 731 104.595 720.644 510.315
73 0 53.043 13.2157 701 105.854 719.352 511.405
74 0 55.0448 13.8069 760 105.07 717.429 509.289
75 0 57.0524 14.6882 838 103.093 716.022 510.609
76 0 59.0828 13.0833 773 106.323 713.312 508.814
77 0 60.104 13.0108 782 106.997 711.266 507.96
78 0 61.2024 12.3688 757 107.774 709.053 508.313
79 0 65.0999 14.5008 944 104.213 707.92 506.332
80 0 63.0896 14.4873 914 140.068 705.976 506.805
81 0 69.0997 13.8206 955 104.547 704.215 505.089
82 0 72.0961 14.4252 1040 104.112 702.588 501.892
83 0 73.178 14.4169 1055 105.08 702.136 501.305
84 0 77.0968 14.2937 1102 105.191 700.75 497.421
85 0 79.1451 14.8841 1178 106.161 699.913 493.567
86 0 82.1267 14.1854 1165 107.392 699.008 491.724
87 0 86.1175 14.2596 1228 108.421 699.877 489.972
88 1 44.1298 10.0386 443 113.752 699.3 508.032
89 0 47.0324 11.6941 550 112.035 700.076 505.593
90 0 47.086 10.0242 472 114.617 699.841 506.189
91 0 50.0194 12.0353 602 109.482 700.973 505.859
92 0 50.2243 12.6035 633 109.103 704.662 504.005
93 0 51.3385 11.8819 610 105.093 706.444 498.228
94 0 54.0543 12.9869 702 109.291 708.114 503.651
95 0 56.0542 14.5395 815 101.785 711.564 501.271
96 0 58.0958 13.5982 790 103.876 714.623 501.914
97 0 59.0959 13.0635 772 104.523 717.174 501.684
98 0 62.0559 14.4386 896 101.427 719.935 500.161
99 0 63.0537 13.2268 834 102.853 721.364 500.827
100 0 65.0591 13.3725 870 103.784 721.018 501.498
101 0 67.078 13.1041 879 104.291 721.886 501.637
102 0 70.0672 13.1873 924 103.461 721.902 502.548
103 0 74.0915 14.2257 1054 102.557 719.786 503.573
104 0 76.1102 12.9549 986 105.071 718.299 502.31
105 0 77.0766 13.9342 1074 104.21 716.73 498.936
106 0 80.1074 13.0699 1047 105.453 714.583 499.16
107 0 81.0736 12.3715 1003 108.479 715.21 496.53
108 0 87.2404 13.7092 1196 104.639 713.059 497.497
109 1 46.0423 10.6207 489 107.765 712.407 517.597
110 0 48.1259 10.9504 527 106.417 708.467 517.269
111 0 51.0252 11.1122 567 107.944 707.111 516.896
112 0 52.0291 11.3782 592 143.493 706.167 517.088
113 0 55.1058 12.975 715 102.916 702.783 514.431
114 0 55.0874 11.5634 637 106.688 702.94 513.501
115 0 55.0418 10.919 601 107.577 701.641 513.17
116 0 59.0725 13.3565 789 102.946 699.62 511.6
117 0 61.0447 13.1543 803 104.005 698.002 508.376
118 0 65.1533 12.8466 837 104.881 698.84 507.981
119 0 64.1104 12.0105 770 108.212 698.504 505.665
120 0 68.0913 13.9225 948 104.314 698.214 502.232
121 0 71.2234 12.8609 916 105.628 697.559 501.49
122 0 72.0889 13.5111 974 105.456 697.846 496.534
123 0 74.1306 13.4088 994 105.986 698.498 496.631
124 1 40.0246 10.8433 434 104.91 700.783 515.044
125 0 42.0978 10.0243 422 107.246 701.559 512.505
126 0 43.052 10.9635 472 106.061 702.623 512.072
127 0 45.0594 9.83146 443 106.957 704.962 511.711
128 0 47.0434 10.841 510 106.337 707.096 510.469
129 0 48.134 10.9901 529 105.769 709.784 510.766
130 0 51.0798 11.6876 597 105.399 712.047 508.797
131 0 52.0555 13.0822 681 103.919 713.427 510.044
132 0 52.0555 13.1782 686 139.991 715.427 509.98
133 0 54.076 12.7598 690 101.132 716.622 510.568
134 0 57.0656 13.1252 749 99.1575 717.813 512.658
135 0 58.0948 12.6517 735 101.019 718.088 511.278
136 0 59.0184 12.9621 765 101.102 718.221 508.958
137 0 61.0537 12.7101 776 100.849 717.236 509.973
138 0 65.1845 13.5768 885 98.6734 716.09 508.908
139 0 66.072 14.1664 936 96.8803 714.237 509.983
140 0 68.1091 13.5665 924 99.1061 712.64 508.264
141 0 71.1299 13.5527 964 97.8444 710.229 508.488
142 0 73.1881 13.1579 963 98.7176 709.079 508.768
143 0 75.1953 12.687 954 100.253 705.885 506.214
144 0 78.1038 12.2273 955 101.98 705.317 504.51
145 0 80.0633 12.8273 1027 100.683 705.145 503.352
146 0 83.066 12.171 1011 102.002 702.533 504.333
147 0 87.1699 13.4221 1170 99.847 703.003 500.757
148 0 89.1419 14.0001 1248 100.288 700.107 496.591
149 0 91.1327 14.9123 1359 98.7557 698.334 495.538
150 0 96.1152 14.7219 1415 98.8085 696.95 494.659
151 0 99.0506 15.3356 1519 97.1462 696.023 494.7
152 0 100.12 13.9033 1392 101.195 695.616 490.198
153 0 102.098 15.5243 1585 99.0322 695.102 486.968
154 0 105.278 15.9767 1682 99.4762 694.974 481.422
155 0 109.097 15.06 1643 101.436 695.267 480.304
156 0 113.24 14.615 1655 103.144 696.386 477.775
157 0 117.251 16.179 1897 100.066 695.415 473.931
158 0 117.26 16.2544 1906 141.792 694.409 473.935
159 0 126.225 15.5912 1968 100.597 698.349 473.599
160 1 67.1535 12.3002 826 146.695 701.834 503.203
161 0 69.2391 11.2075 776 103.215 701.95 499.014
162 0 71.2798 11.532 822 102.372 704.757 499.579
163 0 73.2548 15.3574 1125 96.9742 707.54 498.395
164 0 74.3804 13.6057 1012 100.672 709.187 497.683
165 0 77.1923 13.1101 1012 101.83 712.258 499.314
166 0 81.1909 16.024 1301 96.2613 712.872 495.868
167 0 84.1771 15.503 1305 97.0107 713.584 499.621
168 0 87.3891 14.4755 1265 102.969 715.145 496.681
169 0 87.3708 14.5472 1271 158.305 717.15 496.619
170 0 94.1994 15.2761 1439 100.837 715.893 497.448
171 0 96.1763 13.496 1298 104.951 714.89 494.119
172 1 48.0924 9.39858 452 105.788 713.42 520.732
173 0 48.0924 9.3362 449 166.341 713.43 520.624
174 0 54.0657 11.1901 605 101.792 710.458 518.245
175 0 55.2031 10.6878 590 102.144 710.734 515.651
176 0 57.3878 13.6963 786 97.9529 708.579 512.22
177 0 59.1869 12.6379 748 99.4733 707.297 513.18
178 0 58.0914 12.2393 711 101.931 705.117 511.218
179 0 62.1476 13.3392 829 98.5404 702.349 511.049
180 0 66.0835 14.3303 947 97.1193 697.658 510.253
181 0 68.0298 14.5966 993 97.5599 695.859 507.879
182 0 70.0907 14.3671 1007 97.5462 694.606 507.398
183 0 73.1384 13.6727 1000 98.485 694.161 504.822
184 0 75.2035 14.8131 1114 96.614 693.877 500.044
185 0 78.0824 13.9468 1089 98.2094 693.033 499.04
186 0 80.1196 14.2537 1142 98.3722 691.766 497.884
187 0 82.1278 14.0269 1152 99.072 691.038 495.049
188 0 87.0831 14.3426 1249 98.3347 691.334 491.254
189 0 88.0499 13.5264 1191 101.49 691.767 488.629
190 1 46.0788 9.80928 452 102.704 694.522 509.633
191 0 49.0316 9.95277 488 101.932 695.219 510.383
192 0 49.1795 9.5365 469 101.079 697.418 509.77
193 0 50.2167 10.9326 549 99.725 698.869 506.521
194 0 54.3361 12.1466 660 95.6561 702.761 506.114
195 0 55.1648 13.4869 744 94.0686 705.778 504.98
196 0 55.2371 12.8356 709 96.4118 708.801 506.821
197 0 58.2234 12.8127 746 96.4062 710.399 504.457
198 0 58.1383 13.2271 769 95.6905 713.671 506.514
199 0 61.1962 12.893 789 96.5349 715.003 503.944
200 0 63.1138 13.7054 865 94.2254 716.771 505.319
201 0 65.2755 13.7724 899 94.5095 717.293 504.662
202 0 67.1772 12.1767 818 97.5538 718.539 504.677
203 0 66.1739 12.2405 810 98.379 718.07 503.522
204 0 70.2805 12.3647 869 96.6548 716.961 506.2
205 0 70.2805 12.4786 877 134.942 715.975 506.107
206 0 77.381 14.0732 1089 93.2994 714.44 505.609
207 0 79.2878 13.6339 1081 94.7558 713.023 501.587
208 0 81.2062 14.6664 1191 93.2175 710.982 504.158
209 0 85.2837 14.1293 1205 94.6589 709.058 501.485
210 0 87.4164 13.8189 1208 93.9603 707.414 501.534
211 0 89.4082 12.7841 1143 96.8451 705.622 497.413
212 1 54.0506 10.9527 592 95.4865 704.591 514.595
213 0 51.1558 8.79666 450 100.862 700.576 517.704
214 0 56.194 10.3748 583 97.6604 699.23 517.007
215 0 56.1725 10.45 587 98.7036 696.632 514.67
216 0 58.1168 11.6834 679 97.9632 695.878 510.814
217 0 61.1648 12.4254 760 90.45 694.61 508.632
218 0 63.0989 13.36 843 88.5172 693.229 507.566
219 0 65.0775 12.7233 828 90.3394 694.121 507.87
220 0 64.1184 12.2118 783 93.1737 693.031 504.245
221 0 70.1165 14.0766 987 89.0699 693.437 502.588
222 0 69.3779 12.5256 869 93.313 693.421 502.173
223 0 72.2046 12.4092 896 95.3672 695.458 499.342
224 0 73.2014 13.3058 974 134.186 697.426 499.316
225 0 79.3545 14.9204 1184 95.0203 698.675 495.506
226 1 40.0469 11.1369 446 97.3251 701.872 513.029
227 0 43.0278 10.3886 447 96.8367 704.282 514.226
228 0 41.0483 10.7434 441 96.9909 706.2 515.293
229 0 43.0496 10.4066 448 95.404 705.616 516.346
230 0 46.1258 12.2491 565 91.1115 707.63 515.717
231 0 49.1052 12.3816 608 91.2155 709.845 514.449
232 0 49.0718 13.0013 638 90.6583 712.589 515.527
233 0 48.226 12.711 613 92.987 714.891 516.664
234 0 50.1205 12.7692 640 93.0312 716.803 515.869
235 0 49.1179 10.9736 539 97.6957 716.173 517.852
236 0 51.1211 12.4215 635 94.5181 716.704 517.307
237 0 55.1999 14.5834 805 89.3056 715.027 517.05
238 0 55.1122 13.6267 751 92.8056 713.393 515.722
239 0 56.1471 12.0932 679 95.6024 713.445 515.616
240 0 59.1432 13.2222 782 93.6228 709.862 515.848
241 0 60.1411 12.6702 762 96.3294 708.297 514.278
242 0 63.1768 13.0111 822 95.1606 706.322 515.555
243 0 63.19 12.6602 800 97.2812 704.744 514.882
244 0 66.2561 13.644 904 95.656 703.577 511.804
245 0 68.1656 12.9537 883 97.8856 701.864 511.917
246 0 72.1589 13.2347 955 97.7319 699.802 508.592
247 0 72.1381 13.3771 965 98.943 698.13 507.513
248 0 77.2437 13.8652 1071 97.2409 696.934 505.016
249 0 77.1832 13.7465 1061 99.4882 694.893 503.161
250 1 43.0344 9.15546 394 99.7817 694.008 522.023
251 0 44.065 11.3242 499 99.1182 693.004 520.944
252 0 46.0164 9.34449 430 99.7116 692.693 519.3
253 0 46.0542 11.3996 525 101.41 692.238 513.749
254 0 48.0387 10.9495 526 101.268 692.627 513.863
255 0 51.2268 13.0791 670 97.5776 689.898 508.433
256 0 52.2467 13.5128 706 98.1246 689.589 506.101
257 0 53.2098 13.9636 743 97.2571 690.568 505.252
258 0 53.0429 13.3477 708 97.5692 691.531 505.653
259 0 55.0657 14.3102 788 96.3807 694.581 506.69
260 0 56.0659 13.6625 766 98.9713 696.145 504.833
261 0 60.0797 12.8662 773 99.4191 699.003 505.937
262 0 60.0491 13.5056 811 100.123 700.413 503.591
263 0 62.0893 13.6739 849 100.962 703.914 503.179
264 0 65.0541 13.973 909 99.2354 708.828 503.605
265 0 66.0392 12.8106 846 102.082 710.151 501.927
266 0 71.0783 14.266 1014 98.5355 710.954 503.23
267 0 72.0326 12.6609 912 101.975 712.541 503.255
268 0 75.1295 13.7762 1035 100.085 712.678 500.654
269 0 75.15 11.7631 884 104.415 712.735 503.77
270 0 80.1269 13.9404 1117 100.62 713.498 501.645
271 0 81.1657 12.4683 1012 104.636 711.639 499.097
272 1 47.0864 11.0435 520 101.329 709.267 519.883
273 0 47.0072 10.8919 512 102.1 709.072 518.496
274 0 48.069 10.3601 498 103.209 706.41 517.578
275 0 47.0538 9.77604 460 104.359 704.372 518.085
276 0 50.0443 10.9703 549 101.991 703.636 517.716
277 0 52.1566 10.7752 562 100.715 701.868 516.973
278 0 54.0976 13.5681 734 95.6322 700.02 514.136
279 0 55.0814 14.0701 775 93.5277 698.799 516.24
280 0 54.1379 12.2834 665 97.4241 697.762 516.436
281 0 57.0546 12.9525 739 96.2355 696.341 514.643
282 0 60.093 13.4125 806 94.2717 694.578 510.546
283 0 61.1491 12.9683 793 95.4086 693.06 509.358
284 0 64.0637 12.6125 808 95.8317 692.007 508.465
285 0 67.1029 12.5926 845 96.1243 692.427 503.238
286 0 69.1697 12.491 864 95.5174 690.817 498.443
287 1 38.0107 8.26084 314 97.742 689.328 517.924
288 0 39.027 9.94182 388 96.6366 689.124 515.26
289 0 39.087 10.3871 406 96.8103 689.421 515.005
290 0 41.0441 9.52634 391 98.9591 691.286 513.028
291 0 43.0713 10.5871 456 98.5614 692.5 512.289
292 0 45.1754 11.0237 498 97.0783 693.994 510.227
293 0 45.1615 11.5142 520 96.8981 696.1 509.34
294 0 48.0792 11.3147 544 95.9816 698.147 509.895
295 0 48.0774 12.1471 584 96.0377 701.414 508.795
296 0 49.0622 12.0663 592 96.1486 705.383 510.503
297 0 50.129 12.009 602 97.186 708.663 507.99
298 0 51.0862 11.7448 600 98.0983 711.033 508.123
299 0 54.0496 11.767 636 98.0692 713.827 510.434
300 0 55.1576 12.7997 706 96.6162 714.186 509.465
301 0 56.236 12.0385 677 98.2762 715.882 511.552
302 0 58.0603 12.1942 708 98.3686 715.517 509.403
303 0 59.2539 11.4423 678 98.7773 715.509 512.922
304 0 64.2011 13.0683 839 94.5459 714.775 512.645
305 0 66.1717 12.5733 832 95.1394 714.881 511.274
306 0 69.3378 14.1625 982 92.2872 712.665 509.103
307 0 70.2361 13.597 955 93.9236 711.103 507.671
308 0 72.1756 13.3009 960 94.7083 709.803 508.566
309 0 76.1934 14.0957 1074 92.6117 707.418 508.202
310 0 79.2445 14.2471 1129 92.9991 705.662 505.489
311 0 81.1792 13.6981 1112 95.3219 703.797 504.393
312 0 82.106 12.6909 1042 98.333 702.537 502.876
313 1 45.0257 9.0615 408 101.113 701.691 520.912
314 0 47.0258 7.16628 337 101.911 699.368 524.383
315 0 48.0682 10.7764 518 97.5907 699.228 520.525
316 0 49.0234 11.6679 572 96.8304 696.778 514.977
317 0 50.0617 10.9465 548 96.0292 696.473 517.051
318 0 53.0445 12.4989 663 94.9548 695.021 516.808
319 0 54.0757 12.5195 677 95.5524 693.064 511.71
320 0 56.1025 13.511 758 94.2691 691.124 509.478
321 0 56.0747 12.7152 713 96.5288 692.352 507.175
322 0 58.1301 12.5924 732 97.4016 691.881 505.458
323 0 60.155 12.0688 726 97.8457 692.302 503.244
324 0 61.1833 12.8957 789 96.7681 693.46 502.156
325 0 64.2029 13.0991 841 95.4067 694.42 500.944
326 0 62.1755 11.6927 727 99.0839 695.587 498.48
327 0 67.2346 14.8733 1000 90.692 697.579 498.879
328 0 69.3004 13.9537 967 93.788 699.084 494.328
329 0 69.3378 12.8501 891 96.4074 701.659 493.746
330 0 71.2702 12.8244 914 96.7735 704.953 495.54
331 0 76.3108 14.6375 1117 91.3393 707.78 493.734
332 0 78.38 14.1618 1110 91.6072 709.758 495.122
333 0 80.3578 14.7466 1185 91.7747 711.322 493.113
334 0 84.1673 16.3603 1377 87.2796 713.342 495.603
335 0 89.3551 14.7278 1316 89.7736 714.213 497.686
336 0 88.3224 13.1903 1165 93.0592 713.653 496.265
337 1 50.1147 9.9372 498 93.1546 711.741 517.783
338 0 47.0368 9.9284 467 94.1199 710.732 518.296
339 0 52.0512 10.8547 565 92.5522 709.522 517.441
340 0 53.1045 12.2024 648 90.625 708.005 518.401
341 0 54.0177 12.2182 660 88.7258 707.568 519.179
342 0 57.1852 13.1677 753 86.9376 707.17 515.175
343 0 62.0485 11.4588 711 92.73 706.644 517.783
344 0 61.0259 14.9445 912 87.4825 704.808 513.215
345 0 59.0447 12.6176 745 93.8 703.761 510.419
346 0 64.0183 12.9338 828 92.0133 702.606 512.835
347 0 65.0568 13.4037 872 92.414 700.782 509.672
348 0 67.0504 13.4526 902 92.8592 700.251 509.91
349 0 71.0603 14.2836 1015 89.4493 699.109 508.907
350 0 72.0285 12.7727 920 93.2794 696.741 504.377
351 0 73.0307 12.2003 891 95.4501 695.451 502.453
352 0 76.0629 13.1996 1004 93.3635 694.801 500.435
353 0 79.1314 14.6718 1161 90.8467 692.538 496.542
354 0 80.0632 13.3395 1068 93.5674 693.134 495.709
355 0 83.056 13.6053 1130 93.4841 693.157 493.762
356 1 46.1218 9.51827 439 95.8998 693.415 511.768
357 0 47.0416 9.79983 461 96.1475 693.816 508.69
358 0 48.0578 9.96716 479 95.8622 694.697 508.192
359 0 51.0705 11.1806 571 92.7496 695.417 507.292
360 0 51.0822 12.8225 655 91.6534 696.623 505.261
361 0 53.3392 13.1236 700 90.15 698.203 503.231
362 0 52.2048 9.75007 509 86.9607 699.24 502.128
363 0 53.1589 11.5315 613 85.9739 702.763 501.14
364 0 54.0893 10.7415 581 87.3201 705.862 502.94
365 0 54.1153 10.7733 583 87.295 708.619 498.66
366 0 61.1522 12.2972 752 83.5053 710.34 501.521
367 0 63.1166 12.5165 790 83.9962 711.881 501.21
368 0 63.1781 11.6654 737 85.7191 712.668 503.981
369 0 66.1477 11.7616 778 85.8535 713.482 504.26
370 0 68.0908 11.8812 809 86.644 713.478 503.646
371 0 68.0766 11.9571 814 88.3047 713.07 504.588
372 0 72.1434 12.9049 931 86.5134 711.096 502.322
373 0 75.151 13.892 1044 83.7692 709.942 503.1
374 0 75.3128 11.2863 850 89.0376 708.721 502.985
375 0 80.1766 12.8841 1033 87.2691 706.816 501.044
376 1 41.0758 7.83916 322 90.5186 703.916 518.006
377 0 46.0439 7.97066 367 88.2289 702.289 518.896
378 0 47.0487 7.20529 339 88.4631 700.357 519.658
379 0 48.0228 8.55843 411 88.3406 698.903 514.26
380 0 51.0694 10.241 523 87.1969 698.377 515.405
381 0 52.1946 10.6333 555 89.2018 698.969 512.661
382 0 54.1802 11.7202 635 87.1197 698.046 509.498
383 0 54.0396 12.8424 694 81.8934 696.653 510.987
384 0 56.0995 10.3388 580 85.0224 696.21 512.224
385 0 57.0457 10.9386 624 84.7676 694.067 509.07
386 0 58.0216 11.2717 654 85.633 693.222 504.477
387 0 60.0631 11.0217 662 85.8278 691.956 504.453
388 0 65.1034 11.6737 760 83.3079 691.847 502.858
389 0 66.0875 12.1203 801 84.1773 691.531 497.693
390 0 67.083 11.5678 776 85.0928 691.842 500.345
391 0 70.1589 10.462 734 86.2643 693.185 499.606
392 0 72.1454 12.4055 895 84.162 693.651 497.867
393 0 75.1318 12.498 939 84.2705 694.778 496.223
394 0 77.1327 12.3683 954 86.5755 696.174 491.746
395 0 78.235 12.1046 947 87.1045 697.568 490.348
396 0 84.1693 12.8194 1079 85.3448 701.975 491.486
397 0 87.093 12.6876 1105 85.943 705.123 488.317
398 0 89.1181 13.0613 1164 85.9467 707.182 487.012
399 1 50.0647 9.72741 487 83.0226 709.752 513.589
400 0 49.1011 9.12403 448 86.1228 713.105 513.426
401 0 52.0478 11.6239 605 91.5091 715.266 512.818
402 0 52.1493 12.2341 638 86.185 714.818 513.616
403 0 54.2892 11.6598 633 88.3444 715.242 510.986
