time division length width area intensity CMx CMy
0 0 36.0195 12.6876 457 127.98 950.718 508.473
1 0 34.0182 12.9049 439 130.811 949.499 507.569
2 0 38.0283 13.7792 524 127.447 947.151 504.559
3 0 37.0094 14.2937 529 126.078 948.032 503.465
4 0 37.0132 12.7792 473 133.262 947.943 502.712
5 0 40.0069 13.7226 549 127.581 948.845 500.676
6 0 41.0224 13.1148 538 129.838 949.392 500.9
7 0 42.1119 13.7016 577 127.423 951.352 499.917
8 0 43.021 12.5985 542 129.895 951.932 497.721
9 0 45.1 14.0577 634 125.623 954.473 496.147
10 0 42.0368 13.1076 551 131.323 954.84 494.715
11 0 47.0772 14.1682 667 122.948 956.216 495.517
12 0 48.047 14.0279 674 124.116 958.503 492.507
13 0 49.0219 14.3813 705 122.555 960.011 491.163
14 0 49.0951 13.3618 656 125.576 961.52 492.306
15 0 50.0428 14.4077 721 125.011 963.914 489.48
16 0 54.0721 14.7581 798 121.162 966.447 490.695
17 0 55.0169 14.4865 797 124.006 968.892 489.415
18 0 55.1177 15.1675 836 123.51 970.054 487.431
19 0 59.0544 14.6644 866 123.819 971.908 487.204
20 0 63.135 15.3797 971 120.823 973.818 486.263
21 0 64.082 14.8716 953 122.607 973.431 486.875
22 0 67.091 15.5609 1044 120.352 973.172 487.92
23 0 71.0956 16.2176 1153 117.324 972.282 487.067
24 0 70.0356 15.7349 1102 121.727 971.227 484.892
25 0 70.0356 15.7063 1100 165.41 970.227 484.871
26 1 41.0485 12.2294 502 124.098 967.558 500.116
27 0 40.0597 12.1818 488 126.129 966.096 497.512
28 0 49.106 14.7843 726 123.382 963.139 490.902
29 0 50.022 11.9947 600 123.102 959.738 494.103
30 0 47.0207 11.7182 551 122.087 958.528 492.717
31 0 47.0088 13.4443 632 116.547 956.563 491.454
32 0 48.0645 14.3349 689 120.866 955.328 489.657
33 0 49.2508 14.2942 704 119.74 954.018 486.544
34 0 51.1489 15.3278 784 113.125 953.798 485.124
35 0 54.1373 14.8142 802 112.18 953.834 484.222
36 0 56.0402 15.5067 869 118.516 954.708 481.933
37 0 56.0776 14.5691 817 120.11 956.365 482.759
38 0 60.0754 15.7968 949 115.333 957.79 479.494
39 0 60.1094 14.2906 859 113.683 958.554 477.772
40 0 65.0701 15.3219 997 109.575 960.115 477.448
41 0 68.1274 15.5738 1061 108.48 962.164 475.522
42 0 69.2063 15.5044 1073 108.757 963.978 472.445
43 0 71.2512 15.3682 1095 108.98 966.256 472.471
44 0 72.1081 15.3797 1109 109.296 968.593 470.272
45 0 77.1105 15.8474 1222 105.331 971.025 466.068
46 1 42.0658 12.528 527 106.696 972.573 485.712
47 0 43.2133 12.9358 559 108.819 974.528 482.719
48 0 44.1346 12.3713 546 108.137 976.262 483.092
49 0 46.0846 12.2601 565 101.95 977.296 483.285
50 0 49.0432 12.3157 604 104.808 979.944 485.268
51 0 50.1092 12.4728 625 106.003 981.192 484.344
52 0 52.0921 13.0346 679 104.277 982.228 484.661
53 0 55.1359 17.2483 951 94.5352 982.546 485.264
54 0 58.1106 15.4361 897 97.1093 983.28 486.634
55 0 59.0734 15.3199 905 96.9912 982.92 484.806
56 0 61.0415 14.6458 894 96.6096 981.111 485.889
57 0 64.1972 14.5957 937 95.5784 980.609 485.114
58 0 67.1907 14.377 966 96.8012 978.778 483.941
59 0 70.1653 14.8792 1044 96.0594 976.733 482.179
60 0 71.0522 15.9742 1135 94.5894 973.998 480.448
61 0 74.2804 15.0242 1116 95.9704 970.838 478.408
62 0 75.1563 15.5276 1167 97.9769 968.095 475.66
63 0 75.1563 15.5542 1169 145.33 966.086 475.589
64 0 81.1195 13.9301 1130 101.549 963.303 472.678
65 0 81.1195 13.9671 1133 153.724 962.313 472.707
66 0 86.2586 16.4853 1422 99.0591 961.986 466.188
67 0 90.2699 16.3288 1474 100.176 959.558 463.633
68 0 91.3364 14.6163 1335 104.186 960.586 462.361
69 0 95.2628 13.9719 1331 105.695 961.771 459.562
70 1 49.1048 11.3838 559 110.408 963.603 480.313
71 0 52.0639 12.1966 635 109.828 964.682 477.231
72 0 55.1536 12.0754 666 109.02 965.841 476.429
73 0 57.1052 12.7134 726 105.555 966.924 476.145
74 0 62.1782 13.8312 860 100.835 970.999 473.587
75 0 62.3262 14.3118 892 102.498 972.621 468.765
76 0 65.2782 13.8944 907 98.1974 973.736 472.9
77 0 68.222 14.4382 985 98.6112 975.489 468.878
78 0 66.216 13.5919 900 148.772 978.392 467.723
79 0 70.2391 14.0378 986 100.21 979.626 469.153
80 0 73.2634 15.7241 1152 97.4184 981.598 467.619
81 0 76.2346 14.0356 1070 100.308 983.65 467.964
82 0 78.2294 14.4958 1134 100.232 984.756 466.157
83 0 80.1317 13.7898 1105 102.432 985.854 465.886
84 0 81.2701 13.6089 1106 102.739 987.247 464.459
85 0 84.288 13.7623 1160 101.94 987.022 464.312
86 0 88.1837 14.2543 1257 100.766 987.185 466.549
87 0 92.3801 15.3388 1417 99.9852 987.548 460.946
88 0 94.175 15.2695 1438 98.3387 987.9 465.295
89 0 98.3705 15.0858 1484 98.5984 988.004 462.902
90 1 53.241 11.3071 602 101.065 986.698 483.434
91 0 56.2797 13.735 773 95.6831 984.784 481.903
92 0 59.2961 11.3498 673 99.2407 983.967 482.513
93 0 60.1274 11.9912 721 98.0929 982.208 481.484
94 0 63.3402 12.5039 792 98.5997 978.807 478.842
95 0 65.1774 13.8698 904 93.9148 975.788 474.3
96 0 65.1774 13.8238 901 135.151 972.792 474.254
97 0 68.3353 13.6533 933 92.3826 970.384 472.804
98 0 72.4154 14.6516 1061 89.4307 969.194 472.223
99 0 73.4301 13.346 980 91.3388 967.178 469.093
100 0 75.286 14.5578 1096 91.0064 966.035 465.46
101 0 79.214 13.5582 1074 91.6061 965.963 466.953
102 0 83.3401 14.2068 1184 91.0735 966.191 461.885
103 0 83.2445 12.5654 1046 95.0526 967.075 459.781
104 0 88.3069 15.2876 1350 90.3533 967.699 459.43
105 0 88.2445 13.6212 1202 94.1223 969.071 455.278
106 0 94.4914 15.8851 1501 89.8654 970.405 453.064
107 0 95.4035 13.1232 1252 96.274 971.776 451.942
108 0 99.4685 14.7082 1463 93.3841 973.332 447.783
109 0 102.507 16.789 1721 89.563 975.68 449.621
110 0 106.698 15.2486 1627 92.1174 977.302 445.711
111 1 56.3364 10.9343 616 100.003 979.01 467.188
112 0 59.4796 10.9449 651 99.7158 981.283 468.304
113 0 60.1543 11.2876 679 101.454 983.468 466.514
114 0 64.0584 11.5988 743 95.5061 986.52 470.062
115 0 65.3916 12.1269 793 95.4338 988.304 467.441
116 0 68.4497 12.7685 874 92.2792 989.019 465.053
117 0 72.3306 14.0466 1016 92.689 989.148 468.227
118 0 73.1857 13.6365 998 96.6764 989.013 469.072
119 0 76.261 15.0667 1149 94.6197 990.184 468.107
120 0 78.4043 13.9533 1094 96.1718 990.931 470.725
121 0 81.4611 15.1238 1232 94.8474 990.693 471.306
122 0 84.317 14.7894 1247 97.7963 990.121 469.856
123 0 87.2432 14.408 1257 99.3962 989.652 468.391
124 0 87.392 14.4064 1259 102.434 988.753 465.199
125 0 94.4324 15.5137 1465 100.567 987.659 465.503
126 0 96.5353 15.3415 1481 100.999 985.705 466.38
127 1 60.4454 10.7535 650 67.5154 983.183 487.982
128 0 59.5464 10.8991 649 96.7643 980.886 487.202
129 0 53.5191 11.566 619 102.998 977.884 481.475
130 0 54.5944 10.6238 580 103.274 976.628 482.953
131 0 57.6164 12.3229 710 100.765 975.19 478.104
132 0 60.287 12.6561 763 100.775 970.468 476.342
133 0 61.134 13.0369 797 102.59 969.11 475.794
134 0 64.2236 13.8734 891 103.287 967.369 470.829
135 0 66.5436 13.8105 919 104.529 967.962 469.023
136 0 67.5571 14.0178 947 103.91 969.357 466.8
137 0 67.5454 13.3836 904 107.003 969.602 463.181
138 0 72.295 12.8916 932 107.252 970.259 465.285
139 0 74.1519 14.6321 1085 104.749 971.25 465.576
140 0 76.2203 14.7336 1123 106.116 972.121 462.289
141 0 76.1566 13.6167 1037 110.829 973.638 460.424
142 0 82.0389 14.8466 1218 106.677 975.525 457.251
143 0 84.0735 14.7847 1243 106.485 976.107 456.365
144 0 86.1001 13.9373 1200 109.482 977.309 453.09
145 0 88.0543 13.3554 1176 109.292 981.186 451.87
146 0 93.3004 14.8016 1381 70.1593 981.504 458.668
147 1 49.0437 9.74641 478 109.95 983.253 473.931
148 0 52.0395 11.8756 618 108.948 984.338 474.408
149 0 54.0938 12.238 662 110.539 986.42 473.707
150 0 54.0826 12.6288 683 109.208 988.881 474.35
151 0 54.3553 10.9281 594 108.635 989.231 474.162
152 0 56.2515 12.0175 676 106.022 990.228 474.214
153 0 58.212 12.695 739 104.019 990.93 475.44
154 0 60.2802 13.4041 808 103.028 990.897 473.717
155 0 62.2637 12.8325 799 102.982 991.686 476.101
156 0 66.2008 13.6101 901 101.79 991.17 474.791
157 0 67.2247 13.6706 919 102.768 989.891 474.044
158 0 71.2272 14.4889 1032 101.125 989.086 474.232
159 0 72.1783 14.1178 1019 102.243 986.297 473.254
160 0 75.0815 13.5053 1014 101.341 984.131 472.01
161 0 77.2597 12.9045 997 106.352 981.013 471.505
162 0 79.1965 13.3592 1058 106.671 979.304 468.495
163 0 81.1822 13.5744 1102 104.544 975.849 466.693
164 1 44.1187 10.8117 477 107.388 973.604 483.249
165 0 45.1167 11.5257 520 105.804 972.096 482.331
166 0 48.0818 12.4164 597 101.712 970.98 481.377
167 0 49.1148 11.9109 585 103.725 970.521 479.513
168 0 52.0676 13.2904 692 99.4899 970.354 478.444
169 0 53.0924 13.4859 716 99.3953 968.251 476.958
170 0 54.2077 13.2269 717 102.084 970.025 473.502
171 0 55.1077 13.6823 754 99.1406 970.85 472.02
172 0 57.1113 13.9902 799 98.0401 972.116 469.906
173 0 59.3427 14.2225 844 96.8507 976.09 470.217
174 0 58.346 12.5801 734 102.569 976.76 467.144
175 0 62.3424 14.1156 880 96.95 978.83 467.62
176 0 62.305 12.6314 787 102.109 980.445 466.128
177 0 62.305 12.6314 787 141.544 983.436 466.091
178 0 67.3032 13.6398 918 99.4477 984.857 466.558
179 0 68.1716 14.0674 959 99.829 987.209 466.275
180 0 74.3356 14.865 1105 97.2299 988.506 463.696
181 0 75.4052 14.4287 1088 99.5873 988.653 460.693
182 0 78.3468 15.0868 1182 98.1379 990.497 460.937
183 1 38.0476 9.69838 369 103.249 992.55 483.526
184 0 40.022 11.6436 466 99.9206 994.843 482.839
185 0 40.0359 10.0909 404 104.282 995.661 483.619
186 0 42.0092 10.9976 462 101.803 996.608 483.987
187 0 44.0215 11.6534 513 100.943 996.807 482.209
188 0 47.1853 11.1899 528 101.42 997.576 484.602
189 0 49.0274 13.5434 664 95.3825 996.099 485.571
190 0 46.0156 13.4302 618 98.2314 994.325 485.107
191 0 48.0941 11.124 535 101.146 990.679 487.548
192 0 49.1216 12.4385 611 100.933 987.635 483.642
193 0 51.0612 13.1019 669 99.1674 984.571 481.859
194 0 54.0993 13.9188 753 97.6096 982.214 480.586
195 0 52.0732 12.5977 656 102.418 979.47 479.799
196 0 55.082 13.017 717 101.94 977.374 478.674
197 0 56.0973 12.6388 709 104.228 974.872 476.176
198 0 58.2368 13.8229 805 101.527 972.026 472.191
199 0 59.1862 12.9591 767 104.016 970.507 473.129
200 0 65.0608 13.9408 907 100.884 969.429 470.878
201 0 65.1439 13.4932 879 101.581 968.411 470.452
202 0 67.2189 13.761 925 101.88 968.903 466.816
203 0 70.1331 15.4563 1084 99.4677 968.509 462.625
204 0 72.1285 14.6405 1056 102.71 968.965 463.463
205 0 74.113 16.1105 1194 100.615 970.478 461.016
206 0 74.2159 13.7167 1018 107.274 971.373 460.001
207 0 79.1745 14.5754 1154 104.688 972.684 458.911
208 0 80.2157 13.339 1070 108.891 974.566 457.217
209 0 82.1534 13.9982 1150 108.416 976.562 454.204
210 0 86.1797 13.878 1196 108.086 979.62 453.565
211 0 89.1777 14.6337 1305 106.757 980.764 451.302
212 1 51.0338 9.62108 491 114.228 984.438 473.32
213 0 52.0755 11.8674 618 112.646 986.348 469.901
214 0 55.0832 12.1453 669 111.202 987.513 469.09
215 0 55.1256 12.4806 688 110.487 988.916 470.458
216 0 58.037 13.3191 773 104 993.682 470.23
217 0 59.5619 13.6161 811 102.861 994.774 466.049
218 0 61.0736 13.2299 808 109.437 996.136 471.692
219 0 64.1397 14.5464 933 104.215 996.917 470.048
220 0 65.1439 14.0612 916 105.507 997.408 472.285
221 0 68.1354 13.8401 943 106.159 997.243 469.766
222 0 70.1314 15.2143 1067 103.684 995.723 469.821
223 0 71.1054 15.1325 1076 105.703 994.494 470.884
224 0 73.117 15.482 1132 105.209 993.761 466.421
225 0 75.209 14.9317 1123 105.992 990.907 466.598
226 0 78.1009 14.4173 1126 105.933 988.301 465.382
227 0 80.2759 14.7118 1181 106.016 985.817 464.597
228 0 80.2513 13.9935 1123 108.418 982.623 461.09
229 0 86.204 14.7905 1275 105.214 981.106 460.293
230 0 90.2136 15.5742 1405 104.54 978.313 458.184
231 0 92.5348 14.8809 1377 106.847 976.134 455.208
232 1 50.0751 11.5626 579 105.9 975.535 477.231
233 0 51.0867 11.5099 588 105.968 975.469 473.855
234 0 52.0489 11.0665 576 109.523 973.925 470.793
235 0 53.0628 12.2873 652 108.127 971.403 467.6
236 0 53.1551 12.6422 672 99.4256 971.879 461.469
237 0 56.0707 14.0002 785 105.987 977.059 463.254
238 0 57.0212 13.3985 764 107.596 977.118 462.454
239 0 60.0467 13.2397 795 106.833 978.726 462.964
240 0 63.0525 13.2746 837 108.123 981.392 460.438
241 0 65.0585 14.3717 935 105.543 982.429 460.088
242 0 68.0552 13.0482 888 109.028 984.166 457.87
243 0 70.0413 15.8335 1109 102.721 985.6 457.034
244 0 71.1528 15.024 1069 105.572 987.551 454.702
245 0 73.1952 15.4792 1133 105.295 988.897 455.142
246 0 77.25 14.1489 1093 107.63 989.302 454.003
247 0 80.1543 15.7945 1266 103.611 991.732 454.674
248 0 82.205 14.257 1172 107.938 992.773 453.482
249 0 83.1567 13.5407 1126 111.458 995.104 453.214
250 1 48.1288 9.16291 441 108.175 997.973 475.388
251 0 50.079 10.3836 520 108.348 998.081 475.667
252 0 51.1478 11.5156 589 107.812 998.131 476.246
253 0 50.1421 11.6868 586 109.756 998.312 476.599
254 0 50.1548 11.0658 555 111.677 1000.02 475.973
255 0 55.2365 14.1935 784 105.273 998.918 475.423
256 0 57.0868 13.5583 774 104.645 997.783 479.15
257 0 56.2099 12.5067 703 108.937 994.252 479.361
258 0 58.0577 14.1066 819 104.505 995.919 479.306
259 0 59.0455 13.6674 807 103.85 992.639 480.757
260 0 60.0752 12.9005 775 105.946 991.292 481.701
261 0 60.0714 12.5018 751 105.569 988.952 480.142
262 0 62.074 14.225 883 103.003 985.477 478.65
263 0 65.1461 12.9248 842 108.127 982.16 473.715
264 0 65.1461 13.0016 847 163.17 979.163 473.759
265 0 69.0682 13.3202 920 105.853 977.576 470.264
266 0 72.0859 14.3024 1031 103.303 976.85 468.044
267 0 76.1873 15.0813 1149 100.623 974.186 464.793
268 0 76.1255 13.2019 1005 107.019 974.364 460.98
269 0 78.2023 12.6083 986 107.063 974.228 462.493
270 0 81.2944 13.0267 1059 106.428 975.466 456.792
271 0 83.263 13.067 1088 105.778 976.983 458.585
272 0 87.2834 13.4619 1175 105.299 976.247 452.02
273 1 51.1078 10.4681 535 106.535 979.364 472.23
274 0 51.0236 11.8965 607 106.035 981.364 468.189
275 0 52.0626 12.2929 640 104.069 982.852 469.795
276 0 52.0313 11.9159 620 105.353 984.837 467.753
277 0 56.1245 13.0959 735 101.329 986.005 467.558
278 0 57.26 14.1809 812 98.5554 987.809 466.424
279 0 59.0483 14.0394 829 99.5175 988.928 463.938
280 0 58.0227 12.8226 744 99.3199 989.992 467.206
281 0 60.053 14.0709 845 96.2544 991.172 465.589
282 0 60.053 14.0542 844 132.589 992.167 465.518
283 0 64.0764 14.2018 910 97.3187 993.773 466.548
284 0 66.1512 15.3588 1016 94.5512 994.092 465.307
285 0 69.0541 14.6262 1010 99.8554 997.864 465.784
286 0 68.1025 14.5369 990 100.565 997.642 468.916
287 0 73.0242 14.0228 1024 100.612 996.747 467.979
288 0 75.1947 13.751 1034 97.4632 997.366 467.44
289 1 41.0292 10.8216 444 100.455 997.725 488.475
290 0 41.0301 11.0894 455 143.991 997.727 488.215
291 0 44.039 11.3309 499 103.204 995.864 485.044
292 0 47.0399 12.3512 581 101.504 994.122 485.083
293 0 47.0648 13.5133 636 100.777 991.961 486.123
294 0 48.096 12.9325 622 103.185 988.738 483.447
295 0 48.096 12.9741 624 148.976 983.761 483.489
296 0 51.0887 14.6608 749 92.6502 979.622 481.08
297 0 53.0134 14.3548 761 94.5677 977.283 480.954
298 0 53.157 14.4101 766 94.5822 975.963 479.324
299 0 55.0466 14.1698 780 94.2987 974.628 476.31
300 0 56.1062 13.7596 772 94.4909 972.294 475.522
301 0 57.4392 13.3184 765 94.4183 973.642 472.069
302 0 59.4109 14.1557 841 94.1677 972.981 468.647
303 0 61.3012 13.344 818 97.6394 973.097 467.491
304 0 63.1533 13.5385 855 96.4901 973.643 467.654
305 0 66.235 15.1582 1004 92.9213 975.525 466.811
306 0 65.324 13.1958 862 99.7077 976.433 462.167
307 0 70.4773 14.1606 998 97.2735 977.012 461.01
308 0 72.3475 13.5181 978 97.7382 980.21 461.563
309 1 38.0327 11.5953 441 98.4875 982.483 477.524
310 0 38.0439 10.961 417 100.782 985.129 477.717
311 0 42.0677 11.2676 474 101.586 986.156 475.757
312 0 44.0239 11.5619 509 101.538 987.888 476.381
313 0 44.0239 11.4029 502 167.066 989.855 476.466
314 0 43.1476 12.1212 523 103.679 989.338 475.335
315 0 43.0671 12.1903 525 99.8267 990.221 474.672
316 0 47.2916 13.6811 647 95.7419 990.022 472.223
317 0 50.2838 15.154 762 94.8635 992.411 474.856
318 0 51.0368 13.3433 681 101.432 997.056 476.256
319 0 50.064 14.2218 712 102.574 998.128 474.414
320 0 51.0366 14.8913 760 103.172 998.388 476.538
321 0 52.0979 12.918 673 106.698 997.287 477.291
322 0 54.0494 14.5978 789 105.326 998.041 477.355
323 0 56.0719 14.6776 823 105.339 996.735 477.851
324 0 58.0582 13.5898 789 107.55 997.741 479.408
325 0 59.0888 15.299 904 104.833 995.44 477.102
326 0 61.0415 14.7441 900 105.393 994.063 476.441
327 0 61.0415 14.7277 899 167.141 994.066 476.409
328 0 67.114 15.4364 1036 106.506 989.532 474.792
329 0 65.0572 14.1414 920 113.048 986.083 474.293
330 0 69.0383 15.7014 1084 108.183 981.792 471.478
331 0 72.0222 15.1898 1094 109.783 979.64 469.803
332 1 39.0195 10.687 417 114.906 977.686 484.734
333 0 41.0212 12.7251 522 112.247 975.418 481.008
334 0 42.0451 11.7493 494 112.996 973.636 480.391
335 0 43.0078 12.4164 534 115.358 973.082 477.3
336 0 45.0282 12.6143 568 114.111 973.125 475.951
337 0 47.0967 12.6124 594 112.316 975.712 471.796
338 0 49.0809 13.8547 680 109.96 975.996 471.799
339 0 49.0333 13.5214 663 109.905 976.075 472.674
340 0 50.0507 14.9249 747 111.268 979.181 468.167
341 0 50.0546 14.9836 750 157.544 981.167 468.199
342 0 54.0443 13.5259 731 115.044 982.691 466.327
343 0 57.0688 15.0695 860 109.764 984.416 465.736
344 0 59.0733 14.3381 847 111.54 985.655 465.647
345 0 60.0533 14.8035 889 111.432 986.533 464.067
346 0 60.0554 14.2202 854 113.948 989.066 465.667
347 0 63.0596 13.7806 869 113.734 990.214 463.885
348 0 64.0485 16.0035 1025 108.797 991.368 464.124
349 0 68.0968 15.5954 1062 106.981 993.156 463.995
350 0 69.0822 15.0256 1038 108.865 995.471 463.997
351 0 71.1028 15.358 1092 107.639 995.648 464.672
352 0 74.1685 14.2378 1056 110.988 997.426 461.485
353 1 38.037 10.8579 413 110.039 997.976 480.521
354 0 42.0151 10.639 447 105.94 998.434 484.416
355 0 42.0265 11.5165 484 105.041 998.754 484.919
356 0 44.0114 10.3382 455 107.525 997.721 485.046
357 0 44.029 12.1965 537 107.255 996.453 485.315
358 0 44.1146 12.3315 544 106.789 996.153 484.439
359 0 47.089 12.2959 579 108.366 994.61 481.952
360 0 50.028 13.0727 654 103.508 993.391 482.998
361 0 49.0206 14.3205 702 103.933 991.983 480.266
362 0 51.0308 14.1679 723 103.575 989.57 479.189
363 0 51.0153 13.4273 685 107.493 985.663 476.432
364 0 53.0411 14.0834 747 105.277 981.653 476.981
365 0 53.0593 13.042 692 108.601 979.208 476.416
366 0 54.0833 13.2573 717 107.681 977.618 476.106
367 0 56.0809 12.6781 711 109.03 976.799 471.861
368 0 60.0768 16.0628 965 100.727 974.773 468.902
369 0 59.1227 14.8166 876 104.501 974.587 466.377
370 0 61.15 14.211 869 106.936 974.961 463.903
371 0 62.1167 14.4406 897 106.553 976.037 463.532
372 0 65.2061 14.3545 936 107.006 976.807 460.983
373 0 67.1729 15.0954 1014 105.304 978.389 458.923
374 0 68.1735 13.0843 892 108.899 979.399 458.277
375 0 72.1137 14.699 1060 104.485 982.775 459.246
376 0 73.202 15.4914 1134 103.593 983.787 454.878
377 0 76.2151 14.5116 1106 107.788 985.344 454.575
378 0 77.2556 14.5491 1124 109.051 986.759 454.036
379 0 81.1356 14.5066 1177 105.737 986.268 453.203
380 1 45.0333 11.5914 522 107.889 986.414 474.264
381 0 46.0521 10.6401 490 111.739 988.743 473.069
382 0 46.0875 11.847 546 109.921 989.72 473.463
383 0 49.0658 12.7176 624 104.766 991.707 476.564
384 0 48.0892 11.8946 572 108.009 992.122 475.584
385 0 51.157 14.172 725 103.568 994.377 475.201
386 0 55.122 13.9146 767 102.548 995.649 475.289
387 0 54.0821 14.8478 803 103.864 994.731 474.267
388 0 57.1287 15.9289 910 105.759 995.26 474.829
389 0 57.0547 14.0041 799 112.059 994.413 477.304
390 0 58.0344 14.0434 815 114.153 994.483 476.439
391 0 61.0447 14.3993 879 112.505 993.419 476.844
392 0 64.0746 14.9201 956 112.031 992.536 475.043
393 0 66.0545 15.2904 1010 110.416 991.152 474.373
394 0 67.081 13.6253 914 115.375 988.212 474.1
395 0 67.0449 14.1249 947 115.619 985.637 473.064
396 0 72.1607 14.5093 1047 112.306 982.798 471.331
397 0 73.0805 14.5866 1066 113.971 981.503 469.717
398 0 77.0605 14.7546 1137 113.091 977.551 466.789
399 1 40.035 9.79143 392 114.612 975.168 483.617
400 0 42.0174 11.1144 467 113.09 974.178 481.923
401 0 43.021 12.1336 522 110.565 972.102 481.075
402 0 46.0452 12.618 581 108.91 971.738 479.375
