time division length width area intensity CMx CMy
0 0 46.1026 12.5156 577 116.998 500.262 492.381
1 0 48.1323 13.0058 626 114.767 496.674 491.602
2 0 48.1684 12.913 622 116.658 496.992 488.183
3 0 52.0456 12.931 673 113.646 496.838 487.253
4 0 53.1576 13.808 734 112.253 497.203 485.636
5 0 54.1049 13.0672 707 113.091 497.407 483.424
6 0 58.1841 15.176 883 107.562 498.553 481.888
7 0 58.0982 13.6665 794 111.553 499.598 480.306
8 0 61.1216 15.7882 965 106.562 500.425 477.718
9 0 63.1285 14.621 923 108.837 501.815 475.083
10 0 65.0968 14.3018 931 109.177 501.934 473.087
11 0 68.1411 15.4826 1055 104.612 505.936 475.026
12 1 38.0129 12.6799 482 112.477 507.809 487.081
13 0 39.0591 11.7514 459 114.566 509.765 485.619
14 0 38.0245 12.5972 479 112.046 511.054 487.585
15 0 40.0198 10.8196 433 117.995 513.319 484.79
16 0 40.0493 12.5595 503 114.203 515.942 485.127
17 0 43.0562 14.2372 613 109.987 517.905 484.817
18 0 45.0724 13.5338 610 109.897 519.764 486.731
19 0 45.4785 14.5343 661 111.746 520.598 480.644
20 0 50.553 14.5985 738 110.787 521.925 479.5
21 0 51.7449 15.9243 824 108.714 521.729 480.876
22 0 53.4818 15.0145 803 110.219 520.954 481.227
23 0 55.4614 15.362 852 108.552 520.05 481.88
24 1 137.216 14.2841 1960 73.0444 517.109 464.967
25 0 132.452 10.2754 1361 85.4129 515.566 468.062
26 0 135.379 20.3429 2754 61.7317 512.364 444.677
27 1 71.0793 23.4949 1670 81.2072 510.989 471.324
28 0 68.7788 20.326 1398 90.6996 509.464 473.81
29 0 66.3772 18.7112 1242 97.1272 508.633 474.714
30 0 68.4782 19.3638 1326 96.8906 505.761 475.588
31 0 69.3077 18.5549 1286 99.6407 503.936 473.291
32 0 70.3455 17.3145 1218 103.895 502.135 470.724
33 0 75.2347 19.4591 1464 97.8169 501.473 468.245
34 0 73.2319 18.4073 1348 163.171 501.577 469.453
35 0 73.2319 18.4209 1349 162.6 501.586 469.476
36 1 41.0785 11.1494 458 110.541 503.952 483.57
37 0 41.0342 11.2345 461 111.963 504.521 482.855
38 0 47.1376 13.7258 647 105.301 505.386 480.91
39 0 45.0385 13.544 610 107.767 506.123 480.143
40 0 48.0654 13.7729 662 109.363 508.92 477.787
41 0 51.1928 15.0803 772 105.751 510.315 475.575
42 0 51.0348 14.6958 750 112.921 512.359 473.156
43 0 52.0448 13.6997 713 115.669 514.863 472.403
44 0 55.0548 15.8569 873 109.245 517.276 473.364
45 0 57.0465 15.0053 856 110.131 519.453 468.178
46 0 58.1044 15.5066 901 111.21 520.397 468.133
47 0 61.1098 14.8912 910 112.69 523.418 468.398
48 0 62.1009 14.5892 906 112.54 525.166 467.02
49 0 65.0753 15.9354 1037 109.352 526.56 468.419
50 0 66.1122 15.5947 1031 111.11 527.733 467.4
51 0 71.0865 15.9946 1137 109.903 528.702 467.567
52 0 73.1345 17.0644 1248 106.992 529.667 467.686
53 0 75.1315 16.0385 1205 111.363 530.518 467.739
54 0 80.2687 17.1051 1373 107.103 531.388 470.617
55 1 41.0434 12.9132 530 112.872 531.175 487.126
56 0 40.012 11.4216 457 111.593 530.066 488.389
57 0 42.1151 11.1836 471 109.03 528.873 489.773
58 0 42.2767 11.9924 507 112.018 526.426 488.239
59 0 44.0862 12.2034 538 111.381 524.976 486.214
60 0 47.1076 14.2864 673 105.027 521.828 485.993
61 0 47.055 14.0474 661 106.014 519.359 484.602
62 0 50.0503 13.7861 690 104.622 516.751 483.683
63 0 52.0718 14.288 744 104.712 515.269 481.954
64 0 52.0406 14.4502 752 103.649 513.6 479.592
65 0 54.0581 13.467 728 106.963 512.132 477.702
66 0 54.0445 13.5999 735 107.771 510.81 474.746
67 0 58.1196 15.7262 914 104.597 509.708 471.037
68 0 61.04 14.4987 885 107.122 508.992 469.768
69 0 63.4256 15.4512 980 108.768 508.742 466.902
70 0 64.4384 15.3014 986 110.901 510.544 464.392
71 0 66.2836 15.3432 1017 111.424 512.635 461.813
72 0 68.5083 16.5965 1137 108.442 512.922 460.099
73 0 71.4936 16.477 1178 108.45 515.933 459.352
74 0 71.4714 15.7686 1127 110.881 517.852 456.768
75 0 75.4457 15.1367 1142 112.388 519.21 457.34
76 1 41.1312 11.0622 455 113.037 521.108 473.686
77 0 41.199 12.8887 531 111.35 522.857 471.866
78 0 43.3913 12.1683 528 107.642 525.169 473.15
79 0 42.2158 12.3177 520 113.337 526.05 473.117
80 0 45.3963 13.5033 613 106.396 529.09 470.985
81 0 50.1676 16.2655 816 92.6985 530.852 472.353
82 0 51.1102 14.185 725 104.665 532.284 472.423
83 0 50.0493 14.4258 722 105.295 534.871 472.587
84 0 51.0505 13.6923 699 107.619 535.134 473.906
85 0 52.116 14.9858 781 106.222 534.757 474.141
86 0 54.1079 14.3787 778 107.049 536.073 474.555
87 0 57.1464 14.9616 855 105.392 536.291 472.545
88 0 59.0629 15.0856 891 105.292 536.25 473.545
89 0 62.2381 14.9265 929 103.623 534.879 474.292
90 0 62.1159 16.1311 1002 103.714 533.63 474.118
91 0 65.1868 15.3712 1002 104.977 533.074 471.283
92 0 65.0995 15.4072 1003 107.117 531.346 470.356
93 0 68.1768 15.7678 1075 106.514 528.376 469.68
94 0 69.0943 14.3427 991 110.123 526.688 470.155
95 0 71.0487 14.4689 1028 109.308 522.857 466.202
96 1 37.0557 9.7421 361 107.355 518.706 485.576
97 0 37.016 11.8327 438 105.527 516.324 482.808
98 0 37.087 9.92262 368 107.592 514.967 482.59
99 0 41.0311 11.6741 479 102.286 515.472 479.889
100 0 41.1407 13.5146 556 102.056 512.32 474.989
101 0 43.0798 13.2081 569 97.1898 514.979 477.17
102 0 42.0758 12.8815 542 129.662 514.943 476.734
103 0 44.0361 11.9447 526 101.224 514.844 474.243
104 0 45.0466 12.1874 549 101.676 515.645 474.049
105 0 47.2041 13.3463 630 101.21 518.1 469.248
106 0 49.371 13.8138 682 97.3416 519.067 469.155
107 0 50.3729 13.3405 672 104.637 520.842 466.558
108 0 53.3763 13.8263 738 100.209 522.688 467.822
109 0 55.1421 14.1815 782 98.7174 524.412 467.331
110 0 55.3911 15.4538 856 97.7068 525.296 466.21
111 0 58.4045 14.5194 848 99.3526 527.751 464.499
112 0 59.3055 14.0796 835 102.41 529.857 464.825
113 0 61.2717 14.2317 872 102.353 531.159 460.382
114 0 62.2985 13.8366 862 103.855 533.459 461.773
115 0 64.2326 13.7625 884 105.02 535.11 461.161
116 0 68.3851 15.325 1048 101.297 536.32 460.19
117 0 70.3622 15.3065 1077 102.318 537.354 460.427
118 0 74.2844 15.6964 1166 101.551 538.857 461.408
119 0 79.41 16.1818 1285 96.8078 539.294 464.163
120 0 79.2095 15.5537 1232 103.381 540.413 462.631
121 0 79.2095 15.5411 1231 154.748 541.433 462.623
122 1 42.0202 11.1851 470 106.964 540.451 482.309
123 0 44.0124 13.269 584 102.56 540.104 481.295
124 0 45.0668 12.8254 578 105.014 539.701 480.699
125 0 46.056 13.1796 607 106.115 537.275 480.496
126 0 48.0558 14.8994 716 101.508 534.874 479.427
127 0 49.0277 14.4408 708 111.499 533.073 477.749
128 0 51.0918 13.2898 679 112.814 529.297 476.879
129 0 54.0258 15.1224 817 107.65 527.878 475.239
130 0 54.0757 14.7941 800 109.44 527.174 474.539
131 0 56.0754 14.7837 829 109.16 523.934 472.201
132 0 59.0567 15.138 894 106.903 520.544 470.306
133 0 59.0344 15.8382 935 107.239 520.056 468.803
134 0 59.0156 13.3694 789 113.289 518.622 465.189
135 1 32.0487 11.2329 360 106.558 519.125 479.097
136 0 33.0131 10.6624 352 107.974 518.486 476.923
137 0 32.0172 9.49488 304 108.141 518.796 475.928
138 0 36.0196 10.5776 381 104.675 520.772 474.738
139 0 36.0198 9.05058 326 109.589 522.589 475.285
140 0 35.0251 10.107 354 108.246 523.737 473.596
141 0 39.1062 10.8167 423 107.333 526.903 471.149
142 0 39.1075 11.3277 443 107.172 527.248 468.767
143 0 41.0329 11.8442 486 103.891 527.979 471.117
144 0 43.1397 12.7261 549 103.579 531.004 465.938
145 0 46.0696 12.6114 581 105.411 532.604 467.241
146 0 48.0223 12.9523 622 107.222 533.553 466.061
147 0 49.2522 15.7353 775 103.373 535.232 463.804
148 0 49.1966 14.1473 696 107.332 536.697 465.269
149 0 52.1996 14.0614 734 106.969 537.605 465.27
150 0 52.2167 14.2483 744 108.286 538.362 465.887
151 0 54.1737 13.9182 754 110.117 540.347 464.565
152 0 55.2666 14.4572 799 109.393 541.602 463.947
153 0 58.2148 14.5152 845 108.032 541.827 464.53
154 0 59.2097 14.8624 880 108.056 542.006 465.143
155 0 63.2621 14.7007 930 106.513 540.889 466.515
156 0 63.2145 14.4587 914 109.085 540.612 465.408
157 0 66.2622 14.9105 988 106.543 539.66 466.543
158 0 68.2256 15.1703 1035 106.836 538.219 465.186
159 0 69.3175 14.2965 991 109.613 535.286 463.292
160 0 69.3172 14.2677 989 145.148 531.301 463.307
161 0 75.2452 14.5391 1094 107.951 532.157 461.324
162 0 76.166 15.0198 1144 107.844 528.787 459.116
163 0 80.4189 15.4814 1245 105.238 526.097 455.692
164 0 82.2812 14.9001 1226 105.114 523.564 455.479
165 1 41.0211 10.6774 438 104.164 523.094 475.943
166 0 44.0269 11.1296 490 103.586 521.839 473.563
167 0 44.1649 10.5061 464 103.851 520.347 472.735
168 0 48.2221 11.6129 560 101.577 518.973 468.336
169 0 48.472 12.3989 601 102.609 517.937 463.067
170 0 49.3466 10.8214 534 106.491 519.925 461.054
171 0 51.3968 12.3743 636 102.656 519.84 458.181
172 0 56.5234 14.4542 817 96.8274 521.43 458.049
173 0 58.0492 15.194 882 97.1236 524.816 461.197
174 0 61.0516 15.4459 943 97.5642 525.619 459.106
175 0 60.0818 13.698 823 102.944 527.818 458.623
176 0 63.1616 14.2808 902 101.254 529.636 456.594
177 0 66.0914 14.0412 928 99.7565 532.27 456.372
178 0 68.1461 14.601 995 98.6784 534.027 454.975
179 0 71.0608 14.5087 1031 98.709 535.534 452.887
180 0 72.2929 14.6349 1058 98.3639 535.332 451.862
181 0 76.1013 14.3624 1093 98.5398 538.086 450.548
182 0 79.1222 15.2296 1205 96.9768 538.549 452.464
183 0 82.0684 14.7804 1213 97.5268 540.137 454.026
184 0 83.1337 15.7457 1309 96.9939 542.807 450.943
185 0 86.3273 14.8736 1284 99.162 542.991 452.113
186 0 88.091 15.6202 1376 98.7493 543.278 450.795
187 0 90.2273 14.5521 1313 100.772 543.495 451.49
188 1 48.1851 9.75406 470 96.6106 542.277 478.394
189 0 52.0524 11.6421 606 95.7739 541.355 476.431
190 0 52.0441 11.644 606 94.2228 540.927 476.754
191 0 54.0894 11.8507 641 93.5819 540.123 474.39
192 0 54.4597 12.4128 676 90.0917 539.13 471.24
193 0 57.5586 13.9162 801 88.0537 536.453 468.593
194 0 58.0496 12.5927 731 91.2627 534.092 469.945
195 0 59.1152 13.5329 800 89.8725 531.468 470.828
196 0 64.1513 14.9335 958 87.7871 528.931 467.991
197 0 64.2471 14.0084 900 89.6189 526.304 464.738
198 0 66.1677 14.5388 962 88.7308 524.231 462.546
199 0 68.3014 12.9134 882 92.7222 521.446 461.501
200 0 72.1517 14.7051 1061 88.6927 519.731 459.64
201 0 74.3279 14.0862 1047 90 520.047 456.303
202 0 78.3112 14.0338 1099 89.273 519.307 453.255
203 0 78.1832 13.9544 1091 89.8103 518.709 453.17
204 0 85.1307 16.5393 1408 85.4091 518.904 448.766
205 0 86.277 14.8939 1285 89.6327 521.843 445.615
206 1 47.104 11.9735 564 90.4397 524.445 466.349
207 0 47.0875 12.0202 566 92.2703 525.767 463.364
208 0 49.0714 11.31 555 90.5982 527.323 464.641
209 0 51.0199 12.2501 625 90.2976 528.797 461.422
210 0 52.0418 14.1425 736 87.4592 530.413 458.806
211 0 53.0406 13.1409 697 89.0617 532.053 458.904
212 0 55.0616 11.9139 656 91.9162 536.442 460.645
213 0 59.0998 12.9611 766 89.3003 539.678 458.815
214 0 60.1255 12.923 777 91.0013 540.616 459.435
215 0 61.0898 13.0955 800 92.7775 542.286 458.681
216 0 65.1389 14.4 938 89.064 541.84 458.763
217 0 65.0461 12.837 835 92.2539 543.281 459.672
218 0 69.2934 12.31 853 92.3458 545.014 459.441
219 0 72.2753 14.1542 1023 89.1632 544.462 458.953
220 0 73.2023 13.975 1023 89.9599 545.173 460.021
221 0 77.1846 13.3964 1034 91.6779 543.786 459.335
222 0 78.2051 12.6718 991 94.5661 543.127 460.066
223 1 40.0795 9.35641 375 98.76 542.424 480.941
224 0 42.0624 10.3893 437 98.5561 542.943 476.149
225 0 45.0648 11.6277 524 94.7347 539.874 475.405
226 0 48.0379 12.2195 587 93.2181 536.419 476.169
227 0 48.0087 12.0812 580 95.2879 533.957 473.117
228 0 50.0507 13.8859 695 92.0576 529.799 469.348
229 0 52.0654 13.0029 677 97.0665 529.369 472.502
230 0 53.1245 13.1766 700 99.1371 527.004 469.351
231 0 54.1 13.7893 746 98.3954 525.106 467.101
232 0 56.0528 13.7014 768 97.9414 523.905 465.964
233 0 57.1376 14.1238 807 97.6047 522.206 464.218
234 0 60.0895 14.2288 855 97.1029 520.868 462.206
235 0 62.1619 13.5453 842 97.5392 521.16 459.918
236 0 65.1634 14.4713 943 95.2598 522.274 457.653
237 0 68.1674 15.1979 1036 93.7153 522.846 455.342
238 0 68.0957 14.7439 1004 95.2978 524.892 452.884
239 0 69.1803 14.773 1022 95.592 527.038 451.571
240 1 36.0376 12.1262 437 94.2952 530.023 467.929
241 0 38.0213 10.3626 394 95.5914 530.401 467.754
242 0 40.0728 9.88202 396 96.5152 531.192 467.323
243 0 40.0482 10.0629 403 97.2903 533.122 467.37
244 0 42.0587 11.9119 501 93.8403 533.822 466.349
245 0 45.0312 11.7474 529 94.794 532.531 464.93
246 0 45.0734 12.3354 556 94.3543 534.915 465.174
247 0 45.0734 12.3354 556 161.511 536.915 465.174
248 0 50.2558 13.7497 691 88.7381 539.863 467.456
249 0 49.2049 13.4743 663 91.1991 540.27 468.24
250 0 52.1755 15.007 783 87.3346 540.165 467.352
251 0 52.1555 13.2488 691 92.8408 540.041 467.258
252 0 53.0913 13.6746 726 92.6667 541.309 466.915
253 0 57.1761 15.1637 867 87.8051 542.522 469.692
254 0 56.2123 13.8404 778 91.3368 543.207 468.127
255 0 59.1942 16.2347 961 84.7804 543.686 468.827
256 0 60.2012 15.3984 927 87.3786 541.926 471.923
257 0 61.2355 13.5216 828 90.8841 540.743 469.849
258 0 61.0675 13.002 794 91.4887 539.253 472.395
259 0 63.0976 13.3602 843 93.1115 538.59 470.482
260 0 63.1215 12.9591 818 94.1528 535.781 469.743
261 0 63.1215 12.9116 815 147.437 533.771 469.795
262 0 67.1545 13.7295 922 91.3384 530.415 465.585
263 0 70.1498 15.0678 1057 89.5449 527.668 464.096
264 0 72.2256 13.9147 1005 92.4706 525.515 461.073
265 0 74.1146 13.776 1021 93.8443 524.028 458.238
266 0 77.1261 13.5233 1043 90.8552 521.021 459.724
267 0 80.1305 13.9273 1116 90.2455 520.487 456.372
268 0 82.1149 15.1373 1243 89.354 519.419 452.223
269 1 49.0913 11.0406 542 92.3376 518.714 470.458
270 0 47.0807 11.852 558 93.5125 521.919 464.276
271 0 48.1009 10.873 523 95.652 521.359 466.503
272 0 49.1519 10.9457 538 93.2286 522.108 464.454
273 0 49.0645 11.5562 567 95.2205 524.524 459.497
274 0 49.0645 11.6581 572 147.066 526.517 459.624
275 0 53.0618 12.8341 681 95.2173 530.865 461.325
276 0 55.0201 13.8495 762 92.9409 532.109 460.601
277 0 59.0715 15.4897 915 88.9246 533.045 458.071
278 0 59.1136 14.8697 879 90.1081 534.725 457.672
279 0 61.1087 14.7279 900 90.3789 536.046 455.942
280 0 61.0416 13.2041 806 93.2891 537.294 457.181
281 0 66.1383 13.2147 874 93.3558 539.919 455.624
282 0 68.0838 14.115 961 91.384 541.047 458.021
283 0 68.0917 14.877 1013 92.5548 541.593 456.088
284 0 71.0722 13.8732 986 92.7606 543.925 455.9
285 0 74.0655 16.6339 1232 89.22 544.795 455.692
286 0 76.067 14.6976 1118 93.5653 545.247 457.769
287 0 77.0191 13.7109 1056 97.5956 544.77 456.135
288 0 81.2319 14.9572 1215 94.8412 544.615 457.42
289 0 83.1432 15.1786 1262 97.1307 543.071 456.729
290 0 86.0853 15.3104 1318 96.893 544.442 454.681
291 0 87.0773 14.4584 1259 100.06 543.195 454.242
292 0 90.1289 13.7359 1238 101.771 541.468 454.536
293 0 96.1727 15.2226 1464 98.4235 539.61 454.507
294 0 96.2624 14.5955 1405 101.077 536.41 450.618
295 0 100.413 13.6934 1375 97.864 533.452 452.94
296 1 58.1214 11.0286 641 102.633 531.644 471.401
297 0 58.1054 12.3741 719 101.166 528.408 469.138
298 0 62.1347 11.5073 715 99.1538 527.636 469.541
299 0 66.1452 13.5913 899 102.841 524.699 461.858
300 0 68.1108 14.2709 972 103.494 523.159 460.885
301 0 71.2599 15.3803 1096 103.233 522.702 456.239
302 0 72.3013 14.8822 1076 105.628 520.901 454.138
303 0 73.5014 14.3671 1056 107.736 521.515 450.989
304 0 78.3733 14.8903 1167 105.009 522.248 449.712
305 0 76.1519 13.9064 1059 106.423 524.633 450.369
306 0 80.3226 12.7486 1024 108.614 525.548 446.917
307 0 84.2377 13.4738 1135 105.633 526.368 447.975
308 0 86.3405 13.0066 1123 107.76 528.728 445.055
309 0 90.2041 14.1346 1275 105.557 530.329 441.915
310 1 52.1061 11.419 595 107.923 533.57 462.398
311 0 56.0867 13.283 745 104.388 534.174 460.715
312 0 56.0713 12.6624 710 101.535 536.454 462.107
313 0 57.0925 11.4901 656 101.069 537.654 463.73
314 0 57.1732 12.7157 727 100.085 537.714 461.591
315 0 60.09 13.0804 786 100.383 539.187 457.338
316 0 64.2021 15.1241 971 95.1318 540.307 458.132
317 0 66.1558 14.8135 980 95.7224 542.973 459.133
318 0 68.2372 14.1712 967 104.747 544.362 456.6
319 0 67.1627 14.249 957 106.466 544.42 456.078
320 0 72.1295 15.4999 1118 104.857 544.497 459.381
321 0 74.1162 14.5312 1077 105.224 544.388 459.544
322 0 76.2719 15.117 1153 103.573 542.933 457.311
323 0 80.2374 15.0678 1209 103.976 542.957 456.666
324 0 81.3601 14.3313 1166 104.909 542.898 458.055
325 0 81.125 13.5716 1101 101.094 540.852 457.338
326 0 84.225 14.7581 1243 103.704 539.113 449.148
327 0 85.1583 15.0543 1282 104.821 536.045 454.956
328 1 46.048 11.5314 531 106.375 533.863 474.017
329 0 47.0312 10.6738 502 104.558 532.076 476.739
330 0 49.0628 11.5362 566 105.903 527.274 471.233
331 0 48.0979 11.0608 532 107.186 526.889 469.808
332 0 48.1954 12.3456 595 106.113 524.734 467.392
333 0 52.3761 13.6322 714 96.7479 521.434 464.186
334 0 51.2905 12.1855 625 99.6384 520.851 463.253
335 0 57.357 12.8668 738 96.0257 523.171 462.153
336 0 57.4782 12.944 744 97.6626 523.148 460.054
337 0 59.1729 15.6153 924 92.9773 523.269 459.96
338 0 58.099 13.3393 775 98.7652 525.139 460.446
339 0 62.1845 13.2831 826 99.3947 526.31 455.61
340 0 63.2511 13.7863 872 99.5378 526.944 452.692
341 0 65.2021 13.4352 876 99.9315 527.747 454.123
342 0 68.2699 13.637 931 98.5145 531.309 449.903
343 0 68.3275 13.2889 908 100.08 531.817 448.764
344 0 74.3004 13.9972 1040 95.9317 533.008 447.371
345 0 76.2845 15.534 1185 91.9637 534.56 448.736
346 0 77.264 13.8616 1071 95.5752 536.578 448.194
347 0 81.3053 15.288 1243 91.8093 537.04 448.788
348 0 83.3268 15.1332 1261 92.9564 538.691 446.814
349 1 41.1025 10.6563 438 98.4269 541.566 468.671
350 0 46.0159 12.0176 553 97.4141 542.517 469.051
351 0 47.109 12.0359 567 97.8025 544.459 469.34
352 0 47.1918 12.3115 581 96.9449 544.554 468.337
353 0 49.091 13.4444 660 92.0288 542.779 469.608
354 0 50.275 13.1676 662 91.7447 543.453 470.674
355 0 52.043 14.2767 743 95.4509 546.72 472.071
356 0 52.0519 13.5826 707 96.4257 545.885 472.358
357 0 55.0464 13.9882 770 96.0922 545.242 471.842
358 0 57.0388 16.3573 933 92.0804 544.179 469.346
359 0 56.0831 13.694 768 98.8581 543.488 468.913
360 0 61.1353 15.2612 933 94.6956 540.102 469.092
361 0 63.036 14.7217 928 95.3416 539.343 468.18
362 0 64.1024 15.444 990 95.2889 536.418 466.172
363 0 65.065 14.7237 958 96.2171 532.289 462.533
364 0 68.0938 15.8752 1081 93.531 529.591 463.5
365 0 72.1235 15.5289 1120 93.6527 527.882 462.581
366 0 72.1312 15.2916 1103 95.9927 525.657 460.096
367 0 72.1479 13.3199 961 99.9865 523.514 455.428
368 0 78.0991 14.6224 1142 96.2951 522.52 453.359
369 0 82.0912 16.0066 1314 92.4163 522.188 449.135
370 0 84.2069 15.4975 1305 93.5686 522.799 446.7
371 1 47.0459 11.8183 556 93.8777 523.739 467.878
372 0 46.0675 10.3978 479 96.2797 525.109 466.779
373 0 48.0667 11.068 532 95.9154 527.423 463.778
374 0 51.0951 12.2321 625 93.7184 529.326 464.178
375 0 52.0324 13.3571 695 93.5942 530.915 461.574
376 0 53.0501 13.1762 699 94.8412 532.339 459.712
377 0 53.1746 13.0513 694 91.4784 534.535 462.026
378 0 56.1016 12.4952 701 93.5549 536.391 460.893
379 0 57.0271 12.5028 713 92.9201 536.651 459.99
380 0 59.1219 12.0429 712 94.1433 538.515 460.383
381 0 59.1423 13.9663 826 92.6477 540.077 458.495
382 0 60.0766 11.9514 718 96.3398 540.403 462.859
383 0 62.1898 13.507 840 96.1583 541.288 459.857
384 0 61.0602 12.1028 739 98.5981 541.951 462.206
385 0 66.1862 13.4016 887 96.6697 543.843 462.334
386 0 67.1338 12.3932 832 99.3161 544.041 463.169
387 0 68.11 12.9496 882 99.6349 543.984 463.212
388 0 72.2053 14.3757 1038 97.6638 544.039 461.507
389 0 75.2595 13.7657 1036 98.3465 544.501 465.569
390 1 39.1506 11.1109 435 102.749 545.28 481.409
391 0 42.2582 11.5481 488 101.012 544.031 481.666
392 0 41.188 12.8435 529 101.397 542.56 480.858
393 0 44.1321 13.2783 586 98.2696 540.049 480.594
394 0 40.2211 10.9644 441 103.145 537.399 478.853
395 0 43.2231 12.3776 535 99.3907 535.228 476.654
396 0 46.1025 14.1424 652 100.222 535.074 475.983
397 0 47.074 14.4029 678 99.7035 531.873 474.59
398 0 50.0945 14.3728 720 97.65 529.214 474.779
399 0 50.0601 13.7435 688 100.435 526.795 469.131
400 0 53.0715 15.3566 815 94.7804 524.768 470.056
401 0 54.1072 15.7465 852 94.5587 522.555 468.09
402 0 55.0802 14.9419 823 96.7047 523.01 465.846
