time division length width area intensity CMx CMy
0 0 78.2117 11.4689 897 112.276 1266.52 461.952
1 0 83.2386 12.8186 1067 107.771 1265.59 463.012
2 0 88.4706 14.3211 1267 103.578 1266.14 452.223
3 0 87.2923 10.6997 934 112.383 1266 456.767
4 0 88.4115 10.6434 941 111.153 1266.28 459.92
5 0 92.4298 11.2626 1041 110.58 1265.39 455.297
6 0 96.4791 12.0233 1160 109.396 1266.42 450.753
7 0 99.4613 12.256 1219 108.71 1265.96 453.258
8 1 52.3776 10.4434 547 105.388 1265.59 477.514
9 0 52.3542 11.5368 604 101.75 1265.56 477.238
10 0 54.2272 11.0277 598 102.773 1266.13 477.567
11 0 55.1798 12.8308 708 100.653 1266.73 476.46
12 0 56.2013 11.6723 656 103.297 1268.53 475.657
13 0 57.3892 12.2148 701 102.369 1267.62 477.853
14 0 59.3099 11.9879 711 102.03 1267.79 475.488
15 0 62.2088 13.4708 838 98.6086 1266.83 474.914
16 0 63.4513 10.4174 661 103.539 1267.68 474.399
17 0 64.274 11.2954 726 102.877 1267.59 469.897
18 0 65.3442 13.7732 900 97.7767 1268.18 467.786
19 0 67.3731 11.0727 746 103.94 1267.28 468.304
20 0 70.1873 12.9653 910 99.8593 1268.3 465.223
21 0 71.4735 12.2563 876 101.354 1267.87 468.675
22 0 73.4595 12.9868 954 100.658 1267.89 465.677
23 0 75.3356 11.7607 886 104.074 1267.04 464.12
24 0 77.3568 12.3066 952 103.603 1267.56 462.341
25 0 79.3167 14.6754 1164 99.0902 1268.15 461.485
26 0 80.2887 11.6704 937 107.213 1267.92 458.115
27 0 84.3698 13.2749 1120 103.137 1268.01 458.403
28 0 85.3755 11.9824 1023 106.145 1267.95 458.142
29 0 88.3118 11.3801 1005 107.706 1267.93 455.788
30 0 93.3817 12.8291 1198 104.875 1268.65 453.199
31 0 96.3109 12.9269 1245 104.51 1268.99 454.214
32 0 99.104 12.0883 1198 99.4775 1268.73 453.982
33 0 102.352 11.1575 1142 102.276 1268.5 449.109
34 0 106.169 12.5083 1328 97.988 1268.23 451.582
35 0 106.177 12.5074 1328 116.933 1267.24 451.593
36 1 58.2597 10.2644 598 101.726 1267.41 471.876
37 0 59.2292 12.3588 732 97.9495 1267.61 469.93
38 0 64.1532 11.4102 732 102.713 1267.91 467.332
39 0 64.2309 11.4431 735 104.165 1267.37 465.335
40 0 66.1636 11.925 789 102.752 1267.37 465.549
41 0 71.2924 13.4236 957 99.2351 1267.93 465.114
42 0 72.3911 11.8661 859 103.292 1267.8 465.945
43 0 72.3901 11.7972 854 105.063 1267.01 462.451
44 0 76.3942 13.2209 1010 101.494 1267.43 460.668
45 0 77.556 12.5974 977 104.414 1268.28 460.567
46 0 78.5451 12.2605 963 106.007 1267.22 461.112
47 0 82.6061 12.7594 1054 105.235 1268.07 459.403
48 0 85.4876 12.5866 1076 105.527 1267.27 457.625
49 0 86.3585 11.6723 1008 101.469 1267.82 457.554
50 0 90.3152 11.9913 1083 100.175 1266.46 456.95
51 0 92.2582 11.5979 1070 100.906 1267.34 455.173
52 0 94.166 10.7045 1008 101.616 1266.46 455.39
53 0 99.3284 12.2019 1212 99.2219 1267.2 455.208
54 0 101.305 11.7467 1190 100.946 1266.76 453.064
55 0 105.216 11.9753 1260 101.66 1266.76 449.391
56 1 54.089 10.0205 542 101.773 1267.65 478.085
57 0 57.1788 11.91 681 101.626 1267.63 477.602
58 0 59.2142 12.2943 728 107.521 1268.23 471.613
59 0 62.1992 13.5532 843 103.932 1267.77 474.921
60 0 66.1279 13.2017 873 103.869 1267.78 472.837
61 0 66.2415 13.0734 866 106.139 1267.96 470.054
62 0 67.2049 13.1836 886 106.439 1267.78 468.791
63 0 71.4012 13.2211 944 106.714 1268.58 466.141
64 0 70.3837 13.0428 918 107.614 1267.87 467.905
65 0 69.3918 11.817 820 143.401 1266.75 465.943
66 0 74.5127 12.2798 915 111.933 1267.75 456.625
67 0 79.3476 12.9935 1031 109.055 1267.87 460.022
68 0 80.5761 12.9071 1040 110.643 1268.95 460.312
69 0 83.3187 12.9743 1081 107.442 1268.29 459.713
70 0 83.2332 11.3056 941 109.9 1268.99 451.752
71 0 89.2918 11.972 1069 105.179 1268 455.166
72 0 91.4056 12.4391 1137 104.832 1267.35 451.628
73 0 92.4584 11.4971 1063 106.333 1267.4 451.128
74 0 96.3042 12.1594 1171 103.725 1268.81 454.16
75 0 98.452 13.3771 1317 101.169 1267.91 454.102
76 0 101.363 10.7633 1091 104.775 1268.51 454.83
77 0 105.364 11.5789 1220 102.846 1267.56 451.271
78 0 109.442 10.8459 1187 103.655 1268.13 449.809
79 0 112.49 9.81425 1104 105.898 1267.84 446.413
80 1 60.1179 10.5459 634 100.909 1268.51 473.756
81 0 64.2509 12.3422 793 106.102 1268.12 470.851
82 0 65.2379 12.4161 810 109.496 1268.42 463.383
83 0 69.1874 13.196 913 107.115 1268.48 453.623
84 0 72.1096 12.3839 893 108.045 1268.51 454.184
85 0 71.2775 11.9393 851 110.036 1268.8 450.016
86 0 76.189 12.3377 940 107.826 1267.4 442.63
87 0 78.3224 12.5635 984 108.295 1267.01 442.484
88 0 80.1405 12.7401 1021 107.226 1267.68 444.026
89 0 81.2062 11.9572 971 109.252 1267.98 444.812
90 0 84.2897 12.8248 1081 100.958 1268.77 446.9
91 0 85.113 10.2922 876 103.808 1268.85 447.895
92 0 89.2708 11.818 1055 99.5384 1268.75 450.702
93 0 93.2544 11.2381 1048 98.4771 1267.35 455.298
94 0 96.2214 10.85 1044 98.4224 1268.19 455.852
95 1 53.0415 9.23806 490 95.8837 1269.25 479.351
96 0 55.0321 10.9936 605 92.8545 1268.24 480.261
97 0 57.0397 11.5709 660 101.43 1267.71 469.253
98 0 59.1405 11.5995 686 99.5889 1267.18 464.876
99 0 61.0736 11.216 685 102.145 1266.57 466.702
100 0 62.0622 12.133 753 90.8938 1267.2 469.421
101 0 64.1057 12.1674 780 91.4872 1266.18 469.123
102 0 65.1317 12.0372 784 91.3163 1265.91 470.684
103 0 66.1938 11.9195 789 92.1521 1265.9 469.122
104 0 71.1907 12.1645 866 90.1663 1266.58 468.927
105 0 70.0896 11.5994 813 93.1943 1265.91 455.768
106 0 74.0956 12.4299 921 91.7242 1266.29 457.481
107 0 76.0449 12.0587 917 92.217 1266.05 459.298
108 0 78.0737 12.2448 956 91.7897 1266.79 460.165
109 0 82.104 12.606 1035 90.3507 1266.53 461.67
110 0 82.0904 11.9624 982 92.9104 1267.01 458.11
111 0 88.1616 14.0764 1241 89.3989 1266.6 448.767
112 0 86.0795 11.5242 992 95.7349 1266.34 449.231
113 0 91.1913 13.1701 1201 92.0699 1265.45 453.983
114 0 95.2237 13.19 1256 91.7834 1266.18 458.216
115 0 98.1103 12.4758 1224 93.3562 1266.27 457.663
116 0 101.192 13.0247 1318 87.9742 1267.15 455.137
117 0 106.243 11.8032 1254 87.5837 1266.59 456.696
118 0 112.183 12.9609 1454 87.0901 1267.43 437.089
119 0 112.148 12.2695 1376 96.1323 1266.23 441.842
120 0 116.133 12.6493 1469 95.3812 1266.72 447.306
121 1 62.0328 11.7841 731 91.7346 1266.31 477.306
122 0 63.0564 11.4977 725 93.0814 1266.44 476.468
123 0 65.051 13.1435 855 90.1251 1267.18 472.361
124 0 69.0389 13.0072 898 89.8174 1266.23 470.184
125 0 67.0514 12.1101 812 92.3202 1266.29 470.255
126 0 73.0301 12.8851 941 88.8905 1267.65 472.914
127 0 75.158 12.2409 920 90.3283 1266.35 467.045
128 0 78.0821 13.2937 1038 87.6628 1266.89 469.224
129 0 78.0543 11.3767 888 91.9651 1265.76 464.637
130 0 82.2353 12.4399 1023 90.8377 1266.33 460.413
131 0 84.3199 12.3577 1042 90.6209 1266.19 458.907
132 0 89.2865 13.1823 1177 89.6253 1266.39 455.172
133 0 91.2552 12.2623 1119 91.2958 1266.12 457.013
134 1 49.2079 10.6284 523 89.2658 1265.84 481.66
135 0 52.0389 11.28 587 88.2198 1266.32 480.17
136 0 53.1085 12.3521 656 86.2424 1266.63 474.916
137 0 56.0308 11.7079 656 88.7165 1266.7 475.236
138 0 55.0666 12.1852 671 88.8465 1266.56 479.355
139 0 57.1314 12.0774 690 90.1812 1266.83 477.445
140 0 58.0871 11.4483 665 92.018 1266.11 470.23
141 0 61.132 14.2151 869 86.2946 1266.62 471.953
142 0 60.0443 11.708 703 91.1878 1266.5 472.343
143 0 63.1696 12.2686 775 89.671 1266.9 473.199
144 0 66.1169 11.888 786 90.514 1266.63 465.173
145 0 68.1312 11.9475 814 90.3219 1266.49 463.205
146 0 69.1064 12.8063 885 89.6723 1266.51 466.881
147 0 74.1761 12.3625 917 88.277 1265.77 467.799
148 0 72.185 11.1103 802 93.101 1266.08 462.252
149 0 79.2506 13.1482 1042 87.952 1266.42 457.275
150 0 82.5113 14.1314 1166 85.2127 1266.35 450.751
151 0 84.2497 14.3977 1213 85.3331 1266.28 452.242
152 0 86.2646 12.4848 1077 88.389 1265.53 451.427
153 0 88.2041 11.394 1005 88.2716 1265.9 450.981
154 1 49.4313 12.4213 614 77.6547 1265.96 480.972
155 0 48.1153 11.4932 553 80.2911 1265.07 478.354
156 0 49.0299 9.74915 478 90.6569 1267.05 481.925
157 0 53.0661 12.0228 638 87.8824 1266.64 478.868
158 0 53.0793 10.9082 579 91.6235 1266.81 477.437
159 0 57.1457 12.6694 724 87.5041 1266.03 468.778
160 0 57.1357 13.3367 762 87.9042 1265.56 469.303
161 0 59.186 12.6719 750 88.188 1265.3 472.216
162 0 58.1991 10.4641 609 92.7323 1265.61 471.624
163 0 62.1661 13.3674 831 86.7641 1266.43 469.767
164 0 61.268 12.0454 738 91 1265.07 467.336
165 0 64.1048 11.606 744 91.2554 1265.94 469.027
166 0 67.2482 12.2829 826 89.7639 1265.66 467.714
167 0 69.1683 11.5371 798 91.1855 1266.27 467.395
168 0 70.3612 14.8377 1044 86.0536 1265.92 467.563
169 0 70.2571 12.8101 900 90.6567 1265.11 464.516
170 0 74.2661 13.2362 983 91.1333 1264.63 462.04
171 0 77.5925 13.3905 1039 90.4687 1265.34 462.828
172 0 78.4483 12.9894 1019 93.4622 1265.6 459.255
173 0 82.4296 13.0293 1074 91.5922 1265.85 459.517
174 0 84.5193 11.8553 1002 90.4162 1265.41 454.749
175 0 88.142 12.4572 1098 90.0446 1265.46 453.76
176 1 50.2594 9.57035 481 89.185 1265.36 476.815
177 0 51.2188 10.1916 522 86.9789 1265.81 478.115
178 0 52.1419 10.3564 540 87.1759 1265.15 479.433
179 0 55.3365 12.3607 684 82.9664 1266 478.329
180 0 57.1196 12.9903 742 92.4555 1266.14 469.598
181 0 56.1814 12.3706 695 96.1094 1265.79 466.987
182 0 57.1737 12.6632 724 96.2528 1266.24 468.164
183 0 60.087 13.6802 822 94.2214 1265.64 469.128
184 0 61.1278 12.4002 758 97.0528 1266.48 470.202
185 0 63.1811 13.2476 837 94.9295 1265.2 471.716
186 0 64.1559 12.4073 796 97.794 1265.11 469.487
187 0 67.1865 14.497 974 94.3306 1265.85 463.933
188 0 69.2829 12.7881 886 96.7822 1265.81 465.253
189 0 71.0797 14.3782 1022 93.4129 1266.15 466.631
190 0 71.0737 12.0438 856 99.5444 1265.76 466.48
191 0 74.1596 12.972 962 97.5364 1265.93 465.842
192 0 80.3103 14.3444 1152 93.0825 1265.47 465.737
193 0 81.2716 15.159 1232 91.9245 1266.01 466.003
194 0 83.1894 13.1868 1097 96.8496 1265.7 450.159
195 0 86.1714 13.7052 1181 96.3971 1266.03 445.936
196 0 91.2848 13.4743 1230 95.6642 1265.1 445.391
197 0 92.1961 13.9594 1287 95.2106 1265.31 443.151
198 0 94.2469 13.0508 1230 96.6496 1265.69 444.254
199 0 99.1559 13.9982 1388 94.7608 1265.08 440.631
200 0 99.2421 13.069 1297 97.185 1265.33 442.9
201 0 104.21 15.1905 1583 92.3285 1265.25 446.072
202 0 106.441 12.9086 1374 97.147 1265.32 445.552
203 1 55.0315 10.703 589 97.4907 1266.27 464.968
204 0 56.0716 10.3082 578 94.7197 1267.01 466.355
205 0 59.0376 10.7559 635 90.8205 1266.67 470.369
206 0 61.1856 11.2772 690 97.5899 1266.21 470.054
207 0 62.0942 14.0915 875 93.7189 1265.81 471.523
208 0 65.1474 14.0911 918 93.3987 1265.46 470.27
209 0 68.2467 12.3962 846 96.3558 1265.99 467.167
210 0 70.1297 14.1737 994 93.3561 1265.34 461.761
211 0 71.15 13.1412 935 96.8952 1266.19 454.518
212 0 76.1028 14.7301 1121 93.9492 1266 453.022
213 0 78.1963 13.0185 1018 97.7721 1266.36 454.389
214 0 78.1285 13.3242 1041 98.2094 1266.33 454.896
215 0 83.2427 14.3556 1195 95.3699 1266.63 446.38
216 0 86.1825 13.9239 1200 93.6408 1266.78 448.672
217 0 89.1501 13.3707 1192 93.8205 1266.43 452.204
218 0 92.3179 13.8976 1283 92.8769 1265.37 456.429
219 0 93.2332 13.6432 1272 93.8475 1266.02 457.109
220 0 99.278 14.3033 1420 90.9408 1265.63 454.951
221 0 99.3411 13.0258 1294 94.8138 1265.81 453.053
222 0 103.137 13.0409 1345 94.4848 1266.69 451.484
223 1 59.0958 12.3528 730 88.2384 1266.47 477.112
224 0 58.2003 13.2302 770 88.9416 1266.09 473.277
225 0 62.1986 12.3797 770 94.5221 1266.4 468.948
226 0 65.1259 13.5584 883 93.5719 1266.16 469.263
227 0 65.1341 12.7276 829 96.1399 1265.89 470.285
228 0 67.0557 13.1234 880 95.6523 1264.67 470.889
229 0 69.0784 13.5209 934 94.167 1264.85 470.967
230 0 72.0974 13.0102 938 95.226 1265.56 464.223
231 0 75.2269 13.1336 988 95.6296 1265.91 459.302
232 0 79.2051 13.181 1044 94.7596 1266.64 457.863
233 0 80.2901 13.7501 1104 93.9375 1266.13 461.3
234 0 82.1922 14.1863 1166 94.2727 1265.69 464.154
235 0 85.2817 13.3323 1137 96.1715 1265.68 455.393
236 0 86.2394 13.335 1150 96.6609 1265.78 449.616
237 0 87.1655 13.5375 1180 98.3797 1265.3 444.042
238 0 89.3086 12.2609 1095 100.479 1265.33 446.52
239 0 96.3564 13.3567 1287 97.5089 1266.27 447.329
240 0 99.1579 11.759 1166 98.1475 1265.69 449.001
241 0 101.257 13.5991 1377 94.0058 1265.82 453.773
242 0 107.244 13.3061 1427 95.1065 1264.26 452.811
243 1 57.0983 9.65002 551 94.9927 1265.81 479.572
244 0 60.142 11.8054 710 89.4958 1266.04 479.213
245 0 61.1625 12.3442 755 88.2331 1266.08 476.134
246 0 63.1058 12.9465 817 93.5924 1265.7 474.644
247 0 65.0837 12.0307 783 95.6373 1265.51 472.58
248 0 68.1684 11.6183 792 96.1755 1265.59 473.307
249 0 68.1007 12.5403 854 96.0726 1265.96 469.581
250 0 71.1538 13.9276 991 93.0918 1266.26 468.632
251 0 74.1096 11.2941 837 89.5699 1266.24 470.829
252 0 78.1099 13.0585 1020 92.0275 1265.4 468.787
253 0 80.0701 13.2259 1059 93.2483 1264.44 466.214
254 0 82.256 13.0203 1071 93.3912 1265.91 466.425
255 0 84.0796 12.0719 1015 94.5665 1265.89 467.209
256 0 86.2179 12.1204 1045 96.1531 1265.88 463.788
257 0 90.2401 13.6192 1229 93.6932 1265.5 461.905
258 0 91.1154 12.1823 1110 95.2081 1265.7 460.578
259 0 95.0703 13.2113 1256 91.5955 1266.15 461.768
260 0 99.0761 13.202 1308 93.4213 1265.23 456.228
261 0 102.13 12.6897 1296 94.6451 1265.94 457.623
262 0 105.127 13.1746 1385 92.9278 1266.45 454.087
263 0 108.095 12.378 1338 93.8356 1266.01 451.408
264 0 111.18 12.5112 1391 94.8821 1264.81 447.912
265 1 61.115 11.2411 687 91.7103 1266.83 474.849
266 0 65.2648 12.1658 794 94.6549 1266.14 471.581
267 0 65.0454 11.7918 767 97.4185 1265.43 468.817
268 0 69.3094 12.134 841 96.7313 1265.51 457.859
269 0 71.2125 12.9331 921 96.1726 1265.44 458.15
270 0 73.4211 12.1627 893 97.3203 1265.86 459.548
271 0 75.2504 13.2624 998 95.0541 1265.31 463.255
272 0 78.2039 14.833 1160 92.6155 1265.52 459.253
273 0 80.2934 13.2888 1067 95.8519 1264.82 458.289
274 0 81.378 13.6278 1109 95.5726 1265.69 463.926
275 0 85.2837 13.5782 1158 93.3601 1265.31 462.039
276 0 87.175 13.7425 1198 91.2579 1265.36 461.851
277 0 91.1834 14.1035 1286 88.1501 1266.39 463.558
278 0 93.1473 13.527 1260 89.3302 1265.61 460.562
279 0 96.1379 12.5757 1209 90.8098 1266 459.727
280 0 97.1794 12.5129 1216 92.7516 1266.07 456.431
281 1 50.1059 9.20052 461 95.7527 1266.82 478.269
282 0 54.0369 11.6032 627 92.5598 1265.84 479.496
283 0 55.1294 11.3188 624 98.9343 1266.59 476.753
284 0 59.0956 13.3343 788 95.4581 1266.7 472.668
285 0 59.0836 11.7461 694 100.007 1265.49 469.52
286 0 60.0701 11.8029 709 101.567 1265.91 469.539
287 0 64.0571 13.1289 841 97.5874 1265.48 473.944
288 0 65.077 13.63 887 96.8083 1265.58 474.09
289 0 68.1314 13.5033 920 98.2315 1266.03 466.649
290 0 69.0756 12.9424 894 99.7081 1265.17 464.886
291 0 72.0852 13.928 1004 97.5319 1266.04 469.923
292 0 75.0861 14.0505 1055 97.4796 1265.92 468.338
293 0 78.0564 12.4525 972 100.493 1264.74 467.666
294 0 78.0851 13.2035 1031 99.5005 1265.5 467.858
295 0 84.0848 13.415 1128 99.8023 1265.5 459.32
296 0 86.1783 12.5438 1081 100.309 1264.86 460.253
297 0 88.1299 14.1723 1249 98.5572 1264.98 458.243
298 0 90.156 12.8666 1160 101.237 1265.47 457.502
299 0 94.2572 12.5402 1182 100.184 1266.55 459.695
300 0 97.1825 13.2328 1286 98.6983 1265.58 457.092
301 0 98.1365 11.8712 1165 100.574 1265.18 454.827
302 0 102.14 12.6395 1291 98.4973 1266.08 454.629
303 1 58.1689 11.7589 684 93.2442 1265.96 475.449
304 0 59.1364 11.2283 664 100.425 1266.62 474.92
305 0 62.0404 13.3461 828 97.3998 1266.12 465.143
306 0 65.1079 13.0399 849 97.8881 1266.61 470.355
307 0 66.0866 12.8165 847 98.2739 1266.4 472.491
308 0 67.0964 13.2496 889 99.0101 1265.8 469.195
309 0 71.0445 12.6822 901 98.6459 1265.87 471.689
310 0 71.1678 12.5197 891 100.074 1266.6 470.561
311 0 74.1371 13.0704 969 99.8937 1266.67 467.957
312 0 77.2096 12.4207 959 100.696 1266.72 462.019
313 0 77.2133 11.4488 884 104.515 1266.72 460.864
314 0 82.1211 12.993 1067 99.88 1266.6 465.502
315 0 83.2213 11.884 989 97.0425 1266.24 464.108
316 0 89.2455 15.1604 1353 95.153 1266.5 458.237
317 0 91.2148 14.4275 1316 97.6185 1266.61 459.928
318 0 92.2028 12.2556 1130 102.105 1267.09 459.014
319 0 96.2927 13.5524 1305 100.449 1267.88 455.68
320 0 101.373 13.3172 1350 101 1267.45 452.093
321 1 51.1144 10.7798 551 98.4682 1267.61 477.201
322 0 54.1426 11.6729 632 101.226 1266.04 476.233
323 0 56.0618 12.504 701 99.9244 1266.42 478.422
324 0 57.0502 14.198 810 98.1716 1267.67 474.115
325 0 59.0734 12.7468 753 101.586 1267.5 473.523
326 0 60.0564 13.9702 839 98.8308 1268.15 476.184
327 0 61.0903 13.2918 812 101.645 1267.25 475.719
328 0 63.0243 12.6142 795 102.679 1268.15 476.269
329 0 63.1478 13.413 847 103.073 1267.15 472.08
330 0 68.1258 13.4457 916 101.56 1268.13 471.396
331 0 68.0873 11.7349 799 106.444 1267.71 469.814
332 0 70.0658 12.7024 890 104.07 1266.91 470.8
333 0 74.1127 13.6819 1014 102.688 1266.62 463.133
334 0 75.1924 14.2967 1075 101.68 1267.69 462.693
335 0 77.1647 13.5554 1046 103.627 1267.95 463.076
336 0 79.0573 12.8388 1015 105.872 1268.13 463.228
337 0 81.1325 14.1743 1150 103.255 1268.13 462.373
338 0 87.1832 15.8287 1380 98.3391 1267.79 460.695
339 0 85.1484 15.6903 1336 99.9873 1268.01 459.331
340 0 89.1652 13.8171 1232 104.843 1266.63 450.228
341 0 91.2159 13.4187 1224 105.892 1266.69 451.709
342 0 94.2081 14.2451 1342 104.411 1266.31 445.329
343 0 98.3733 15.1972 1495 101.315 1266.78 447.965
344 0 102.193 15.9013 1625 99.6492 1267.12 454.263
345 0 102.243 13.8494 1416 105.386 1267.19 452.286
346 0 106.291 15.2976 1626 101.795 1266.15 452.581
347 0 110.281 14.0459 1549 104.52 1266.84 448.901
348 0 114.435 13.9119 1592 104.323 1266.76 449.354
349 0 119.651 14.9268 1786 102.469 1265.87 445.082
350 0 126.354 16.7149 2112 97.0933 1265.89 440.455
351 0 128.214 15.0218 1926 98.703 1266.07 437.174
352 1 74.1748 12.6728 940 95.9755 1267.25 468.834
353 0 75.1608 13.1984 992 95.246 1267.39 470.475
354 0 77.1259 12.7584 984 98.7917 1266.76 459.677
355 0 81.2466 13.9821 1136 96.0599 1266.64 458.251
356 0 82.132 13.3444 1096 97.2354 1267.01 459.508
357 0 84.1559 13.3086 1120 95.5982 1267 464.944
358 0 93.1899 15.6562 1459 89.6648 1267.56 461.509
359 0 95.2024 16.4702 1568 88.8654 1266.77 456.217
360 0 97.1228 16.0827 1562 89.904 1266.56 457.134
361 0 99.3461 14.8572 1476 92.7852 1266.56 453.366
362 0 102.308 13.4496 1376 93.7631 1267.27 454.021
363 0 105.276 13.0039 1369 92.943 1267.14 453.901
364 0 110.308 13.3807 1476 92.853 1267.57 450.494
365 1 62.2007 12.6044 784 87.2398 1267.11 476.147
366 0 61.1237 10.7487 657 92.4094 1267.36 476.399
367 0 66.1137 13.8398 915 89.0372 1266.83 473.558
368 0 67.3651 12.4397 838 90.3998 1266.29 474.936
369 0 69.179 11.5787 801 91.3109 1267.33 472.732
370 0 72.1332 13.9603 1007 87.0149 1267.41 472.95
371 0 74.3555 12.911 960 88.7396 1267.63 471.972
372 0 77.2072 13.6775 1056 87.9754 1267.18 470.152
373 0 78.1786 13.9936 1094 88.0055 1267.43 467.135
374 0 81.1731 13.1694 1069 90.2993 1266.9 465.927
375 0 84.2043 13.4197 1130 89.2611 1267.26 467.896
376 0 87.1121 12.9948 1132 90.3145 1267.62 465.607
377 0 90.2721 14.556 1314 88.207 1267.41 462.657
378 0 90.2978 13.1897 1191 91.178 1267.14 459.005
379 0 95.3326 14.2344 1357 89.7354 1266.67 459.446
380 0 97.1436 13.7734 1338 92.364 1266.88 458.137
381 0 100.214 12.8225 1285 93.5276 1265.96 459.526
382 0 102.24 12.9597 1325 94.4725 1267.14 455.941
383 0 105.243 12.704 1337 95.7651 1266.99 454.639
384 0 111.158 14.7267 1637 92.1668 1266.87 454.065
385 0 115.235 14.6483 1688 92.8608 1266.88 450.629
386 0 117.323 12.9046 1514 97.144 1266.94 449.219
387 0 122.149 14.8015 1808 94.5841 1265.84 447.52
388 0 126.364 14.3396 1812 95.3659 1266.18 442.786
389 0 130.326 14.4024 1877 96.6596 1265.84 441.697
390 1 53.198 9.21088 490 91.202 1266.39 485.843
391 0 57.0689 11.8103 674 89.8309 1266.48 480.714
392 0 57.0741 12.6853 724 91.4102 1267.38 479.681
393 0 61.1652 11.8204 723 95.9364 1266.89 471.965
394 0 62.1263 14.551 904 92.0221 1266.86 467.636
395 0 63.1031 12.7728 806 96.2333 1266.72 466.129
396 0 67.0612 13.7486 922 92.898 1266.84 465.362
397 0 69.1483 12.8564 889 93.369 1267.1 468.994
398 0 70.1252 11.6506 817 95.4749 1266.25 472.214
399 0 75.0902 15.0885 1133 89.2807 1266.3 470.905
400 0 76.2639 13.5451 1033 91.847 1266.38 472.703
401 0 80.196 13.3548 1071 91.5948 1266.2 471.879
