time division length width area intensity CMx CMy
0 0 53.1266 14.2678 758 157.208 1015.99 489.873
1 0 55.1019 13.3208 734 149.766 1018.55 488.941
2 0 54.1272 13.0618 707 152.253 1017.98 489.164
3 0 55.0983 13.9024 766 150.084 1018.02 488
4 0 57.0748 14.2445 813 146.236 1018.23 489.155
5 0 58.0846 13.8419 804 147.726 1018.92 487.653
6 0 61.0663 14.8691 908 142.782 1018.39 486.278
7 0 61.0579 13.5773 829 146.463 1018.03 487.109
8 0 65.0753 14.5524 947 140.813 1018.42 486.111
9 0 67.0474 14.1542 949 143.086 1018.28 485.339
10 1 34.0357 12.6338 430 148.888 1018.47 498.53
11 0 36.0366 12.626 455 143.96 1018.89 500.374
12 0 37.0132 13.1305 486 144.523 1018.51 499.121
13 0 37.0732 13.6217 505 142.954 1017.93 499.402
14 0 39.1054 14.039 549 143.882 1018.44 499.384
15 0 41.0606 13.3948 550 144.738 1018.07 499.622
16 0 42.1456 14.4024 607 141.6 1017.6 498.786
17 0 43.0966 14.9432 644 139.716 1017.79 498.823
18 0 41.0577 13.6881 562 146.616 1017.89 498.347
19 0 44.0829 12.8395 566 146.687 1017.09 498.465
20 0 46.0675 14.1749 653 141.672 1017.32 497.741
21 0 46.0461 14.6809 676 142.254 1017.4 498.21
22 0 49.0387 14.0297 688 143.414 1017.2 498.561
23 0 48.0907 14.7014 707 144.05 1016.85 497.629
24 0 48.0488 14.4853 696 148.553 1016.26 497.677
25 0 52.0311 14.722 766 143.247 1016.26 496.337
26 0 55.0476 14.8962 820 141.148 1016.66 495.961
27 0 55.0666 14.3644 791 144.334 1016.5 496.301
28 0 57.0707 15.0165 857 141.879 1016.06 495.203
29 0 58.1427 13.9484 811 147.08 1016.28 493.864
30 0 62.1583 15.3318 953 141.416 1015.75 492.425
31 0 64.1268 14.5337 932 144.525 1015.38 492.79
32 0 65.1419 14.8292 966 144.197 1015.73 492.196
33 0 68.0552 15.414 1049 141.32 1015.62 490.385
34 0 68.1097 14.2124 968 145.366 1015.46 489.826
35 0 72.0599 15.1263 1090 141.397 1015.9 488.654
36 0 77.1568 15.0732 1163 139.169 1015.87 487.423
37 0 79.2231 14.9199 1182 140.814 1014.89 486.223
38 0 81.2397 15.7435 1279 138.856 1014.46 484.194
39 0 84.2061 14.7376 1241 141.804 1014.04 483.904
40 1 44.0311 12.8546 566 139.772 1015.46 504.09
41 0 44.0469 13.3494 588 137.223 1015.14 503.153
42 0 44.0328 13.6944 603 135.154 1014.96 501.871
43 0 45.0657 13.3583 602 134.734 1015.27 501.874
44 0 46.0407 14.3351 660 131.948 1015.39 501.991
45 0 49.0782 13.9573 685 132.688 1015.25 500.838
46 0 51.0125 14.6239 746 130.536 1014.72 500.229
47 0 52.0303 13.8958 723 131.087 1015.28 499.033
48 0 53.0355 13.9906 742 131.414 1015.32 499.732
49 0 55.0722 12.983 715 133.296 1014.75 499.751
50 0 57.1055 14.0967 805 130.231 1014.68 496.002
51 0 59.1117 14.2611 843 128.626 1013.98 496.618
52 0 60.1699 13.9106 837 129.521 1013.7 495.087
53 0 65.2255 14.0589 917 126.015 1014.22 493.617
54 0 66.2167 13.5464 897 128.022 1013.85 492.016
55 0 69.1062 13.6891 946 131.34 1013.96 491.47
56 0 73.3532 14.0553 1031 128.947 1013.14 489.786
57 0 73.1402 13.2759 971 131.315 1012.97 488.41
58 0 76.1647 13.6152 1037 129.627 1013.14 487.837
59 0 79.2323 14.0221 1111 128.114 1013.58 487.166
60 0 81.2261 13.1116 1065 130.838 1013.6 485.392
61 0 86.1837 14.3299 1235 125.729 1013.07 484.526
62 0 87.0797 13.0685 1138 128.004 1012.88 482.105
63 1 44.159 13.5646 599 118.534 1013.69 501.888
64 0 45.3016 12.4057 562 121.167 1014.37 501.845
65 0 47.1833 12.3985 585 121.285 1013.87 502.757
66 0 47.0549 13.4099 631 116.973 1012.85 503.2
67 0 48.0584 13.0466 627 133.002 1011.86 503.203
68 0 49.0192 12.7297 624 118.157 1012.93 502.982
69 0 51.1145 13.4404 687 115.084 1012.54 502.355
70 0 53.0658 13.2854 705 115.701 1011.99 500.705
71 0 55.1127 13.4996 744 116.077 1012.29 499.606
72 0 58.0385 13.4221 779 116.53 1012.61 498.054
73 0 60.0441 13.7066 823 116.055 1013.4 496.943
74 0 59.116 12.9237 764 119.78 1013.73 495.766
75 0 64.0879 14.2617 914 115.939 1012.95 496.09
76 0 65.1571 13.337 869 117.872 1013.21 497.533
77 0 67.0919 13.2505 889 121.204 1013.33 493.433
78 0 68.1489 13.9254 949 121.515 1013.79 493.438
79 0 69.0572 13.9884 966 123.64 1013.51 492.412
80 0 72.0419 14.3805 1036 122.756 1013.82 492.875
81 0 74.07 14.5268 1076 124.808 1013.69 487.942
82 0 78.0591 14.6812 1146 124.152 1013.89 488.566
83 0 81.1623 14.7975 1201 122.833 1013.95 487.611
84 0 82.0559 15.002 1231 123.684 1013.8 487.749
85 0 85.1481 14.4924 1234 123.85 1014.1 485.371
86 0 88.157 15.4724 1364 122.896 1013.3 484.713
87 0 91.0795 14.7783 1346 122.52 1013.66 481.796
88 0 95.1258 15.1273 1439 120.919 1013.38 482.217
89 0 98.169 15.4733 1519 120.424 1012.83 479.915
90 0 102.064 14.8436 1515 121.995 1012.98 478.732
91 1 57.0564 13.1274 749 124.595 1013.17 497.912
92 0 61.0726 13.6395 833 122.394 1012.57 498.098
93 0 63.201 14.5251 918 122.571 1012.33 496.486
94 0 65.0937 14.1642 922 118.228 1012.17 495.549
95 0 66.0641 13.6685 903 121.425 1012.3 495.491
96 0 69.108 14.0794 973 119.563 1012.03 495.169
97 0 72.0669 14.7086 1060 118.571 1012.03 492.792
98 0 74.0787 14.9031 1104 118.161 1011.79 490.98
99 0 78.0984 15.0835 1178 117.103 1012.29 489.915
100 0 78.0498 15.4517 1206 117.837 1012.2 486.942
101 0 80.0918 13.6219 1091 123.228 1011.61 486.358
102 0 84.1172 14.1707 1192 120.485 1011.97 485.678
103 0 87.07 14.9535 1302 118.869 1011.88 483.99
104 0 92.0982 14.9189 1374 119.287 1012 482.134
105 0 95.2074 15.8601 1510 117.312 1011.92 482.127
106 0 98.0936 15.5362 1524 119.022 1011.98 478.577
107 0 101.104 14.2922 1445 123.944 1011.73 478.684
108 0 105.117 16.1819 1701 119.26 1011.98 476.995
109 0 110.077 16.3704 1802 120.679 1011.82 473.156
110 0 113.158 14.9437 1691 123.608 1011.51 473.367
111 0 117.276 15.3484 1800 125.384 1011.57 469.811
112 1 58.1157 10.7544 625 124.35 1010.14 499.602
113 0 61.0937 12.8982 788 118.251 1010.39 497.529
114 0 63.1703 12.585 795 116.489 1011.83 497.858
115 0 63.0687 12.0345 759 119.515 1011.81 497.426
116 0 67.0818 14.0127 940 114.528 1011.51 496.116
117 0 68.0617 13.3114 906 117.604 1011.8 492.372
118 0 72.1096 13.5072 974 114.941 1012.26 493.616
119 0 73.044 14.3201 1046 113.013 1011.66 492.979
120 0 78.1301 13.8487 1082 114.939 1011.17 490.21
121 0 78.1023 13.0726 1021 118.536 1011.43 489.35
122 0 82.0972 15.7496 1293 112.997 1011.14 486.515
123 0 84.1258 14.0504 1182 116.964 1011.12 487.397
124 0 88.0926 13.7242 1209 119.066 1011.67 484.504
125 0 89.1092 13.534 1206 119.342 1012 483.17
126 0 93.116 13.6067 1267 119.503 1011.3 480.831
127 0 96.114 13.9002 1336 118.979 1011.52 479.135
128 0 101.227 14.3243 1450 118.016 1011.4 479.133
129 0 101.117 13.1333 1328 122.797 1011.8 472.96
130 0 105.206 13.5734 1428 122.167 1012.3 473.322
131 0 109.147 13.3398 1456 122.446 1011.21 473.133
132 0 113.161 12.9462 1465 124.907 1011.78 468.475
133 0 118.35 13.2066 1563 124.868 1010.95 465.817
134 0 119.335 12.7875 1526 129.394 1011.11 462.419
135 0 127.3 13.1186 1670 126.302 1011.25 461.387
136 0 130.532 12.7708 1667 126.897 1010.91 461.48
137 0 134.534 11.9375 1606 131.12 1011.36 454.114
138 0 139.217 12.556 1748 129.465 1011.41 455.95
139 0 144.327 13.1576 1899 130.597 1011.94 450.767
140 1 75.1296 12.0592 906 120.153 1013.32 490.117
141 0 75.1445 11.8705 892 127.185 1010.15 487.987
142 0 78.2096 12.4537 974 124.578 1010.42 489.926
143 0 78.2442 12.2693 960 126.118 1009.81 487.711
144 0 81.2309 13.2093 1073 124.196 1010.58 483.445
145 0 84.13 12.3024 1035 125.822 1010.94 484.901
146 0 89.2168 13.6073 1214 122.616 1011.33 481.832
147 0 91.2266 12.9896 1185 124.187 1010.71 480.699
148 0 95.1574 12.7368 1212 124.133 1010.96 477.467
149 0 98.3439 13.1477 1293 122.244 1011.21 477.353
150 0 101.222 13.2481 1341 123.477 1011.07 474.503
151 0 104.245 11.8855 1239 125.97 1011.14 474.084
152 0 106.224 11.2968 1200 127.228 1010.81 474.592
153 0 112.232 12.7682 1433 125.188 1011.22 469.637
154 0 115.326 12.4777 1439 126.01 1011.36 469.295
155 0 120.115 12.488 1500 125.704 1011.14 466.817
156 0 124.198 13.3738 1661 123.827 1011.22 459.607
157 0 129.261 14.2193 1838 121.911 1011 458.939
158 0 132.385 12.2975 1628 127.104 1010.52 460.409
159 0 138.274 13.4877 1865 126.181 1010.7 455.805
160 0 143.249 13.7453 1969 124.377 1011.05 454.884
161 0 147.214 13.0559 1922 126.325 1010.71 452.544
162 0 151.319 13.5343 2048 125.392 1011.36 449.456
163 0 157.484 14.8332 2336 122.996 1011.44 444.901
164 1 84.5156 12.3409 1043 117.308 1011.45 484.968
165 0 86.106 11.3233 975 111.548 1011.41 485.347
166 0 90.0905 12.6428 1139 116.584 1012.46 482.353
167 0 92.2703 12.2033 1126 117.434 1012.23 478.669
168 0 95.0843 11.7264 1115 118.222 1012.33 479.91
169 0 98.14 12.8388 1260 115.936 1012.05 475.914
170 0 101.112 12.4614 1260 115.889 1012.06 475.97
171 0 104.145 12.3962 1291 115.208 1011.77 472.933
172 0 107.233 12.4682 1337 115.877 1011.35 471.054
173 0 111.147 13.9995 1556 113.247 1010.73 470.207
174 0 113.146 13.6461 1544 112.859 1010.13 466.567
175 0 119.308 14.2404 1699 110.735 1010.37 466.505
176 0 120.245 12.7074 1528 110.662 1009.99 464.852
177 0 124.296 12.5024 1554 110.891 1009.84 461.544
178 0 129.476 12.9213 1673 110.006 1009.88 461.607
179 0 132.276 12.5722 1663 112.004 1010.1 456.61
180 0 136.453 14.2393 1943 108.755 1009.23 456.142
181 0 143.652 13.3587 1919 111.06 1009.74 451.888
182 0 147.675 13.1843 1947 111.5 1009.91 451.577
183 0 152.616 13.0654 1994 112.357 1009.63 451.481
184 1 81.2637 12.9578 1053 105.161 1010.07 486.601
185 0 82.1415 11.8332 972 101.506 1011.41 480.893
186 0 88.2507 13.201 1165 109.315 1010.28 484.664
187 0 89.252 11.7196 1046 113.665 1010.72 482.62
188 0 93.2903 13.2918 1240 110.942 1010.57 480.416
189 0 96.3888 12.7608 1230 111.759 1010.54 477.554
190 0 99.2589 13.0467 1295 111.367 1009.89 478.149
191 0 99.3464 11.4448 1137 115.588 1010.46 473.899
192 0 107.447 12.704 1365 111.63 1010.32 472.17
193 0 111.421 13.0317 1452 110.848 1010.81 471.189
194 0 114.472 14.4665 1656 107.978 1011.04 467.672
195 0 118.601 14.064 1668 108.65 1011.07 464.94
196 0 122.731 12.9551 1590 111.214 1011.24 463.807
197 0 126.649 12.3333 1562 114.034 1010.6 458.926
198 0 130.411 10.8887 1420 107.786 1011.75 462.66
199 0 134.442 12.1093 1628 107.28 1011.68 453.431
200 0 139.637 12.2245 1707 106.449 1011.51 451.323
201 0 143.655 11.1935 1608 107.881 1011 451.284
202 0 148.643 13.6031 2022 104.817 1011.14 447.386
203 0 154.716 12.2935 1902 107.4 1011.67 446.337
204 0 157.752 11.5117 1816 109.743 1011.27 444.689
205 0 162.774 11.9368 1943 112.593 1010.97 440.867
206 1 90.3151 11.5706 1045 101.918 1011.3 481.01
207 0 90.3151 11.5042 1039 132.759 1010.3 481.063
208 0 95.1555 11.4865 1093 104.312 1011.72 480.537
209 0 101.191 13.0743 1323 100.19 1011.55 476.478
210 0 102.238 12.598 1288 103.515 1011.1 473.293
211 0 106.298 12.145 1291 103.452 1011.41 472.237
212 0 108.27 12.1456 1315 103.716 1011.53 471.942
213 0 115.323 12.9896 1498 102.748 1011.18 469.744
214 0 118.387 13.4813 1596 102.571 1011.67 466.878
215 0 122.406 14.1251 1729 102.721 1011.13 465.999
216 0 125.533 13.2635 1665 106.014 1011.19 462.814
217 0 130.445 13.4233 1751 106.265 1011 462.876
218 0 133.332 13.4176 1789 107.855 1011.33 457.281
219 1 60.241 11.4374 689 105.813 1011.85 494.547
220 0 63.2507 10.5295 666 106.739 1011.42 494.303
221 0 64.1904 11.2011 719 98.6426 1010.88 493.163
222 0 67.1263 12.2605 823 97.6732 1009.89 491.993
223 0 69.1706 12.8812 891 95.3996 1010.9 491.388
224 0 70.2466 10.7763 757 101.062 1009.31 491.589
225 0 71.1726 11.7321 835 99.5329 1011.02 489.083
226 0 74.16 11.5426 856 99.6355 1011.14 488.217
227 0 76.1424 11.3472 864 101.147 1010.62 487.509
228 0 78.1718 12.4853 976 99.833 1009.89 486.501
229 0 81.2087 12.1292 985 99.3432 1009.76 486.734
230 0 84.192 12.6378 1064 99.6551 1010.36 482.712
231 1 43.0183 8.69398 374 100.294 1009.84 506.024
232 0 44.0384 10.1048 445 99.6539 1009.69 503.84
233 0 45.057 11.6075 523 96.9618 1010.38 502.996
234 0 48.0891 11.0004 529 97.6938 1011.19 503.295
235 0 48.2563 11.6047 560 98.8 1012.09 498.734
236 0 52.0924 12.0939 630 106.416 1010.1 499.806
237 0 54.0975 12.8287 694 105.522 1010.3 499.052
238 0 57.1193 11.7298 670 106.525 1010.41 499.93
239 0 56.073 11.2889 633 109.755 1010.19 498.088
240 0 57.0934 12.3832 707 107.96 1010.05 496.921
241 0 59.0875 12.0161 710 110.066 1009.63 494.531
242 0 61.0795 12.541 766 107.85 1008.75 493.394
243 0 63.1021 11.727 740 109.681 1008.59 493.739
244 0 65.0527 13.1739 857 105.225 1008.96 493.497
245 0 64.063 11.9101 763 108.91 1008.48 493.771
246 0 67.0549 12.4525 835 108.807 1008.54 491.63
247 0 70.1911 12.0671 847 108.28 1009.88 490.643
248 0 69.1318 11.8903 822 110.337 1009.89 490.432
249 0 73.2088 11.6379 852 109.668 1010.12 489.867
250 0 75.0864 11.9596 898 109.37 1009.41 486.335
251 0 78.1431 12.5411 980 107.993 1010.4 486.243
252 0 80.0946 13.4091 1074 106.359 1010.8 485.695
253 0 81.1123 12.156 986 109.812 1009.44 483.5
254 0 85.1204 11.9948 1021 109.829 1009.23 483.685
255 0 85.0928 12.3395 1050 110.279 1009.61 481.608
256 0 91.1345 12.7943 1166 107.847 1009.56 482.39
257 0 92.0585 12.6441 1164 110.14 1009.78 479.366
258 0 96.1291 13.253 1274 107.886 1009.88 479.819
259 0 97.2762 13.0556 1270 104.076 1010.18 476.061
260 0 102.163 14.2224 1453 101.477 1010.4 476.656
261 0 103.24 12.6307 1304 105.87 1010.61 476.504
262 0 106.205 13.3044 1413 105.823 1010.79 471.793
263 0 111.179 13.7706 1531 103.816 1010.51 471.901
264 0 113.167 12.6451 1431 107.185 1010.61 470.999
265 0 117.19 12.3475 1447 108.026 1010.64 466.596
266 0 123.241 15.0275 1852 101.93 1010.44 463.324
267 0 126.232 12.3107 1554 108.139 1010.87 462.703
268 1 65.0488 12.0525 784 105.827 1009.48 492.769
269 0 68.0977 13.0548 889 100.782 1010.54 492.769
270 0 69.2548 12.028 833 105.565 1010.23 490.703
271 0 71.1529 12.3115 876 104.829 1010.21 488.908
272 0 73.2466 11.7958 864 106.432 1009.59 489.895
273 0 77.1581 12.6494 976 104.863 1010.15 486.956
274 0 78.2403 11.8353 926 106.927 1010.6 488.045
275 0 82.3566 13.2594 1092 104.254 1011.18 485.571
276 0 83.1445 12.1716 1012 107.247 1010.83 485.678
277 0 85.0898 12.3282 1049 107.765 1011.04 483.141
278 0 89.1129 12.8601 1146 104.764 1011.31 483.653
279 0 95.1905 13.2471 1261 103.859 1010.95 480.746
280 0 98.1643 13.2737 1303 104.602 1010.12 478.94
281 0 100.24 13.5475 1358 105.399 1010.37 476.716
282 0 104.205 12.4467 1297 108.526 1010.1 474.102
283 1 58.132 11.5255 670 108.79 1010.54 496.539
284 0 60.1536 11.0052 662 109.391 1010.27 493.011
285 0 61.1355 11.3682 695 110.353 1010.54 493.931
286 0 63.1228 11.6757 737 110.113 1010.67 492.734
287 0 66.1582 11.6237 769 109.388 1010.57 491.091
288 0 69.1199 12.1673 841 107.541 1011.39 491.049
289 0 70.0436 12.0782 846 108.422 1012.69 489.864
290 0 74.2168 13.4336 997 104.431 1012.39 488.593
291 0 77.1512 12.6894 979 106.183 1012.26 487.431
292 0 79.0663 12.7867 1011 106.656 1012.11 486.271
293 0 81.2846 13.1267 1067 105.647 1012.09 484.122
294 0 84.4529 12.5632 1061 107.44 1011.74 482.684
295 0 83.2738 12.1767 1014 109.126 1011.49 481.377
296 0 87.3363 11.5416 1008 110.55 1011.44 479.643
297 0 92.4124 14.0024 1294 104.944 1011.56 479.148
298 0 95.5351 12.9795 1240 106.867 1011.66 478.63
299 0 97.3223 12.3713 1204 108.931 1011.35 475.755
300 0 101.427 13.3298 1352 106.291 1011.26 474.138
301 0 102.333 12.4398 1273 108.182 1010.91 473.383
302 1 53.2643 10.0443 535 104.088 1009.76 498.292
303 0 54.2564 11.077 601 101.358 1009.56 496.724
304 0 56.3124 13.0877 737 98.2402 1009.14 496.322
305 0 58.111 13.9905 813 99.4686 1012.32 495.724
306 0 59.0971 13.2663 784 101.059 1012.45 495.233
307 0 61.1726 13.9768 855 94.9298 1012.63 494.868
308 0 62.1535 12.5174 778 98.6851 1012.3 495.945
309 0 62.1444 10.717 666 102.859 1012.27 496.072
310 0 66.1174 12.2661 811 100.49 1012.35 493.469
311 0 68.1684 13.1586 897 100.065 1012.12 492.497
312 0 68.171 10.2096 696 106.869 1012.14 493.335
313 0 73.0831 12.78 934 102.518 1011.93 489.279
314 0 74.1001 12.7125 942 104.523 1011.93 489.593
315 0 75.0808 13.652 1025 103.891 1011.56 487.98
316 0 80.2621 12.5962 1011 105.15 1011.7 488.707
317 0 82.1288 13.6493 1121 104.045 1011.14 486.239
318 0 84.1305 13.1581 1107 105.641 1010.81 485.107
319 0 87.0748 13.4367 1170 105.962 1011.34 484.758
320 0 87.1898 13.1093 1143 108.382 1011.77 481.107
321 0 91.173 13.1947 1203 107.572 1011.45 481.338
322 0 93.1964 12.0605 1124 111.134 1010.59 480.173
323 0 98.2489 12.3258 1211 102.224 1010.64 478.438
324 0 101.29 12.1928 1235 103.397 1011 473.798
325 0 105.186 11.532 1213 105.109 1010.88 475.426
326 0 106.253 11.6891 1242 106.428 1010.66 469.282
327 1 55.0928 9.80164 540 100.861 1010.45 496.994
328 0 59.1333 10.4848 620 94.3306 1011.87 496.676
329 0 59.0621 11.5133 680 94.9015 1009.69 493.746
330 0 60.2079 11.261 678 96.9204 1009.73 495.785
331 0 64.2082 11.9767 769 94.8232 1010.25 494.326
332 0 66.1606 12.2127 808 95.6795 1010.08 492.267
333 0 67.2043 11.2493 756 96.5688 1010.33 492.075
334 0 70.1556 11.1324 781 96.9539 1010.91 490.255
335 0 72.1887 11.7886 851 96.9177 1010.3 489.858
336 0 74.1934 11.8339 878 96.7016 1010.93 489.903
337 0 79.1148 13.1834 1043 94.4391 1010.64 486.329
338 0 80.1877 12.9072 1035 96.1778 1010.84 485.755
339 0 83.2641 10.9411 911 107.812 1011.39 483.01
340 0 87.1467 11.7273 1022 106.664 1011.46 482.439
341 0 90.1497 12.4127 1119 104.51 1011.13 480.956
342 0 92.1527 11.7414 1082 106.873 1011.07 481.217
343 1 49.1294 10.91 536 101.39 1010.28 503.584
344 0 52.4486 12.8316 673 100.211 1011.66 496.487
345 0 50.3692 11.0782 558 105.869 1011.79 497.249
346 0 55.1047 10.961 604 102.091 1012.49 500.288
347 0 55.2025 12.3002 679 100.654 1012.88 498.557
348 0 59.1347 13.0719 773 99.0815 1012.85 496.862
349 0 60.3914 11.6076 701 102.458 1013.19 498.144
350 0 62.1859 13.3471 830 99.2566 1012.77 494.552
351 0 66.1432 12.4125 821 100.731 1012.65 494.932
352 0 68.2655 14.0188 957 98.4347 1013.2 493.68
353 0 68.3196 11.5487 789 104.267 1013.32 494.954
354 0 71.2545 12.7431 908 101.74 1012.42 492.285
355 0 72.2053 11.4396 826 104.892 1013.05 492.69
356 0 76.218 12.1887 929 104.606 1012.64 489.559
357 0 80.2966 12.7278 1022 104.202 1012.8 488.099
358 0 83.2631 13.091 1090 103.688 1012.61 488.031
359 0 85.2472 13.6661 1165 104.43 1012.76 486.488
360 0 87.2087 13.2212 1153 105.469 1012.17 485.534
361 0 91.2055 13.8807 1266 104.901 1011.85 482.11
362 0 94.1861 12.7832 1204 110.058 1011.75 481.184
363 0 97.1794 12.1734 1183 109.657 1012.04 478.892
364 0 102.26 12.126 1240 111.135 1011.46 478.869
365 1 51.0703 12.101 618 102.906 1012.42 502.646
366 0 52.0665 12.7337 663 102.412 1012.28 501.697
367 0 53.1689 12.0559 641 103.722 1010.41 500.593
368 0 57.1155 12.5535 717 102.657 1010.63 500.955
369 0 57.1152 12.4135 709 103.608 1011 499.843
370 0 56.2232 10.9741 617 107.397 1011.28 497.948
371 0 60.0927 12.747 766 104.184 1011.21 498.561
372 0 62.1149 13.2979 826 102.23 1010.77 495.838
373 0 64.2278 12.8916 828 102.428 1010.87 495.545
374 0 65.1512 11.3889 742 105.941 1010.58 496.07
375 0 69.1322 13.3512 923 102.295 1011.05 492.95
376 0 71.0754 12.5782 894 103.718 1011.22 491.6
377 0 74.13 13.9889 1037 100.949 1011.51 490.401
378 0 73.1055 12.2426 895 105.425 1011.59 489.427
379 0 78.11 13.3914 1046 102.475 1011.52 488.538
380 0 80.1512 12.4639 999 104.61 1011.75 484.857
381 0 82.1619 12.1954 1002 105.176 1011.57 485.419
382 0 87.1572 12.4144 1082 108.987 1013.41 485.885
383 0 89.0887 12.7738 1138 107.441 1013.42 481.516
384 0 92.0867 10.7616 991 110.852 1013.18 481.963
385 0 96.2201 10.9229 1051 111.24 1013.22 479.795
386 1 50.0356 10.1328 507 102.339 1013.33 501.675
387 0 53.1412 10.2933 547 99.0713 1012.66 498.956
388 0 53.098 12.75 677 105.504 1013.66 498.087
389 0 56.2534 12.5681 707 104.669 1013.73 497.417
390 0 58.2919 12.832 748 103.159 1013.09 497.338
391 0 60.1766 12.0811 727 104.325 1013.62 495.264
392 0 63.2364 12.8723 814 101.602 1013.37 496.99
393 0 66.2071 12.9291 856 106.81 1013.06 495.234
394 0 68.3073 12.9708 886 107.257 1012.94 492.123
395 0 70.3887 12.3173 867 107.97 1013.26 492.36
396 0 72.3607 11.5947 839 110.847 1013.42 492.238
397 0 73.2971 12.3334 904 109.947 1012.49 488.881
398 0 77.3433 13.1621 1018 107.689 1012.43 487.734
399 0 79.3401 12.7174 1009 109.291 1013.05 484.813
400 0 81.4065 12.1612 990 110.272 1013.31 485.598
401 0 84.3504 12.2465 1033 110.228 1013.31 485.344
