time division length width area intensity CMx CMy
0 0 36.0447 13.289 479 118.144 1108.23 484.843
1 0 38.1633 13.4947 515 114.932 1108.73 484.641
2 0 38.2135 13.2414 506 117.043 1108.02 483.666
3 0 38.1163 12.4094 473 120.596 1108.46 483.421
4 0 39.1426 13.668 535 118.413 1108.54 482.338
5 0 41.0939 12.6783 521 118.568 1108.5 483.622
6 0 41.1268 14.0055 576 116.958 1108.54 482.167
7 0 40.094 13.9672 560 118.505 1108.34 481.971
8 0 42.066 13.2173 556 118.725 1108.63 482.91
9 0 44.0803 13.1351 579 117.61 1108.57 481.784
10 0 43.0844 12.4175 535 119.944 1108.31 481.695
11 0 46.116 13.878 640 114.444 1108.56 481.462
12 0 46.1207 13.855 639 115.066 1108.07 481.264
13 0 48.126 13.1114 631 115.84 1108.01 480.534
14 0 49.0921 13.3626 656 114.404 1107.52 481.54
15 0 49.1167 14.4961 712 111.971 1108.27 480.989
16 0 52.1308 14.6938 766 109.55 1107.43 479.948
17 0 53.1454 15.2788 812 107.777 1108.14 478.839
18 0 52.1285 12.5267 653 113.815 1108.22 480.695
19 0 55.0518 13.0423 718 111.319 1107.07 478.989
20 0 55.1254 14.1495 780 109.701 1107.13 478.606
21 0 58.078 13.9468 810 107.759 1107.75 477.959
22 0 60.1094 13.3756 804 108.756 1107.22 477.708
23 0 61.079 13.9819 854 107.802 1107.06 477.403
24 0 64.2136 14.5919 937 106.347 1107.86 475.782
25 0 67.1205 14.6006 980 105.952 1107.54 474.059
26 0 68.1654 14.6409 998 106.864 1107.58 472.575
27 0 69.1449 12.481 863 111.39 1107.08 474.379
28 0 71.1996 12.9916 925 111.132 1107.18 473.465
29 0 74.1479 13.581 1007 110.441 1107.28 471.21
30 0 77.1438 13.6758 1055 108.073 1107.45 472.045
31 0 81.224 14.7001 1194 107.522 1106.69 465.821
32 0 84.1536 13.2615 1116 109.664 1106.87 468.551
33 0 87.1393 14.6776 1279 106.691 1106.88 464.83
34 0 88.1493 12.8986 1137 110.028 1106.72 467.286
35 0 93.0789 12.7419 1186 110.874 1106.33 462.968
36 1 48.0577 14.0456 675 110.887 1106.95 482.459
37 0 50.0453 13.6077 681 109.436 1107.05 483.495
38 0 54.0704 13.6859 740 108.139 1106.72 481.722
39 0 54.0814 13.831 748 108.841 1106.3 480.808
40 0 57.1437 14.8398 848 105.677 1105.79 480.423
41 0 58.021 14.2879 829 106.998 1105.91 479.268
42 0 59.0504 15.4614 913 105.652 1105.79 476.502
43 0 61.1112 13.5 825 103.795 1104.99 479.742
44 0 62.0361 14.9268 926 102.296 1105.25 478.059
45 0 66.0381 15.0822 996 101.719 1105.45 477.642
46 0 69.076 15.2007 1050 101.014 1105.13 477.26
47 0 70.0504 14.9892 1050 102.17 1105.01 476.284
48 0 71.0665 14.0854 1001 104.465 1104.46 475.745
49 0 73.078 14.5872 1066 104.333 1104.39 474.585
50 0 76.0598 13.9101 1058 104.754 1104.61 473.881
51 0 80.0576 15.1891 1216 102.056 1104.87 472.425
52 0 82.1992 13.1753 1083 76.4857 1104.11 475.188
53 0 86.2114 15.056 1298 100.792 1104.7 467.554
54 0 90.1569 15.1846 1369 101.596 1104.1 466.895
55 0 92.2087 14.0876 1299 100.507 1103.88 468.254
56 0 96.1888 14.1285 1359 100.445 1104.59 464.468
57 1 49.0984 11.1205 546 101.685 1104.53 486.8
58 0 53.0913 13.4674 715 96.6587 1104.76 486.07
59 0 54.0188 12.0884 653 100.173 1104.89 484.715
60 0 53.0801 12.2268 649 100.518 1104.66 484.188
61 0 56.0256 13.5295 758 98.595 1104.18 482.751
62 0 59.036 13.0598 771 98.5707 1104.55 482.738
63 0 63.0937 13.583 857 96.2077 1104.6 481.317
64 0 64.0846 13.0765 838 98.1336 1104.07 481.239
65 0 65.0884 13.0284 848 100.199 1103.56 478.06
66 0 69.0817 14.3598 992 97.4698 1104.28 478.819
67 0 71.061 14.6212 1039 98.0895 1104.22 475.095
68 0 74.1534 13.7822 1022 100.097 1104.44 475.066
69 0 77.2029 15.2714 1179 97.7091 1104.1 473.716
70 0 78.0789 14.6647 1145 99.8367 1103.72 473.006
71 0 81.1702 13.8967 1128 103.179 1103.56 471.848
72 0 85.185 14.2161 1211 103.415 1103.72 469.437
73 0 88.1534 13.4765 1188 105.906 1103.3 467.906
74 0 90.1815 14.5484 1312 104.664 1103.64 466.352
75 0 91.1301 13.5191 1232 106.883 1104.08 466.36
76 0 96.1736 14.0475 1351 106.017 1103.34 464.309
77 0 98.2946 13.836 1360 106.221 1104.79 459.992
78 0 101.29 13.2195 1339 106.293 1103.55 461.54
79 0 105.323 14.128 1488 105.668 1104.6 454.255
80 0 110.305 14.5959 1610 103.178 1104.19 455.602
81 1 58.1085 13.4748 783 97.7867 1102.58 484.313
82 0 58.0396 12.009 697 101.187 1102.21 484.415
83 0 61.0318 13.8453 845 96.974 1103.71 482.915
84 0 61.069 13.4274 820 100.52 1102.97 482.31
85 0 63.1176 12.4688 787 97.2389 1104.09 481.822
86 0 63.038 13.5791 856 96.5514 1103.86 478.033
87 0 66.0962 12.5575 830 96.7795 1103.85 481.187
88 0 68.0804 13.7484 936 96.2244 1103.97 479.62
89 0 74.073 12.7712 946 97.0412 1103.42 476.942
90 0 74.083 12.8909 955 98.0586 1103.47 476.279
91 0 76.1067 14.3483 1092 95.652 1103.12 476.937
92 0 79.1111 13.0323 1031 99.2124 1102.93 474.522
93 0 84.1986 15.9148 1340 92.8104 1102.72 475.493
94 0 84.2161 13.9047 1171 97.4808 1103.21 473.704
95 0 89.1475 15.6707 1397 95.0838 1103.06 469.402
96 0 90.1426 13.2568 1195 99.6201 1103.48 471.299
97 0 95.2398 13.6078 1296 98.2755 1103.81 468.869
98 0 97.1969 14.7536 1434 97.5439 1103.73 464.369
99 0 99.1114 12.6323 1252 100.87 1103.81 462.79
100 0 104.12 13.9647 1454 95.8487 1103.62 465.124
101 1 57.0931 13.189 753 92.7769 1104.3 485.081
102 0 58.2172 13.4325 782 91.2123 1104.07 484.017
103 0 59.0746 11.2908 667 93.1064 1103.83 485.637
104 0 61.1225 11.9269 729 92.8656 1103.59 482.994
105 0 59.1955 10.9806 650 96.6015 1103.66 483.465
106 0 60.2072 10.9455 659 95.7921 1103.79 484.352
107 0 65.2331 11.9265 778 94.7211 1103.33 482.503
108 0 68.0743 11.1643 760 93.7276 1103.41 484.443
109 0 69.0423 12.2534 846 95.1099 1103.04 478.014
110 0 72.1584 12.4864 901 94.7691 1102.58 478.089
111 0 73.1353 13.0443 954 95.4528 1103.24 474.244
112 0 77.0907 12.9458 998 95.7275 1102.91 474.483
113 0 78.1786 11.7551 919 98.7835 1102.5 472.852
114 0 83.1023 12.4064 1031 95.4074 1102.96 475.211
115 0 83.0937 12.6604 1052 140.981 1102.92 474.837
116 0 88.1195 11.1667 984 98.7022 1103.19 472.602
117 0 92.0481 12.5804 1158 98.1684 1102.73 465.729
118 0 96.1577 12.4171 1194 97.5636 1103.81 464.564
119 1 52.0319 12.8575 669 93.7623 1102.78 486.076
120 0 50.0718 10.1654 509 93.5481 1102.42 488.143
121 0 52.0448 12.8159 667 90.4048 1102.6 484.948
122 0 55.0946 11.7434 647 91.9335 1102.81 485.224
123 0 56.0649 12.1823 683 91.1537 1102.93 486.091
124 0 59.1656 12.3552 731 90.4897 1103.51 482.737
125 0 58.0682 11.1765 649 93.6579 1103.21 483.146
126 0 62.0592 12.5042 776 90.424 1102.8 481.843
127 0 64.1001 11.2636 722 91.885 1103.3 481.472
128 0 67.1339 12.6464 849 89.4228 1103.23 479.211
129 0 69.2073 12.6143 873 89.7079 1103.63 476.678
130 0 71.1653 11.5646 823 90.7655 1103.39 475.705
131 0 76.1764 12.4842 951 88.613 1103.36 476.957
132 0 77.0968 12.7502 983 89.4842 1103.29 472.558
133 0 80.1581 13.5981 1090 87.9266 1103.47 470.589
134 0 82.1647 13.0105 1069 89.3957 1103.41 469.274
135 0 86.1225 12.1571 1047 89.9093 1103.52 472.6
136 0 88.1184 13.1074 1155 89.955 1103.84 467.184
137 0 91.055 10.0489 915 93.2699 1103.5 471.366
138 0 93.093 11.0857 1032 93.1744 1103.25 464.487
139 0 97.1105 13.531 1314 89.3501 1104.16 461.752
140 1 52.0999 12.572 655 90.6031 1103.89 483.627
141 0 52.0999 12.572 655 119.221 1102.89 483.627
142 0 54.0595 11.5428 624 92.4103 1102.94 484.064
143 0 53.067 12.6256 670 85.4149 1103.56 483.463
144 0 58.0416 11.8363 687 85.4032 1104.33 483.843
145 0 59.0604 11.4628 677 88.3205 1103.34 481.62
146 0 61.0454 11.6471 711 88.782 1103.85 481.385
147 0 62.0634 11.7461 729 90.9547 1103.26 480.556
148 0 64.0329 11.213 718 91.4095 1103.34 480.508
149 0 66.0399 12.4773 824 90.7998 1103.62 476.243
150 0 68.0753 11.5314 785 92.907 1103.28 476.42
151 0 73.0507 12.4024 906 92.1126 1102.67 474.155
152 0 72.1436 12.7108 917 93.3642 1103.1 473.976
153 0 76.1264 12.8996 982 93.5397 1103.2 472.4
154 0 78.1338 13.1697 1029 93.8076 1103.54 470.189
155 0 80.1238 13.891 1113 93.3369 1102.36 469.279
156 0 80.1968 11.6713 936 98.3782 1102.47 467.634
157 0 87.0804 13.7 1193 94.3152 1101.96 469.608
158 0 88.226 12.7853 1128 98.4832 1102.18 463.191
159 0 92.1281 14.0565 1295 95.5081 1102.46 462.133
160 0 95.2264 13.2736 1264 97.1654 1102.12 462.125
161 0 96.2118 13.6782 1316 99.4081 1101.73 457.018
162 0 98.3651 13.6837 1346 97.3373 1102.87 457.261
163 1 51.3001 8.77191 450 92.3956 1102.42 481.171
164 0 53.4372 11.4901 614 90.3094 1102.62 475.327
165 0 56.0807 11.1982 628 90.3535 1102.14 482.487
166 0 56.0805 11.2695 632 116.441 1101.14 482.521
167 0 60.0433 11.4917 690 89.7058 1102 480.891
168 0 63.0853 11.9045 751 88.5646 1102.65 479.116
169 0 64.1031 12.2615 786 88.3397 1102.16 477.509
170 0 67.0795 10.3012 691 91.8321 1101.99 476.974
171 0 69.066 12.4519 860 89.9244 1102.35 474.671
172 0 72.2069 12.7412 920 88.9913 1101.51 473.302
173 0 74.1865 12.8325 952 88.4296 1102.02 473.057
174 0 75.0942 11.692 878 90.1446 1102.08 471.253
175 0 81.0975 13.8475 1123 86.0926 1101 468.425
176 0 84.0764 14.1181 1187 84.8981 1100.84 467.468
177 0 87.1934 14.0951 1229 84.6729 1101.73 466.527
178 0 91.0812 14.9208 1359 81.8676 1101.4 467.765
179 0 91.1673 11.9231 1087 88.1306 1101.3 466.018
180 0 94.0972 12.2639 1154 93.8882 1100.81 461.815
181 1 51.4068 12.3525 635 85.0173 1101.58 487.003
182 0 51.0891 12.0182 614 85.9495 1101.39 485.858
183 0 47.1125 11.7591 554 83.5505 1102.02 486.917
184 0 48.1313 10.4921 505 85.6495 1102.16 487.467
185 0 53.14 12.7587 678 81.4734 1102.47 487.093
186 0 53.065 11.4953 610 84.5852 1101.82 485.431
187 0 54.0713 12.8349 694 82.8314 1102.28 486.144
188 0 57.0982 12.4172 709 85.5275 1101.57 482.996
189 0 59.0871 13.5224 799 83.9362 1101.39 482.416
190 0 60.0742 11.569 695 86.9727 1100.88 482.114
191 0 62.091 11.6603 724 88.6326 1101.15 480.645
192 0 63.0594 12.401 782 89.3146 1101.86 478.816
193 0 66.0863 12.2416 809 90.8146 1101.01 477.388
194 0 70.1687 13.0828 918 89.4619 1101.11 475.127
195 0 74.2068 13.7993 1024 88.7598 1100.9 474.917
196 0 75.1767 12.6103 948 92.5222 1101.39 472.966
197 0 78.0955 12.1646 950 97.9526 1103.05 471.728
198 0 82.267 11.9367 982 98.499 1103.51 468.691
199 0 85.1387 12.3093 1048 99.0935 1102.83 468.607
200 0 86.4051 12.1984 1054 99.8027 1102.82 469.56
201 0 91.2068 12.6197 1151 99.9757 1103.02 465.612
202 1 44.1351 10.2866 454 98.826 1103.04 488.621
203 0 46.1264 10.688 493 97.2475 1101.86 487.7
204 0 46.1264 10.6663 492 125.76 1101.85 487.711
205 0 47.1499 11.2407 530 92.7792 1102.79 487.689
206 0 47.1668 11.1731 527 124.121 1101.8 487.698
207 0 52.278 12.2996 643 90.325 1102.47 487.745
208 0 52.0995 11.0366 575 93.1791 1102.79 487.235
209 0 54.063 10.9872 594 93.5219 1102.62 484.751
210 0 57.1597 13.6635 781 88.5967 1102.49 484.311
211 0 58.2346 13.0163 758 89.942 1102.83 482.491
212 0 61.1729 13.6662 836 88.549 1103.17 482.876
213 0 60.207 12.4736 751 99.0985 1102.21 479.394
214 0 64.1085 13.5551 869 95.2865 1100.45 480.782
215 0 64.1085 13.5239 867 138.25 1100.45 480.74
216 0 69.0728 13.5654 937 95.8506 1100.55 478.186
217 0 71.0951 14.1782 1008 95.251 1101.23 475.535
218 0 71.0951 14.1219 1004 139.078 1101.22 475.651
219 0 76.5572 12.4743 955 98.7937 1102.75 475.358
220 0 78.4054 14.0552 1102 97.3176 1102.96 471.473
221 0 80.2169 12.6407 1014 100.281 1102.08 472.106
222 0 80.2169 12.6532 1015 145.906 1101.07 472.152
223 0 80.2127 12.6414 1014 145.376 1100.09 472.21
224 0 80.2211 12.6401 1014 145.005 1099.09 472.21
225 0 80.2211 12.6401 1014 144.821 1098.09 472.21
226 1 49.1919 12.3598 608 90.148 1103.7 488.584
227 0 48.2225 10.97 529 93.5482 1103.24 489.361
228 0 47.1084 10.9535 516 94.5271 1103.57 489.014
229 0 51.0642 11.7107 598 92.6171 1103.39 487.955
230 0 50.2066 9.06256 455 96.0418 1103.73 490.714
231 0 53.1743 11.9983 638 92.4216 1102.99 486.964
232 0 55.0749 11.1121 612 94.0507 1103.2 485.281
233 0 56.099 11.8184 663 93.9668 1102.82 484.018
234 0 59.2696 11.8104 700 94.8243 1102.8 482.75
235 0 63.1435 11.6243 734 94.2411 1103.63 482.236
236 0 62.1827 11.8361 736 96.0149 1103.82 481.774
237 0 65.1815 11.0921 723 97.1369 1103.4 482.653
238 0 67.42 12.6817 855 95.6374 1103.41 479.615
239 0 69.1711 13.7919 954 94.7757 1103.31 479.094
240 0 71.3406 12.7978 913 98.8018 1103.22 477.153
241 0 75.1529 12.7473 958 100.053 1103.17 477.143
242 0 76.1756 13.0094 991 100.282 1102.85 474.478
243 0 79.1938 13.5869 1076 100.059 1102.81 475.418
244 0 81.1495 13.2472 1075 101.619 1102.74 473.894
245 0 81.1495 13.1979 1071 148.14 1102.74 473.898
246 1 43.1121 12.6415 545 101.172 1102.93 489.868
247 0 45.0298 10.5042 473 103.211 1103.22 490.685
248 0 45.0298 10.4375 470 150.047 1104.22 490.804
249 0 49.0688 12.8391 630 97.8936 1103.26 488.184
250 0 49.0688 12.8391 630 143.16 1101.23 488.097
251 0 49.0734 12.7972 628 142.739 1099.23 488.164
252 0 49.0734 12.7972 628 142.412 1097.23 488.164
253 0 50.2578 10.4064 523 103.078 1104.02 487.218
254 0 50.2696 10.4238 524 133.015 1109.99 487.042
255 0 55.2268 11.3351 626 99.4185 1103.41 487.225
256 0 56.0763 10.4144 584 101.741 1103.87 484.932
257 0 56.1494 11.6831 656 99.8034 1103.54 483.508
258 0 60.2611 12.8607 775 97.1148 1103.22 481.359
259 0 64.2557 12.5436 806 97.1266 1103.16 482.613
260 0 65.142 13.0638 851 96.9976 1103.53 479.213
261 0 67.083 13.9529 936 96.0459 1103.27 480.073
262 0 69.1536 12.9277 894 98.981 1102.74 479.591
263 0 71.0516 13.1735 936 98.8611 1102.32 477.449
264 0 72.1768 13.3145 961 100.452 1102.28 476.324
265 0 76.0706 13.803 1050 99.2933 1101.66 475.645
266 0 76.0706 13.895 1057 145.464 1100.67 475.607
267 0 83.0828 14.3231 1190 99.7723 1102.48 471.433
268 0 86.1985 13.0977 1129 102.148 1103.04 471.885
269 0 88.1022 13.7908 1215 101.161 1102.7 470.508
270 0 90.0953 13.7965 1243 101.815 1103.42 466.873
271 0 93.1493 13.2476 1234 103.199 1102.59 465.901
272 0 93.1493 13.1831 1228 148.989 1101.56 465.911
273 0 93.1288 13.1324 1223 148.664 1100.55 465.882
274 1 53.0409 12.1416 644 102.675 1101.91 486.78
275 0 53.0409 12.217 648 139.608 1102.91 486.698
276 0 56.0667 13.3769 750 102.285 1102.85 485.292
277 0 54.0622 12.2821 664 104.828 1102.94 486.009
278 0 54.0622 12.3006 665 143.269 1101.93 486.078
279 0 54.062 12.3562 668 142.506 1100.93 486.124
280 0 59.0983 13.2153 781 103.818 1102.76 480.656
281 0 61.1626 12.4096 759 105.203 1102.96 481.709
282 0 62.1934 12.9596 806 104.464 1102.77 480.805
283 0 65.2378 13.0752 853 104.535 1102.5 476.484
284 0 66.2057 12.8539 851 105.128 1102.98 477.59
285 0 69.1373 12.7717 883 105.57 1102.92 477.225
286 0 73.1993 13.8116 1011 104.127 1102.63 474.777
287 0 75.1853 13.2207 994 106.511 1102.68 471.814
288 0 76.1061 13.4155 1021 107.154 1102.9 472.489
289 0 82.267 16.1061 1325 99.8166 1102.61 470.044
290 0 82.2294 13.2799 1092 105.886 1102.64 470.031
291 0 86.2855 13.7219 1184 105.345 1103.66 467.076
292 0 86.3114 13.6367 1177 138.821 1104.66 467.101
293 0 92.2601 13.657 1260 106.021 1103.35 465.291
294 0 96.2312 13.9248 1340 108.166 1103.29 464.307
295 1 52.0495 13.5256 704 97.4929 1102.87 487.497
296 0 53.0834 12.9231 686 99.4956 1102.09 484.845
297 0 55.0264 12.176 670 98.5821 1103.73 485.769
298 0 57.0552 14.5824 832 95.3161 1103.67 484.889
299 0 57.0181 13.3817 763 98.4744 1103.45 484.442
300 0 60.0761 12.1512 730 101.581 1102.88 483.895
301 0 60.0761 12.0847 726 146.273 1101.86 483.865
302 0 64.1564 13.5138 867 99.0842 1102.43 480.369
303 0 66.1504 12.9705 858 100.404 1102.16 481.21
304 0 69.0933 12.4904 863 100.628 1102.16 479.492
305 0 71.1404 13.3117 947 99.83 1102.68 477.929
306 0 75.0751 13.9993 1051 98.8706 1103.57 475.51
307 0 75.0794 14.0252 1053 144.096 1104.56 475.399
308 0 75.0913 14.0629 1056 143.506 1105.57 475.254
309 0 83.1239 15.0258 1249 98.245 1102.62 471.773
310 0 83.1162 14.9911 1246 140.83 1100.65 471.88
311 0 86.1572 13.7191 1182 101.395 1101.61 466.7
312 0 90.2684 13.1386 1186 101.25 1102.18 468.647
313 0 95.1341 13.3811 1273 100.203 1102.42 466.581
314 1 48.0303 12.388 595 98.2101 1102.75 485.776
315 0 52.0829 12.1921 635 98.8803 1102.03 486.408
316 0 52.0419 12.5284 652 97.4432 1101.93 487.586
317 0 52.0386 12.4523 648 137.344 1100.94 487.722
318 0 55.0829 12.7263 701 98.3067 1102.15 485.695
319 0 58.1102 14.1111 820 96.2171 1102.17 483.756
320 0 59.0381 12.4326 734 99.9932 1102.16 482.477
321 0 60.1195 12.7413 766 100.568 1102.24 481.106
322 0 60.1195 12.7579 767 143.801 1102.23 481.151
323 0 65.0634 14.0017 911 99.18 1101.76 480.689
324 0 67.1472 13.046 876 103.029 1101.41 476.87
325 0 69.0646 12.2349 845 104.907 1101.88 477.06
326 0 71.2588 12.0266 857 104.378 1102.08 477.61
327 0 75.1302 13.6962 1029 102.37 1101.73 474.743
328 0 75.1302 13.7362 1032 144.952 1101.73 474.761
329 0 80.1699 12.6357 1013 103.861 1102.16 473.249
330 0 84.0734 13.6904 1151 102.705 1102.39 470.403
331 0 86.0654 13.6292 1173 102.765 1102.35 468.747
332 0 87.1423 12.9329 1127 104.76 1102.72 466.679
333 0 92.1807 12.9528 1194 104.812 1102.71 467.028
334 0 95.2505 13.3333 1270 101.614 1103.1 466.817
335 1 51.092 11.3716 581 99.8176 1102.97 487.499
336 0 53.088 13.2798 705 96.9702 1103.02 485.028
337 0 53.0344 11.8037 626 98.7588 1103.54 486.441
338 0 55.0714 13.5279 745 96.3919 1103.74 483.835
339 0 56.0477 12.5429 703 98.0669 1103.26 482.957
340 0 58.0619 11.5911 673 99.997 1102.81 482.288
341 0 61.0486 11.6137 709 100.25 1102.89 481.357
342 0 63.0861 12.0946 763 100.459 1102.72 481.528
343 0 66.0302 13.1909 871 98.4627 1103.53 479.033
344 0 68.1491 12.3699 843 100.361 1103.5 478.652
345 0 69.1553 12.4358 860 100.953 1103.46 478.344
346 0 71.0481 13.0194 925 98.6886 1103.41 477.884
347 0 73.1507 12.7682 934 101.16 1102.81 475.786
348 0 76.1248 13.0444 993 101.011 1102.8 473.817
349 0 80.1129 11.9956 961 103.442 1103.35 473.062
350 0 83.2045 13.9055 1157 99.5022 1103.3 470.549
351 0 86.1544 13.4062 1155 99.7429 1104.11 469.163
352 0 90.1823 11.9757 1080 103.14 1104.05 469.492
353 0 93.1474 12.8506 1197 105.746 1104.04 466.128
354 1 49.0702 11.0658 543 100.75 1104.25 489.772
355 0 51.0886 13.7604 703 95.5761 1103.88 486.178
356 0 48.1884 10.957 528 95.9564 1102.03 491.646
357 0 50.0625 10.7665 539 97.5084 1102.06 489.224
358 0 51.0853 12.2149 624 95.5673 1101.73 486.309
359 0 53.2578 13.3502 711 92.834 1102.4 486.091
360 0 54.161 11.7981 639 95.2895 1102.08 484.756
361 0 56.0819 12.7135 713 93.2314 1102.74 484.332
362 0 58.0476 12.2658 712 92.4129 1103.29 484.802
363 0 60.0925 11.9316 717 92.1548 1103.63 483.43
364 0 62.0675 12.2447 760 92.9895 1102.79 481.296
365 0 63.1635 12.2697 775 93.551 1103.06 479.07
366 0 65.1103 13.6384 888 92.08 1103.05 478.475
367 0 68.2321 12.9265 882 92.0782 1103.23 479.263
368 0 67.0769 11.867 796 97.6307 1102.59 479.29
369 0 71.1105 13.247 942 94.5382 1102.73 476.608
370 0 74.1116 13.7495 1019 94.0932 1102.73 475.01
371 0 78.0989 14.0719 1099 92.5478 1102.47 474.834
372 0 78.1557 13.0381 1019 95.5525 1102.61 472.17
373 0 80.1455 13.6502 1094 93.819 1103.16 470.586
374 0 84.1455 12.2407 1030 95.3864 1102.97 469.794
375 0 88.2397 14.0186 1237 92.8294 1102.79 466.656
376 0 90.3359 13.3391 1205 96.9826 1103.13 464.597
377 0 92.1002 12.4864 1150 98.7478 1102.17 465.328
378 1 48.0811 9.71275 467 90.9657 1102.38 485.537
379 0 51.0406 12.4803 637 92.5997 1102.7 487.678
380 0 50.2183 11.9478 600 90.5283 1102.83 489.363
381 0 52.1811 11.8625 619 89.9063 1102.12 488.242
382 0 51.1589 11.1222 569 92.8418 1102.14 486.402
383 0 55.224 11.6978 646 91.565 1102.65 485.139
384 0 57.2113 11.7984 675 91.48 1102.73 484.711
385 0 57.1976 11.2243 642 92.8069 1102.17 484.045
386 0 61.1397 11.4165 698 92.4699 1102.7 481.12
387 0 64.101 13.7127 879 88.9841 1102.2 481.086
388 0 65.1601 12.6611 825 92.1042 1102.94 479.463
389 0 67.1198 12.8278 861 91.9733 1102.47 475.516
390 0 70.1424 13.886 974 90.8316 1102.81 476.971
391 0 73.2143 13.2078 967 92.2296 1102.65 475.148
392 0 76.1881 13.9129 1060 91.0689 1102.62 474.849
393 0 79.2279 13.518 1071 91.5808 1102.75 474.258
394 0 82.4011 13.143 1083 91.8984 1102.41 473.841
395 0 82.2395 12.9257 1063 93.8589 1102.83 469.919
396 0 84.2173 12.3371 1039 95.0241 1102.72 470.009
397 0 88.2586 13.5624 1197 92.452 1102.66 469.6
398 0 89.3489 12.1434 1085 95.6276 1102.35 466.632
399 0 93.3284 11.3042 1055 95.9289 1102.85 467.126
400 0 95.2499 12.231 1165 94.5356 1103.26 459.745
401 1 48.3464 11.7486 568 86.118 1103.53 477.831
402 0 52.2612 12.8011 669 89.8879 1102.77 485.097
