time division length width area intensity CMx CMy
0 0 109.208 12.4899 1364 119.782 730.949 441.556
1 0 113.108 12.0593 1364 120.001 731.012 438.922
2 1 63.452 10.1652 645 118.913 730.333 459.278
3 0 65.1541 10.2526 668 116.484 729.391 458.981
4 0 67.2662 11.0903 746 113.102 730.369 461.235
5 0 71.3132 11.2882 805 112.817 729.896 458.625
6 0 73.1714 12.8602 941 108.962 730.383 457.728
7 0 76.1464 12.5679 957 108.386 731.202 455.092
8 0 76.1614 11.6463 887 111.944 731.83 454.92
9 0 80.1057 12.134 972 109.675 732.426 455.196
10 0 81.138 12.0166 975 111.984 730.42 452.103
11 0 86.1608 11.7223 1010 114.112 730.826 449.859
12 0 88.1696 12.0336 1061 113.626 732.456 450.47
13 0 92.1654 11.2298 1035 122.71 733.094 447.168
14 0 95.2552 12.8917 1228 118.242 732.856 445.95
15 0 96.1975 12.7238 1224 120.462 732.905 445.273
16 0 101.212 13.0716 1323 119.717 732.166 441.797
17 0 103.201 13.2266 1365 120.829 732.804 438.978
18 0 107.198 13.7783 1477 117.265 732.063 440.263
19 0 109.091 12.21 1332 121.951 732.173 435.646
20 0 113.046 12.9152 1460 115.781 732.275 434.431
21 0 116.184 11.8433 1376 119.431 732.352 433.007
22 1 66.0884 10.9096 721 113.334 732.749 460.176
23 0 66.1777 10.8798 720 116.832 732.038 460.193
24 0 70.1557 12.2727 861 112.242 731.974 457.761
25 0 72.1177 12.3132 888 109.663 733.274 457.266
26 0 74.1693 12.9164 958 109.647 733.351 455.566
27 0 77.0827 12.6228 973 111.068 732.735 453.635
28 0 78.2097 12.0829 945 113.179 733.684 453.606
29 0 80.1568 13.2241 1060 112.54 733.646 450.565
30 0 83.3177 12.0623 1005 115.741 733.11 451.93
31 0 86.1944 12.8895 1111 115.032 733.337 448.585
32 0 85.3163 11.8735 1013 118.869 732.766 447.089
33 0 88.2771 12.744 1125 117.761 732.867 442.465
34 0 90.1995 11.6187 1048 120.737 732.906 445.575
35 0 94.2829 13.2792 1252 117.466 733.328 441.272
36 0 97.3739 12.3955 1207 119.577 732.124 442.319
37 0 101.204 14.0114 1418 115.28 732.54 441.743
38 0 104.281 13.8088 1440 117.58 731.804 439.186
39 0 107.208 12.9841 1392 119.829 731.548 438.654
40 0 109.172 12.8329 1401 120.54 731.31 435.69
41 0 112.205 12.6465 1419 120.996 731.997 436.586
42 0 115.12 13.5858 1564 119.756 732.044 430.803
43 0 123.243 14.8974 1836 115.606 731.833 429.6
44 0 127.459 14.946 1905 115.217 732.086 428.407
45 0 129.221 12.6837 1639 123.553 731.925 426.367
46 0 133.192 11.1944 1491 129.182 731.773 426.362
47 1 75.1159 11.2493 845 116.569 731.169 454.445
48 0 77.235 12.1318 937 116.53 732.367 448.802
49 0 80.3343 12.2862 987 119.257 732.477 445.602
50 0 84.25 13.3769 1127 114.821 732.725 445.82
51 0 84.4428 12.6002 1064 118.384 731.934 446.188
52 0 87.0684 11.5197 1003 120.592 731.114 447.179
53 0 91.1557 13.1423 1198 116.364 731.453 446.667
54 0 93.0879 12.7084 1183 119.669 731.497 445.916
55 0 95.1621 12.8413 1222 120.775 731.002 444.186
56 0 99.2202 11.3989 1131 127.128 731.897 440.296
57 0 101.067 11.5468 1167 127.026 731.546 441.3
58 0 105.167 11.7527 1236 126.71 731.557 439.729
59 0 107.196 10.9892 1178 129.547 730.569 436.921
60 0 112.223 12.9207 1450 124.97 731.428 433.626
61 0 116.233 12.0964 1406 126.78 730.779 434.056
62 0 118.234 11.6379 1376 130.579 732.066 429.318
63 0 124.406 11.776 1465 129.119 731.535 426.763
64 0 129.38 11.2537 1456 130.18 732.086 425.848
65 1 72.2737 11.7193 847 114.135 732.621 455.665
66 0 73.1448 11.1149 813 115.023 732.002 456.567
67 0 74.0464 10.8175 801 114.994 731.677 456.072
68 0 79.0522 9.6898 766 117.381 731.102 452.698
69 0 81.049 10.6726 865 116.194 731.296 450.364
70 0 83.1745 11.518 958 113.146 731.968 451.798
71 0 84.0789 11.1205 935 115.78 731.657 447.019
72 0 89.1222 12.9822 1157 112.232 731.102 445.296
73 0 91.1201 11.4025 1039 113.577 731.102 437.295
74 0 94.2452 12.6372 1191 110.467 730.54 435.953
75 0 96.2592 12.0508 1160 111.697 731.178 435.596
76 0 100.149 12.4015 1242 111.213 731.398 436.711
77 0 102.202 11.0858 1133 114.361 731.859 434.731
78 0 103.23 12.9129 1333 109.526 731.743 434.411
79 0 108.145 11.6972 1265 110.991 731.562 433.497
80 0 110.153 12.6551 1394 109.933 731.618 429.475
81 0 102.123 10.928 1116 119.469 732.253 422.881
82 1 116.056 11.2704 1308 116.353 732.356 431.252
83 0 122.389 12.2805 1503 116.487 732.238 430.828
84 0 126.245 12.0005 1515 118.253 732.369 426.268
85 1 71.161 12.6333 899 107.954 733.002 454.555
86 0 70.4383 10.7612 758 122.484 733.697 455.563
87 0 74.143 12.8401 952 116.987 734.25 454.617
88 0 75.2326 12.1623 915 120.27 733.37 454.636
89 0 77.1472 11.0049 849 123.636 732.81 452.804
90 0 79.1553 12.4565 986 122.191 732.551 449.973
91 0 83.2169 11.7044 974 123.199 732.822 450.661
92 0 86.3065 12.0848 1043 123.264 733.508 449.396
93 0 90.3431 15.3304 1385 113.491 732.827 445.869
94 0 92.3436 13.6555 1261 118.944 731.451 448.393
95 0 93.1846 13.3606 1245 121.101 732.394 445.874
96 0 95.2416 12.8515 1224 123.846 732.498 444.869
97 0 97.2175 13.6395 1326 124.167 731.762 441.152
98 0 98.2517 12.295 1208 128.392 731.088 434.469
99 0 101.227 12.1411 1229 132.256 731.273 416.928
100 0 105.401 12.1536 1281 116.833 731.597 417.366
101 0 110.242 14.3412 1581 111.833 731.178 415.692
102 0 112.255 14.0395 1576 112.98 730.675 412.806
103 0 117.472 15.2888 1796 82.1837 730.957 415.048
104 0 117.298 13.7258 1610 113.794 731.314 420.93
105 0 120.299 12.1031 1456 116.853 731.445 417.887
106 0 124.253 13.4966 1677 115.726 731.061 413.704
107 1 72.1691 12.7201 918 110.138 731.524 449.532
108 0 73.1866 12.5843 921 110.529 731.08 450.998
109 0 75.2578 13.2744 999 109.787 731.504 453.422
110 0 78.1027 11.9074 930 112.984 731.528 453.898
111 0 79.2413 12.9099 1023 110.667 732.458 454.275
112 0 81.2258 12.9146 1049 111.527 731.811 451.239
113 0 84.3382 12.1297 1023 113.063 731.99 450.294
114 0 89.1834 13.8815 1238 109.395 731.267 448.777
115 0 90.1889 13.0615 1178 112.979 731.69 446.751
116 0 89.204 11.4905 1025 118.031 731.504 445.24
117 0 94.23 12.6181 1189 114.854 731.309 445.288
118 0 96.1891 12.8809 1239 114.831 731.54 443.822
119 0 100.23 13.5289 1356 113.251 731.903 440.953
120 0 102.231 13.2934 1359 114.613 731.78 439.415
121 0 105.233 12.7242 1339 115.518 731.475 439.803
122 0 108.425 13.4655 1460 114.523 731.842 437.797
123 0 111.202 13.1653 1464 114.536 732.071 436.131
124 0 114.288 12.9935 1485 114.582 730.741 431.7
125 0 118.267 13.3512 1579 114.198 730.222 431.22
126 0 123.102 14.3377 1765 111.059 730.422 427.057
127 0 127.259 12.6277 1607 114.09 730.933 427.424
128 1 78.1811 11.1792 874 100.856 731.256 457.587
129 0 80.1088 11.2971 905 103.882 731.759 452.306
130 0 80.105 10.5237 843 104.1 730.393 449.042
131 0 84.0868 11.6308 978 101.79 731.244 450.71
132 0 86.0913 11.5924 998 101.952 730.262 445.732
133 0 89.1036 12.1544 1083 100.746 730.271 444.123
134 0 92.2437 12.055 1112 101.345 730.46 446.01
135 0 96.1285 12.7434 1225 99.9722 730.286 443.327
136 0 98.1301 10.9039 1070 103.319 731.658 436.067
137 0 102.273 10.7359 1098 103.515 730.618 439.926
138 0 104.069 10.2432 1066 103.684 730.779 443.815
139 0 107.227 10.5197 1128 107.268 731.526 436.839
140 0 114.21 14.8585 1697 99.541 730.53 435.005
141 0 115.174 11.0702 1275 107.528 731.351 434.449
142 0 121.2 11.9059 1443 105.628 730.991 430.597
143 1 65.1239 10.2267 666 101.548 732.671 460.836
144 0 68.1827 11.5719 789 101.527 732.295 456.683
145 0 70.1718 11.1298 781 108.286 732.268 454.736
146 0 77.1927 11.7757 909 105.564 732.153 454.231
147 0 78.1923 12.6739 991 104.465 731.955 452.416
148 0 80.2809 12.9421 1039 104.807 731.194 450.754
149 0 81.2901 12.8921 1048 105.469 731.298 450.017
150 0 85.231 13.8682 1182 104.332 730.894 446.414
151 0 88.2545 13.1211 1158 106 731.713 448.737
152 0 90.1984 12.8938 1163 108.188 731.562 445.436
153 0 90.2055 12.1722 1098 111.39 731.415 444.82
154 0 96.1897 13.1927 1269 109.236 731.928 439.891
155 0 98.162 13.1823 1294 109.248 731.485 441.773
156 0 100.239 13.3083 1334 110.628 730.885 439.693
157 0 106.322 13.2146 1405 110.978 730.818 439.075
158 0 108.201 13.1792 1426 113.121 731.256 434.692
159 0 110.168 12.8258 1413 113.022 731.301 432.655
160 0 113.336 13.7202 1555 111.161 730.828 432.421
161 0 116.27 12.4882 1452 113.152 731.285 426.187
162 0 119.207 12.7174 1516 116.025 731.11 429.648
163 1 65.1553 11.7412 765 109.561 731.301 455.274
164 0 62.3334 11.5989 723 110.451 729.979 452.402
165 0 64.2184 12.0682 775 113.604 728.858 450.528
166 0 67.2091 11.2931 759 115.572 729.415 447.744
167 0 71.1494 11.778 838 114.757 728.656 445.957
168 0 73.0371 11.8022 862 116.39 729.414 448.854
169 0 75.1023 11.6508 875 117.359 729.209 448.314
170 0 75.0432 11.0337 828 120.342 729.681 444.957
171 0 81.0367 12.081 979 116.408 729.226 446.152
172 0 82.1493 12.8303 1054 116.709 730.07 443.644
173 0 87.3056 13.4814 1177 115.408 729.568 444.759
174 0 86.1057 13.646 1175 117.383 728.883 444.446
175 0 91.1599 12.5823 1147 119.456 729.308 443.675
176 0 95.219 13.9048 1324 116.741 729.61 439.875
177 0 96.1356 12.5032 1202 121.229 729.495 440.318
178 0 97.0907 12.7922 1242 118.076 730.195 438.116
179 0 98.1992 13.0347 1280 118.449 729.779 438.372
180 0 104.285 11.8713 1238 119.762 730.13 437.456
181 0 106.169 13.6103 1445 116.081 730.219 433.383
182 0 109.154 12.9633 1415 118.456 730.367 430.101
183 0 112.191 12.5946 1413 117.774 730.458 431.416
184 0 117.39 13.0505 1532 117.728 730.709 427.535
185 0 119.196 11.9635 1426 120.462 730.866 423.576
186 0 125.479 13.2133 1658 115.229 730.785 421.603
187 0 129.357 12.0442 1558 118.155 730.302 416.93
188 0 136.329 13.1961 1799 115.105 730.641 416.363
189 0 139.422 13.3193 1857 117.707 729.948 411.161
190 1 74.1403 11.2894 837 112.751 730.534 443.654
191 0 77.1517 11.8598 915 111.292 729.913 441.423
192 0 79.1254 11.3238 896 110.891 730.075 443.031
193 0 82.1098 11.6795 959 109.544 729.927 439.357
194 0 84.1601 11.7633 990 109.545 729.576 437.804
195 0 87.126 13.3944 1167 105.84 729.647 437.915
196 0 90.1166 12.6614 1141 106.699 730.104 437.521
197 0 90.2347 11.1598 1007 110.899 729.23 438.086
198 0 93.2137 12.6376 1178 108.505 730.446 432.682
199 0 100.144 15.7374 1576 99.6003 730.61 429.266
200 0 101.308 12.23 1239 109.977 730.432 430.261
201 0 100.111 12.8957 1291 106.285 731.252 428.841
202 0 104.208 12.9164 1346 106.848 730.457 428.777
203 0 103.219 11.9067 1229 111.308 731.035 424.4
204 0 111.301 12.2192 1360 109.804 730.49 423.929
205 0 117.342 12.5446 1472 108.408 730.417 424.078
206 1 64.08 10.0655 645 110.597 729.874 449.879
207 0 67.1288 12.0366 808 108.728 728.587 448.157
208 0 72.094 12.5392 904 107.563 729.823 443.316
209 0 74.1112 12.2384 907 109.797 729.137 442.316
210 0 77.1222 12.6682 977 107.484 730.463 445.623
211 0 79.1099 12.9693 1026 107.459 729.758 445.643
212 0 77.125 10.9173 842 116.235 729.264 441.842
213 0 82.0525 13.2111 1084 109.363 728.994 441.941
214 0 85.0896 13.0568 1111 110.063 729.22 439.671
215 0 88.1264 12.9246 1139 111.283 730.485 436.827
216 0 89.0779 11.9334 1063 114.739 730.737 437.02
217 0 91.058 11.8386 1078 115.724 730.839 435.991
218 0 94.0982 12.9864 1222 113.791 730.004 434.593
219 0 98.1937 11.9152 1170 116.664 730.109 431.559
220 0 104.144 11.9834 1248 115.675 730.132 432.579
221 0 103.111 13.3836 1380 113.072 730.1 430.501
222 0 108.117 12.6252 1365 110.519 730.472 434.826
223 0 116.22 14.6446 1702 102.29 730.626 423.247
224 0 113.456 11.8636 1346 113.806 730.042 427.064
225 0 118.3 12.0625 1427 112.46 729.725 426.426
226 0 118.322 11.8152 1398 114.057 729.675 422.732
227 1 65.2574 11.7534 767 108.012 730.404 451.486
228 0 67.1279 10.8301 727 110.989 731.231 448.718
229 0 68.1969 10.6456 726 111.292 731.532 448.153
230 0 71.1871 11.7297 835 108.875 731.61 445.477
231 0 75.1776 12.1313 912 107.003 730.929 446.88
232 0 74.1259 12.4518 923 108.426 731.055 441.054
233 0 79.0778 11.3685 899 109.034 732.086 445.952
234 0 79.1052 12.3759 979 107.888 731.773 443.317
235 0 81.121 12.9313 1049 106.158 731.427 442.606
236 0 85.2298 11.557 985 109.696 730.791 438.728
237 0 88.2921 11.6205 1026 109.479 731.029 437.776
238 0 93.1789 11.8589 1105 107.327 731.054 440.34
239 0 93.1321 10.8985 1015 110.672 731.223 437.817
240 0 99.3565 13.2452 1316 105.597 730.921 418.236
241 0 101.497 12.8378 1303 106.565 730.683 419.496
242 0 103.204 12.0926 1248 108.329 731.488 419.724
243 0 107.236 11.526 1236 109.805 731.793 416.006
244 0 109.208 12.8745 1406 107.014 731.1 419.008
245 0 114.372 11.3314 1296 109.443 731.383 421.013
246 0 116.157 12.4745 1449 107.896 730.743 421.206
247 0 120.386 12.6593 1524 107.298 731.538 424.472
248 0 123.358 12.1435 1498 110.262 731.608 420.995
249 0 127.337 11.8661 1511 111.238 731.054 420.537
250 0 131.491 13.5903 1787 108.059 730.516 419.809
251 0 138.276 12.9886 1796 109.334 730.713 423.479
252 0 143.447 12.597 1807 111.332 730.801 419.397
253 1 80.2028 11.4585 919 107.889 731.502 446.996
254 0 85.4263 12.2562 1047 106.202 730.823 447.37
255 0 94.4452 15.4481 1459 95.5188 731.382 439.683
256 0 92.4389 14.0633 1300 102.168 730.503 442.973
257 0 94.3738 13.3935 1264 105.322 729.721 441.39
258 0 96.3742 13.0325 1256 107.387 730.649 441.086
259 0 98.2799 12.4746 1226 109.223 730.83 439.803
260 0 101.401 13.3431 1353 108.426 730.385 437.728
261 0 110.452 18.2704 2018 95.3414 730.618 430.131
262 0 112.277 17.2876 1941 97.9763 730.189 427.26
263 0 112.402 16.3253 1835 102.125 730.537 430.118
264 0 114.343 13.1009 1498 109.86 730.643 433.995
265 0 115.264 13.0136 1500 112.063 729.549 430.483
266 0 119.372 13.1019 1564 111.473 730.868 428.633
267 0 122.398 13.0149 1593 111.97 730.529 427.768
268 0 126.45 13.6892 1731 110.704 729.787 426.705
269 0 128.553 13.512 1737 111.785 730.587 421.998
270 0 135.302 13.7544 1861 110.045 730.054 422.997
271 0 136.201 12.3714 1685 114.146 729.612 422.804
272 0 141.297 13.5176 1910 112.737 730.418 419.015
273 0 145.29 13.6554 1984 113.559 730.834 419.753
274 0 150.562 13.3234 2006 114.513 730.792 417.757
275 0 156.288 13.987 2186 113.944 731.167 410.504
276 0 163.346 13.7622 2248 114.896 730.676 410.327
277 1 90.3016 11.5723 1045 110.859 731.998 445.449
278 0 93.1364 12.122 1129 110.123 731.673 444.632
279 0 96.2398 13.4767 1297 108.504 731.452 439.538
280 0 101.169 14.9156 1509 104.861 731.63 440.14
281 0 99.2678 12.0986 1201 115.125 731.903 438.455
282 0 106.264 14.0499 1493 109.887 732.182 437.63
283 0 108.237 13.1101 1419 112.806 731.782 437.148
284 0 110.2 13.3121 1467 112.969 732.699 434.28
285 0 115.231 16.2804 1876 105.545 731.799 429.511
286 0 116.269 13.6579 1588 112.837 731.674 433.289
287 0 116.286 13.3636 1554 114.95 732.147 430.988
288 0 125.142 16.6371 2082 104.598 732.03 425.545
289 0 126.314 14.1632 1789 112.255 731.653 426.556
290 0 131.2 13.4375 1763 113.936 731.457 426.213
291 0 132.232 13.3931 1771 115.316 731.49 421.656
292 0 139.439 13.8197 1927 113.298 731.34 421.012
293 0 141.192 14.1581 1999 113.241 731.507 416.542
294 0 144.248 13.1648 1899 116.767 730.879 414.748
295 0 149.274 12.9762 1937 116.743 730.934 412.912
296 0 154.317 13.7185 2117 115 731.4 411.655
297 0 158.335 13.484 2135 116.43 730.819 409.623
298 0 161.38 11.8664 1915 120 731.134 408.207
299 1 99.1859 9.70904 963 113.189 731.319 441.701
300 0 105.195 11.7211 1233 110.44 731.95 438.089
301 1 15.0616 6.24105 94 86.883 730.681 484.426
302 0 14.0162 3.28193 46 90.6739 731.717 485.196
303 0 13.0008 6.53807 85 87.7412 731.341 484.353
304 0 11.0015 4.09035 45 90.4 731.667 484.356
305 0 14.0354 6.83987 96 84.5208 731.76 483.635
306 0 14.0126 3.9964 56 91.7857 731.589 484.571
307 0 15.0222 6.12428 92 87.2065 731.435 483.533
308 0 9.00095 3.88848 35 88.6571 731 485.229
309 0 13.0037 5.76761 75 84.9333 732.213 485.307
310 0 13.002 5.9991 78 85.4744 731.846 484.013
311 0 14.0179 2.49681 35 90.5429 731.857 483.857
312 0 16.011 6.37062 102 86.0588 733.441 483.324
313 0 16.1023 4.90612 79 89.557 733.392 482.089
314 0 13.0082 2.1525 28 91.2143 733 485.393
315 0 12.0236 3.49312 42 89.4762 734.381 484.381
316 0 12.0058 5.74723 69 84.0435 733.377 485.826
317 0 12.0265 5.07213 61 85.8688 732.656 485.656
318 0 13.0072 3.84404 50 90.12 732.02 484.64
319 0 11.0095 5.35902 59 91.1695 732.627 482.881
320 0 15.006 5.3312 80 90.675 732.65 482.225
321 0 11.0114 4.63156 51 92.9412 733.529 482.431
322 1 106.218 10.3467 1099 109.598 732.949 435.873
323 0 112.217 10.6936 1200 109.754 732.964 433.042
324 0 114.173 11.141 1272 108.671 732.868 434.215
325 0 116.255 11.1221 1293 109.501 732.243 432.507
326 0 116.173 9.65798 1122 116.165 732.132 425.814
327 0 127.186 10.1112 1286 113.075 732.547 429.282
328 0 126.205 9.44492 1192 111.67 732.242 429.716
329 0 128.249 10.5887 1358 110.2 732.8 428.557
330 0 136.244 10.8482 1478 111.843 731.562 421.154
331 0 141.307 11.0398 1560 112.108 733.069 420.561
332 0 144.329 11.259 1625 109.425 732.141 421.559
333 1 87.3271 9.75643 852 111.451 732.646 441.205
334 0 91.1896 11.2184 1023 108.502 731.304 441.134
335 0 96.2523 11.6569 1122 106.901 731.543 442.446
336 0 98.3117 10.7413 1056 109.776 731.868 440.694
337 0 100.313 13.1887 1323 105.167 731.908 437.663
338 0 102.342 10.9926 1125 109.576 732.648 438.807
339 0 107.413 11.9539 1284 107.822 732.259 436.942
340 0 110.267 11.9981 1323 108.017 732.177 434.411
341 0 115.421 12.4067 1432 106.69 731.953 432.402
342 0 118.418 12.4896 1479 107.016 732.296 432.026
343 0 121.371 12.3341 1497 108.337 732.343 429.295
344 0 122.239 13.3018 1626 108.044 731.09 427.248
345 0 123.385 11.2656 1390 114.362 731.183 423.46
346 0 129.465 12.3894 1604 111.848 731.076 423.169
347 0 134.366 12.6148 1695 108.158 730.46 421.304
348 0 137.129 11.172 1532 105.253 730.816 424.467
349 0 140.36 10.9361 1535 106.745 731.537 420.625
350 0 145.452 12.114 1762 104.521 731.855 417.632
351 0 146.425 10.6744 1563 108.449 731.082 413.981
352 1 85.3352 9.38652 801 97.1049 732.04 446.848
353 0 88.1798 10.6147 936 96.4412 730.46 442.172
354 0 89.089 8.86754 790 99.7709 730.613 446.278
355 0 92.0825 9.98018 919 99.124 730.279 441.016
356 0 96.2177 11.9105 1146 95.6161 730.421 443.462
357 0 95.1596 10.0253 954 99.6614 730.971 441.738
358 0 98.1007 11.3965 1118 98.1869 731.013 439.327
359 0 102.089 10.7847 1101 100.251 730.746 435.622
360 0 103.107 8.66093 893 103.691 729.984 438.63
361 0 108.177 10.4551 1131 102.622 730.743 433.698
362 0 111.135 11.3556 1262 103.029 730.789 425.411
363 0 113.279 11.4849 1301 104.912 731.226 418.886
364 0 116.27 10.682 1242 105.751 730.689 423.042
365 0 122.158 12.271 1499 102.209 730.572 424.061
366 0 124.175 10.4611 1299 105.456 729.942 424.035
367 1 72.1294 9.64932 696 100.139 730.636 454.338
368 0 74.2764 11.3091 840 107.044 731.129 452.268
369 0 76.1893 12.2852 936 105.317 730.64 452.912
370 0 80.1271 12.0558 966 105.272 731.296 452.747
371 0 80.1689 12.062 967 106.299 730.702 453.43
372 0 83.1081 13.3441 1109 101.017 731.232 450.179
373 0 84.1282 12.1481 1022 105.806 731.312 448.361
374 0 86.1996 14.4548 1246 101.831 730.831 448.064
375 0 87.1876 10.4946 915 111.671 730.619 450.933
376 0 87.2198 11.4194 996 112.317 730.595 446.898
377 0 97.3085 15.5074 1509 100.349 730.337 443.162
378 0 97.4764 13.2853 1295 107.849 731.226 441.639
379 0 98.2781 12.7292 1251 110.428 731.389 437.094
380 0 99.3991 11.9015 1183 112.485 730.544 440.435
381 0 104.353 12.2469 1278 112.434 731.327 436.897
382 0 103.343 11.9601 1236 114.86 731.227 434.295
383 0 109.246 12.8517 1404 111.967 730.404 440.758
384 0 114.308 13.5773 1552 110.375 730.444 437.398
385 0 116.29 12.529 1457 113.398 730.873 432.169
386 0 119.304 12.858 1534 112.962 731.083 428.659
387 0 120.432 11.5584 1392 115.066 730.391 425.675
388 1 68.1467 9.64097 657 110.113 730.26 449.604
389 0 69.1131 10.4177 720 110.061 730.501 447.882
390 0 72.1694 12.0273 868 107.543 730.139 448.224
391 0 75.1908 11.2248 844 109.118 729.921 445.899
392 0 76.1298 12.0584 918 108.534 730.553 444.54
393 0 84.1251 15.4769 1302 95.672 730.309 437.121
394 0 85.227 14.1856 1209 100.126 729.835 434.998
395 0 87.1744 15.7386 1372 97.0277 729.196 434.824
396 0 82.1142 13.1646 1081 108.183 730.101 440.55
397 0 84.194 12.4118 1045 111.545 729.975 437.346
398 0 88.1877 11.8951 1049 111.99 731.112 437.607
399 0 92.2892 11.9949 1107 111.487 730.939 438.373
