time division length width area intensity CMx CMy
0 0 35.0104 10.3112 361 136.127 1185.7 487.23
1 0 37.0189 10.6972 396 134.255 1186.16 487.27
2 0 40.0297 11.9661 479 129.121 1185.61 485.975
3 0 41.0899 11.7547 483 128.739 1185.8 486.679
4 0 40.0746 9.78175 392 135.288 1186.66 486.656
5 0 41.0559 11.5452 474 129.717 1186.68 485.38
6 0 42.0329 11.4672 482 131.21 1185.63 485.207
7 0 42.0665 10.2932 433 134.859 1185.45 485.122
8 0 44.0334 11.1506 491 130.737 1185.74 485.855
9 0 47.0626 11.8565 558 128.602 1186 484.866
10 0 48.0483 11.7174 563 127.579 1186.1 484.428
11 0 48.0496 12.5495 603 126.66 1186.24 483.982
12 0 49.0306 11.605 569 128.401 1185.72 483.522
13 0 52.0842 11.2702 587 127.756 1185.4 483.043
14 0 52.061 11.5826 603 126.982 1184.77 482.235
15 0 55.1513 12.4204 685 124.34 1185.47 482.473
16 0 56.0424 13.3827 750 123.057 1185.23 481.796
17 0 58.1587 13.7555 800 122.17 1184.97 480.862
18 0 58.1442 12.4518 724 127.738 1184.58 481.557
19 0 60.0626 12.9532 778 127.238 1185.02 480.553
20 0 64.0717 13.2508 849 124.935 1184.59 478.233
21 0 63.1966 12.7222 804 128.779 1184.94 479.139
22 0 67.1647 14.1592 951 125.003 1184.05 477.738
23 0 68.1357 13.752 937 128.488 1184.18 477.293
24 0 71.1632 13.5182 962 128.926 1184.69 476.875
25 0 71.1895 13.4992 961 129.965 1184 477.499
26 0 74.0596 12.733 943 133.212 1183.62 476.566
27 0 75.1799 12.8093 963 134.744 1183.05 475.636
28 0 79.088 13.0235 1030 133.064 1184.05 475.487
29 0 81.0673 12.8042 1038 135.427 1183.93 471.623
30 0 84.1706 13.6984 1153 130.418 1183.48 471.919
31 0 88.2815 14.2839 1261 128.322 1183.24 468.825
32 1 48.1103 12.0141 578 132.24 1183.42 488.886
33 0 48.1301 12.9233 622 130.918 1183.22 484.346
34 0 49.0829 12.3465 606 129.974 1182.93 485.863
35 0 50.0237 13.5936 680 121.874 1181.77 488.853
36 0 51.0907 12.6246 645 123.946 1182.16 488.919
37 0 53.0661 12.0227 638 125.215 1182.02 488.19
38 0 56.0353 13.2595 743 120.754 1182.09 486.678
39 0 54.0599 12.7636 690 124.081 1181.61 485.271
40 0 58.119 12.0959 703 123.862 1181.48 484.576
41 0 59.0262 12.8587 759 121.099 1181.99 483.989
42 0 63.1166 13.5147 853 118.773 1182.18 482.927
43 0 65.1801 13.6238 888 117.242 1181.88 482.938
44 0 66.0517 12.5811 831 120.371 1181.77 481.983
45 0 70.0231 13.7383 962 116.306 1181.42 480.68
46 0 72.0684 13.5982 980 117.218 1180.6 478.838
47 0 74.0838 12.0269 891 122.939 1180.47 478.118
48 0 77.1499 13.4025 1034 120.737 1181.01 477.678
49 0 81.0839 13.9115 1128 119.191 1180.71 476.475
50 0 83.1409 13.014 1082 122.616 1180.79 474.994
51 0 83.1358 12.666 1053 124.742 1180.64 472.971
52 0 88.1369 12.4465 1097 123.157 1180.48 473.033
53 0 94.1727 14.0487 1323 116.792 1180.78 468.754
54 1 53.1567 11.5884 616 119.661 1180.46 488.851
55 0 52.0818 12.3076 641 117.629 1179.94 488.548
56 0 56.2393 12.7846 719 116.113 1180.99 485.085
57 0 56.0695 13.2514 743 114.795 1180.91 485.474
58 0 59.125 13.8858 821 113.097 1180.88 483.864
59 0 61.105 13.2068 807 114.62 1180.44 484.642
60 0 63.0371 12.6751 799 114.653 1180.46 485.906
61 0 65.1475 13.9376 908 112.135 1180.26 481.359
62 0 67.0501 13.2737 890 114.158 1181.06 480.687
63 0 69.0842 13.6934 946 114.848 1180.74 479.006
64 0 73.0466 13.3887 978 114.083 1180.31 480.305
65 0 75.119 13.5252 1016 114.278 1179.79 479.033
66 0 78.0819 13.9213 1087 113.845 1180.67 477.101
67 0 81.1443 13.6917 1111 114.308 1180.86 476.78
68 0 84.0824 14.1052 1186 113.858 1180.53 472.153
69 0 85.0754 13.9288 1185 116.744 1179.7 472.635
70 0 89.1778 13.3778 1193 122.074 1179.62 470.187
71 0 92.1064 13.7124 1263 121.565 1179.24 469.566
72 0 95.1175 16.2851 1549 114.385 1179.58 466.903
73 0 99.1675 15.8721 1574 114.832 1179.1 466.418
74 0 103.12 14.3619 1481 115.411 1179.18 465.271
75 0 106.1 14.9576 1587 115.044 1179.81 462.831
76 0 106.089 14.092 1495 118.638 1178.96 461.476
77 0 111.207 15.5206 1726 114.626 1179.21 458.53
78 0 116.37 14.6343 1703 114.375 1178.95 459.57
79 0 117.18 14.371 1684 115.307 1179.46 454.792
80 0 125.2 13.8658 1736 116.946 1179.91 453.615
81 0 131.111 14.3543 1882 114.086 1179.51 453.274
82 1 68.155 12.6036 859 110.661 1179.41 482.447
83 0 69.0977 11.737 811 109.423 1179.57 480.248
84 0 72.0586 13.6694 985 108.219 1179.43 479.954
85 0 76.3166 13.7061 1046 105.58 1179.38 477.496
86 0 81.071 14.2961 1159 103.262 1179.56 476.322
87 0 80.1619 13.847 1110 105.69 1179.64 474.652
88 0 83.3113 13.1195 1093 106.07 1179.62 471.181
89 0 88.099 13.7005 1207 103.183 1178.74 472.155
90 0 92.1606 13.075 1205 110.247 1178.9 470.542
91 0 94.1126 13.4201 1263 109.827 1178.84 469.617
92 0 98.1137 13.1786 1293 110.227 1178.62 467.597
93 0 102.122 14.0812 1438 108.137 1178.23 465.227
94 0 102.14 12.6885 1296 114.295 1177.67 460.488
95 0 108.099 14.5792 1576 109.207 1178.13 462.619
96 0 111.165 12.1351 1349 112.28 1178.36 462.095
97 0 116.137 13.4754 1565 108.414 1178.31 459.011
98 0 120.146 13.0591 1569 106.382 1178.3 454.842
99 1 63.0776 12.0645 761 98.1104 1178.52 484.72
100 0 65.1469 12.4334 810 99.9481 1178.3 483.109
101 0 66.1871 12.4496 824 98.335 1179.79 482.993
102 0 66.0615 10.2329 676 101.976 1179.71 482.231
103 0 70.2818 11.0555 777 99.0502 1178.85 482.117
104 0 70.1454 10.3784 728 100.723 1179.11 481.607
105 0 75.1275 12.6186 948 97.0886 1178.9 478.43
106 0 76.0743 10.7395 817 100.166 1179.17 478.215
107 0 80.1144 11.2464 901 99.4095 1178.73 476.895
108 0 81.1166 11.539 936 100.551 1179.98 473.572
109 0 84.0644 10.7537 904 101.591 1179.16 474.588
110 0 86.2043 10.5911 913 103.102 1178.75 470.179
111 0 91.111 11.6451 1061 100.359 1178.61 470.327
112 0 96.0752 11.6679 1121 98.5977 1178.05 472.062
113 0 98.1644 11.277 1107 100.157 1178.07 468.543
114 1 52.0167 11.4002 593 94.8735 1178.53 490.153
115 0 53.2886 11.7474 626 93.6757 1178.56 488.366
116 0 55.2446 11.8021 652 93.2147 1178.56 488.129
117 0 55.1835 10.8547 599 96.2454 1178.98 488.539
118 0 58.2571 11.5179 671 95.1818 1179.72 486.839
119 0 60.2675 11.8638 715 95.6545 1178.95 484.903
120 0 62.2037 12.1215 754 94.9297 1178.6 484.349
121 0 63.1853 11.6483 736 96.4062 1178.44 485.024
122 0 68.078 13.1761 897 93.7358 1178.14 482.32
123 0 68.1185 11.436 779 98.2927 1178.18 480.497
124 0 73.0594 12.6062 921 96.7535 1178.87 480.588
125 0 74.3361 13.7215 1020 96.0569 1178.83 478.647
126 0 77.1846 13.1244 1013 97.9003 1178.46 478.412
127 0 79.1059 12.5781 995 99.7065 1178.85 477.308
128 0 82.1534 12.5497 1031 101.398 1178.49 476.821
129 0 85.18 13.043 1111 102.227 1179.04 473.167
130 0 89.1249 12.3535 1101 103.307 1178.25 472.543
131 0 90.1611 12.5997 1136 104.144 1178.18 471.079
132 0 95.1498 13.2843 1264 102.376 1178.33 470.654
133 0 97.2487 12.9873 1263 103.835 1178 466.116
134 1 51.0171 11.4863 586 99.9898 1179.64 491.744
135 0 53.0803 11.6804 620 99.1242 1179.36 491.106
136 0 55.0973 11.7429 647 100.11 1179.24 489.594
137 0 55.073 12.2565 675 100.332 1178.97 490.588
138 0 56.0679 13.0734 733 99.1487 1180.09 489.925
139 0 57.0497 12.4278 709 100.381 1180.35 490.202
140 0 58.0661 12.2102 709 101.15 1180.15 487.467
141 0 58.0661 12.0552 700 132.789 1179.17 487.484
142 0 62.0864 13.1108 814 100.361 1180.02 485.673
143 0 64.0932 12.7939 820 101.545 1180.54 483.041
144 0 63.1109 12.5177 790 104.057 1180.67 482.258
145 0 67.1424 11.3043 759 106.792 1180.46 481.768
146 0 69.058 12.6995 877 104.286 1181.04 482.106
147 0 73.0857 13.1626 962 104.344 1180.35 481.385
148 0 74.2552 13.6152 1011 105.027 1180.08 478.999
149 0 78.2046 13.8483 1083 104.432 1179.56 478.147
150 0 79.2838 15.1355 1200 101.798 1179.15 475.797
151 0 82.2837 13.7208 1129 106.074 1179.33 475.24
152 0 85.2074 13.4378 1145 104.976 1179.63 474.445
153 0 85.1958 11.8316 1008 108.376 1179.52 469.905
154 0 88.1388 12.5144 1103 103.172 1179.71 468.063
155 0 92.1105 12.6153 1162 104.651 1179.27 465.431
156 0 94.1913 12.0606 1136 106.058 1178.68 464.616
157 1 48.0373 9.38853 451 105.126 1179.62 485.856
158 0 52.1062 12.5129 652 102.291 1179.88 482.982
159 0 55.1203 13.7155 756 100.157 1178.15 490.358
160 0 56.0724 12.8049 718 104.004 1177.57 487.364
161 0 56.0688 12.3241 691 106.116 1176.92 487.198
162 0 59.0683 12.6295 746 105.001 1177.39 487.264
163 0 60.1269 10.9435 658 109.172 1177.44 486.377
164 0 63.0652 13.2403 835 104.22 1177.82 484.998
165 0 66.1187 12.901 853 105.158 1177.96 483.448
166 0 66.0715 11.8811 785 108.14 1177.68 482.236
167 0 71.1096 13.7956 981 102.752 1178.05 482.572
168 0 74.1812 14.3298 1063 102.325 1178.64 481.038
169 0 76.0925 13.5887 1034 104.739 1178.52 477.83
170 0 79.2834 11.5913 919 107.455 1178.67 479.626
171 0 83.0967 13.7912 1146 104.458 1178.65 476.912
172 0 86.202 12.8535 1108 105.857 1177.84 476.793
173 0 88.1309 12.0389 1061 108.826 1177.9 472.99
174 1 48.1409 11.7364 565 107.276 1177.9 493.432
175 0 49.031 12.0128 589 108.194 1177.66 492.258
176 0 50.0833 10.6223 532 108.177 1177.73 492.449
177 0 54.0844 13.368 723 103.905 1178.43 490.907
178 0 55.1094 12.9742 715 105.035 1178.25 490.301
179 0 55.042 12.2997 677 107.61 1178.27 488.38
180 0 58.0905 12.6527 735 105.616 1177.85 486.041
181 0 61.0336 13.9268 850 98.8694 1179.82 487.289
182 0 64.0758 12.4852 800 102.007 1180.07 485.086
183 0 64.0574 12.442 797 129.604 1180.06 485.077
184 0 67.0822 12.7754 857 101.905 1179.47 484.51
185 0 68.1728 12.5563 856 101.998 1179.29 482.349
186 0 71.1823 14.0063 997 98.3872 1179 480.352
187 0 74.2029 12.048 894 102.956 1178.94 479.53
188 0 75.0956 12.1046 909 103.295 1178.27 479.232
189 0 78.1628 12.8322 1003 102.447 1178.26 476.211
190 0 81.2507 12.8614 1045 102.44 1178.24 473.737
191 0 83.2054 11.706 974 104.947 1177.89 473.983
192 0 86.2005 12.0185 1036 105.288 1178.14 471.313
193 0 89.1805 13.2765 1184 103.369 1178.32 470.657
194 0 92.1793 12.0309 1109 105.12 1178.19 471.164
195 0 93.1058 12.5663 1170 104.422 1178.06 468.653
196 0 98.3158 13.2939 1307 102.108 1178.45 467.16
197 0 102.274 11.3519 1161 110.725 1178.29 463.057
198 1 51.2856 11.6602 598 106.992 1179.27 487.497
199 0 55.2506 11.3483 627 106.943 1179.38 487.442
200 0 57.1867 12.5903 720 100.319 1179.07 486.932
201 0 60.333 11.3702 686 110.204 1179.23 485.98
202 0 62.2432 12.0174 748 108.628 1179 486.098
203 0 63.293 12.2762 777 108.439 1178.75 483.761
204 0 65.2089 12.713 829 107.761 1178.4 482.236
205 0 66.2075 11.902 788 109.463 1178.6 481.293
206 0 71.2828 12.8362 915 106.186 1178.87 481.995
207 0 72.2444 11.8902 859 108.404 1178.67 480.978
208 0 76.1771 12.681 966 104.581 1178.44 478.168
209 0 77.1202 12.7852 986 103.056 1178.55 475.301
210 0 80.052 11.2177 898 107.105 1179.29 476.33
211 0 82.2392 12.3542 1016 105.551 1178.88 474.577
212 0 85.1439 13.2012 1124 104.488 1179.07 473.598
213 0 87.2281 13.3443 1164 103.884 1178.28 473.162
214 0 90.1733 12.9861 1171 106.155 1178.47 470.27
215 0 93.1338 12.7666 1189 107.833 1179.17 470.195
216 0 95.1416 11.8035 1123 109.614 1178.7 470.798
217 0 100.109 14.3644 1438 104.904 1178.44 467.624
218 0 102.253 12.9091 1320 109.614 1178.51 463.164
219 0 104.283 13.3675 1394 110.301 1179.29 456.447
220 0 109.255 12.9422 1414 111.737 1179.35 458.936
221 1 53.0521 11.5924 615 103.184 1179.12 489.052
222 0 57.1006 13.2923 759 99.2477 1179.27 487.455
223 0 58.1087 13.2338 769 99.5215 1177.9 489.026
224 0 59.0459 12.7189 751 102.558 1178.02 487.859
225 0 60.0753 13.017 782 103.014 1178.07 485.578
226 0 62.1767 12.9631 806 102.98 1177.76 484.535
227 0 64.1044 13.0568 837 103.147 1178.62 484.509
228 0 66.0876 12.8769 851 104.729 1178.79 483.726
229 0 67.1837 12.3095 827 105.95 1178.5 483.67
230 0 71.2161 13.7609 980 103.109 1178.85 481.256
231 0 73.131 12.3614 904 105.112 1178.97 480.143
232 0 76.1447 13.1592 1002 102.215 1179.11 480.221
233 0 79.1059 14.1962 1123 100.095 1178.75 477.937
234 0 81.1149 13.7089 1112 101.895 1178.66 475.655
235 0 83.1636 13.239 1101 103.994 1179.48 473.638
236 0 86.0992 13.8329 1191 102.858 1179.7 474.219
237 0 88.1189 13.1186 1156 104.207 1178.85 472.571
238 0 93.075 13.2259 1231 104.206 1178.89 470.145
239 0 96.2477 13.7458 1323 103.365 1179.25 470.677
240 0 99.1603 11.9806 1188 109.796 1179 468
241 1 53.0206 11.9199 632 102.685 1179.51 490.892
242 0 54.046 13.3775 723 103.585 1178.78 486.841
243 0 55.054 12.9509 713 100.719 1179.06 489.415
244 0 57.1073 12.4327 710 100.397 1177.76 487.383
245 0 60.1176 12.9579 779 98.7137 1178.21 485.901
246 0 60.0875 12.5484 754 99.7374 1177.92 486.28
247 0 64.1157 13.3041 853 98.0293 1177.95 484.215
248 0 65.0464 12.2682 798 101.127 1178.9 484.613
249 0 68.0864 13.6151 927 98.6602 1178.64 482.412
250 0 71.166 11.6629 830 102.983 1178.63 482.172
251 0 72.0984 13.1487 948 101.094 1178 480.969
252 0 74.0607 13.0704 968 101.694 1178.42 477.525
253 0 79.1201 13.4858 1067 100.883 1178.91 476.918
254 0 79.1507 12.811 1014 106.287 1178.72 475.035
255 0 83.1634 12.8783 1071 105.54 1178.84 475.511
256 0 86.158 13.2083 1138 104.766 1179.45 472.112
257 0 91.1299 13.4533 1226 103.671 1178.86 472.363
258 0 93.2015 13.9912 1304 103.906 1178.97 469.36
259 0 96.3293 12.4157 1196 106.999 1179.09 467.512
260 0 98.5265 11.8445 1167 107.656 1179.45 467.129
261 0 103.299 13.3883 1383 104.775 1179.47 460.982
262 0 107.616 13.511 1454 104.818 1178.79 459.483
263 1 54.3707 10.925 594 101.313 1178.94 485.734
264 0 57.3671 12.0801 693 100.232 1178.45 484.576
265 0 57.3338 11.5464 662 103.849 1178.44 485.964
266 0 58.1612 12.1043 704 103.955 1178.67 483.709
267 0 63.1572 12.3185 778 101.729 1178.56 485.279
268 0 65.1686 12.6288 823 102.203 1178.69 484.948
269 0 68.1593 12.7936 872 101.063 1178.97 481.092
270 0 69.2491 12.7944 886 101.701 1178.26 477.572
271 0 71.4413 13.2696 948 101.345 1177.77 476.103
272 0 75.208 13.9613 1050 99.8962 1177.73 473.704
273 0 76.4089 13.4801 1030 101.026 1178.13 473.246
274 0 78.3453 12.4194 973 103.725 1177.71 472.422
275 0 79.4109 12.429 987 105.108 1177.51 468.814
276 0 84.3875 12.099 1021 104.268 1177.28 469.326
277 0 86.5412 11.4281 989 106.442 1177.89 466.236
278 0 89.3822 12.8549 1149 103.987 1177.6 462.399
279 0 93.5542 13.0726 1223 103.899 1177.98 461.563
280 1 50.3884 10.816 545 101.459 1178.03 485.161
281 0 51.2354 12.2767 629 97.965 1178.29 484.59
282 0 54.302 11.5097 625 98.6016 1178.03 485.64
283 0 54.1799 12.6061 683 96.5842 1178.5 487.186
284 0 56.2251 12.3966 697 96.9857 1179.11 488.927
285 0 57.0852 10.9661 626 100.511 1178.7 487.821
286 0 59.0858 12.9642 766 99.2298 1179.02 485.61
287 0 61.1363 10.9591 670 103.436 1178.97 486.182
288 0 65.1106 12.5479 817 101.211 1178.88 482.949
289 0 66.1463 12.17 805 103.682 1178.57 480.068
290 0 68.1704 11.7793 803 106.352 1178.62 480.878
291 0 74.1223 13.3833 992 103.609 1179.37 478.887
292 0 77.1862 13.1111 1012 103.437 1178.97 477.311
293 0 77.1503 12.2488 945 106.775 1179.5 477.013
294 0 81.2203 12.7924 1039 108.518 1179.66 477.07
295 0 83.2346 13.8284 1151 107.328 1179.83 473.343
296 0 85.0662 12.3433 1050 112.729 1179.38 470.66
297 0 91.2304 12.6383 1153 112.229 1179.9 472.268
298 1 46.0404 11.1424 513 110.986 1180.3 492.682
299 0 49.1418 11.3752 559 110.512 1178.04 491.258
300 0 51.2741 12.716 652 111.779 1177.11 484.982
301 0 51.1813 12.5827 644 111.893 1177.37 490.477
302 0 52.0912 12.171 634 106.658 1177.28 490.342
303 0 55.0258 12.3578 680 105.143 1177.75 490.471
304 0 56.1304 13.3796 751 104.939 1178.42 489.393
305 0 59.0887 14.1821 838 103.871 1178.72 488.327
306 0 58.0713 12.5363 728 109.036 1179.19 487.121
307 0 60.1635 13.3802 805 107.591 1178.69 485.094
308 0 60.0519 12.7223 764 109.369 1178.54 485.95
309 0 66.0809 13.4986 892 104.77 1178.94 485.49
310 0 67.2357 12.9247 869 107.245 1178.83 481.977
311 0 68.1617 12.573 857 107.567 1178.34 482.056
312 0 71.1246 13.2725 944 106.266 1178.42 481.655
313 0 73.2142 11.9922 878 109.405 1178.77 479.301
314 0 76.0865 13.1298 999 107 1178.63 478.063
315 0 77.0707 11.8722 915 110.01 1178.6 479.01
316 1 41.1173 10.166 418 107.175 1179 497.885
317 0 42.0202 11.1375 468 106.036 1179.36 495.254
318 0 41.0616 11.7628 483 105.969 1179.15 493.992
319 0 46.0096 12.6495 582 102.017 1179.3 493.225
320 0 45.1216 11.0147 497 106.185 1177.06 492.873
321 0 47.098 11.2107 528 104.803 1177.5 493.292
322 0 46.0803 11.7621 542 104.696 1179.45 491.924
323 0 47.0526 12.1566 572 104.51 1179.24 493.388
324 0 47.0527 10.7539 506 108.158 1178.4 492.935
325 0 50.0934 11.9976 601 103.827 1178.9 492.667
326 0 51.0804 10.9631 560 106.366 1179.15 491.711
327 0 53.0703 11.2304 596 105.815 1179.77 490.661
328 0 56.1608 12.1437 682 104.009 1179.81 488.62
329 0 57.1068 11.5048 657 106.107 1179.88 488.414
330 0 59.1267 11.5346 682 106.217 1179.5 487.619
331 0 61.1658 12.8667 787 104.337 1179.54 487.307
332 0 63.1008 12.171 768 107 1179.94 484.346
333 0 65.1213 12.9144 841 105.423 1179.71 485.195
334 0 67.1482 13.0756 878 105.592 1179.27 483.633
335 0 67.1351 11.6481 782 110.89 1179.51 483.196
336 0 73.1741 12.8461 940 108.249 1178.7 481.278
337 0 75.1518 12.9604 974 108.595 1179.16 481.214
338 0 78.137 13.0924 1023 109.197 1178.49 479.129
339 0 78.182 12.2151 955 112.101 1178.12 478.643
340 0 81.1834 12.9214 1049 111.836 1178.3 477.596
341 0 86.2506 13.484 1163 110.592 1178.62 476.081
342 0 88.2989 14.9945 1324 109.183 1178.46 472.063
343 1 47.1015 11.9317 562 113.133 1179.1 493.52
344 0 49.0834 12.7131 624 113.381 1178.06 492.838
345 0 49.168 11.7149 576 114.3 1178.07 493.056
346 0 53.0311 13.6335 723 108.874 1178.36 491.151
347 0 53.0899 13.204 701 112.07 1178.37 491.832
348 0 53.0534 12.5722 667 113.507 1177.61 491.804
349 0 55.1231 14.2771 787 110.729 1178.3 489.252
350 0 56.0711 11.9491 670 116.327 1178.04 490.133
351 0 58.1508 13.1039 762 115.852 1178.29 487.176
352 0 61.1322 12.6284 772 115.979 1179.04 487.171
353 0 64.194 13.0853 840 114.78 1178.49 485.08
354 0 66.1399 12.534 829 114.434 1178.4 485.116
355 0 69.1395 13.8994 961 112.277 1178.64 483.047
356 0 70.1547 12.6292 886 117.017 1177.78 481.288
357 0 72.1809 13.2029 953 115.411 1177.9 481.974
358 0 76.1742 13.9942 1066 112.949 1178.09 480.094
359 0 79.2021 13.6108 1078 112.965 1178.49 479.588
360 0 80.1909 13.9417 1118 113.879 1177.6 477.727
361 0 85.0744 12.6125 1073 120.186 1179.37 475.901
362 0 88.1867 14.0044 1235 116.168 1179.09 475.721
363 0 89.1384 11.9365 1064 121.427 1179.17 473.376
364 1 45.0749 10.4936 473 112.964 1178.6 496.218
365 0 46.0569 10.6607 491 110.499 1178.38 495.77
366 0 45.0776 11.1364 502 110.054 1178.61 494.359
367 0 51.1629 12.1182 620 105.202 1179.74 493.024
368 0 52.044 12.9314 673 108.527 1177.53 491.091
369 0 51.0562 13.162 672 109.048 1178.19 492.655
370 0 53.0374 11.4259 606 113.129 1178.15 492.299
371 0 52.0294 12.3584 643 113.061 1177.93 491.11
372 0 55.0341 11.9926 660 113.165 1177.78 489.808
373 0 56.0745 12.0376 675 115.015 1178.31 487.643
374 0 60.0454 12.9735 779 109.854 1178.13 488.365
375 0 59.0825 12.1863 720 113.212 1177.74 487.529
376 0 62.0871 12.1603 755 113.132 1177.56 485.49
377 0 65.0459 12.8217 834 110.94 1177.01 484.825
378 0 67.0912 12.3861 831 111.348 1177.73 485.148
379 0 71.0899 12.7304 905 105.672 1177.9 482.017
380 0 72.094 11.6098 837 109.21 1177.62 481.087
381 0 76.102 13.3899 1019 104.235 1177.26 480.43
382 0 76.1177 13.2164 1006 108.01 1177.51 476.755
383 0 80.0619 12.6027 1009 107.233 1177.73 478.016
384 0 82.06 12.2593 1006 108.229 1178.67 476.385
385 0 85.2638 12.6431 1078 107.579 1178.58 475.213
386 0 87.1495 12.0827 1053 109.19 1179.7 473.556
387 1 47.0424 11.8404 557 105.332 1180.78 493.476
388 0 51.0434 13.6354 696 101.803 1181.12 491.645
389 0 50.0643 11.8048 591 104.706 1180.25 491.374
390 0 51.0429 11.9507 610 105.185 1178.58 493.408
391 0 52.0248 11.6867 608 107.516 1178.68 491.919
392 0 53.0427 12.1412 644 104.627 1178.27 492.915
393 0 55.0333 12.1563 669 105.184 1178.06 490.371
394 0 57.0756 12.72 726 103.956 1177.8 488.696
395 0 56.0386 11.617 651 106.641 1177.85 490.375
396 0 59.0287 11.9603 706 106.135 1177.74 487.925
397 0 62.0344 11.1873 694 105.804 1177.84 489.259
398 0 64.1028 12.48 800 103.29 1178.28 487.905
399 0 66.0873 12.771 844 103.868 1177.67 484.012
400 0 69.1756 12.7646 883 102.556 1178.37 484.556
401 0 72.0555 10.8527 782 90.3286 1177.98 487.042
402 0 75.1613 13.0386 980 102.018 1178.09 482.687
