time division length width area intensity CMx CMy
0 0 28.0383 12.4829 350 142.877 729.391 490.709
1 0 27.0104 11.1068 300 147.833 729.9 491.763
2 0 28.0185 12.0278 337 144.596 729.258 490.917
3 0 29.0052 11.9634 347 144.844 729.582 490.772
4 0 31.0198 12.0568 374 141.947 730.08 490.674
5 0 30.0168 11.8267 355 144.4 730.324 490.383
6 0 32.0398 12.1412 389 143.522 729.352 490.069
7 0 33.0081 12.4515 411 142.912 729.224 489.99
8 0 35.0204 12.1643 426 140.735 729.38 490.434
9 0 35.0406 11.5295 404 144.869 729.819 489.869
10 0 35.0364 11.2169 393 146.308 730.064 490.239
11 0 34.0243 12.109 412 145.422 730.172 490.468
12 0 37.0267 12.5315 464 141.918 729.784 489.713
13 0 37.0557 13.0614 484 140.643 729.479 487.94
14 0 36.074 11.7813 425 144.762 728.736 489.885
15 0 42.0448 13.6521 574 134.12 729.27 489.333
16 0 40.0978 12.5942 505 140.44 729.143 488.208
17 0 41.0828 12.8034 526 140.053 729.099 488.639
18 0 41.1465 12.9537 533 139.709 728.445 488.583
19 0 44.114 13.4651 594 137.212 728.717 487.805
20 0 44.0711 12.911 569 138.699 728.905 487.772
21 0 45.0565 13.8049 622 137.344 728.719 487.008
22 0 46.0506 13.4852 621 137.665 727.928 487.997
23 0 46.0907 13.3216 614 139.406 728.487 487.275
24 0 50.0418 13.6686 684 135.895 728.909 486.601
25 0 50.062 12.7442 638 137.989 728.124 487.083
26 0 54.1241 14.3374 776 133.111 728.271 485.803
27 0 55.0247 13.8847 764 134.806 727.725 484.537
28 0 57.0334 14.6581 836 133.827 728.618 482.589
29 0 58.0265 13.0113 755 136.612 728.401 484.093
30 0 57.0886 13.2075 754 140.141 727.846 482.749
31 0 61.0907 14.7977 904 134.811 727.69 480.478
32 0 62.1195 13.5706 843 138.656 727.804 481.383
33 0 65.063 14.0633 915 138.069 727.277 479.117
34 0 68.0962 13.76 937 136.649 727.379 479.519
35 0 70.099 13.4524 943 137.035 726.872 478.329
36 0 71.1381 14.0572 1000 138.453 727.339 475.388
37 0 75.3096 14.8454 1118 134.504 727.108 475.019
38 0 78.1544 14.9832 1171 133.884 727.058 472.032
39 0 79.1028 13.2359 1047 137.839 725.832 472.112
40 0 85.2182 13.8585 1181 125.592 726.434 469.39
41 0 85.1574 12.2714 1045 131.882 726.668 464.944
42 0 90.2705 13.9027 1255 133.634 726.659 467.215
43 0 94.0768 14.7114 1384 129.761 726.573 465.389
44 1 46.0282 12.2968 566 137.486 726.426 486.783
45 0 48.0337 13.1782 633 129.062 726.111 483.638
46 0 52.0984 13.1866 687 130.624 726.402 483.191
47 0 53.0386 12.8208 680 131.663 726.306 482.528
48 0 55.0456 11.8084 650 134.451 726.771 483.868
49 0 57.0705 13.1241 749 130.059 726.438 481.033
50 0 60.1864 14.0729 847 122.792 726.595 480.332
51 0 63.0527 14.0834 888 125.119 726.447 478.52
52 0 62.023 12.8823 799 130.512 726.026 478.388
53 0 65.0738 12.5396 816 121.805 725.734 476.833
54 0 69.1216 13.715 948 127.035 724.782 478.527
55 0 72.1986 14.2108 1026 125.717 724.241 478.971
56 0 75.0571 14.016 1052 126.254 724.744 477.696
57 0 76.226 13.4206 1023 127.544 725.054 476.103
58 0 81.2734 13.6453 1109 125.855 725.469 473.953
59 0 82.1983 13.8081 1135 126.893 725.167 474.063
60 0 87.2429 14.7519 1287 122.974 725.253 473.146
61 0 88.2218 14.4522 1275 125.288 725.027 471.4
62 0 93.1802 14.0158 1306 126.856 725.609 467.987
63 0 96.3125 15.0655 1451 124.764 725.437 468.252
64 0 98.0668 14.847 1456 121.821 724.792 464.166
65 1 51.0694 12.9628 662 121.84 724.45 486.731
66 0 51.0667 13.4726 688 122.709 725.461 486.42
67 0 52.0756 14.0181 730 123.305 725.696 487.196
68 0 54.1283 13.5789 735 124.92 725.027 486.955
69 0 55.1333 13.3132 734 128.064 724.409 485.914
70 0 59.2441 14.1449 838 125.017 724.278 484.169
71 0 61.1829 14.6119 894 123.994 723.889 483.322
72 0 63.1806 13.501 853 125.734 724.24 482.509
73 0 66.0567 14.0031 925 125.157 723.269 480.47
74 0 68.0506 14.6362 996 121.924 723.243 479.277
75 0 69.1306 13.2358 915 126.963 724.073 479.138
76 0 72.1824 13.743 992 126.949 723.322 478.271
77 0 74.0213 13.9419 1032 127.484 723.732 475.49
78 0 79.1152 15.2689 1208 122.546 723.655 474.791
79 0 80.0558 13.7404 1100 126.135 724.153 473.483
80 0 82.171 14.6645 1205 125.699 724.041 470.379
81 0 86.1281 13.6425 1175 124.394 723.704 469.331
82 0 89.1866 13.4325 1198 124.023 723.354 466.775
83 0 94.2159 14.7852 1393 118.653 723.939 467.123
84 1 45.0345 10.925 492 117.6 724.722 489.384
85 0 49.0544 11.8848 583 113 725.804 487.99
86 0 50.0557 11.7869 590 118.871 724.768 492.242
87 0 51.0183 13.7794 703 115.657 724.748 490.926
88 0 54.0157 12.9592 700 115.824 724.586 490.459
89 0 57.0469 13.077 746 114.072 723.847 490.094
90 0 58.0819 13.4121 779 116.153 724.049 487.855
91 0 58.1419 12.5899 732 119.464 723.87 486.862
92 0 60.0628 12.387 744 120.228 723.499 485.669
93 0 63.1157 13.6416 861 117.398 723.108 483.938
94 0 67.1062 13.9033 933 116.743 722.457 484.612
95 0 69.1064 13.8337 956 118.003 722.979 482.017
96 0 72.0888 13.095 944 118.815 723.13 483.394
97 0 73.1102 13.0351 953 116.473 723.419 482.695
98 0 76.1279 13.8057 1051 116.043 723.146 478.189
99 0 80.1912 13.6923 1098 115.161 723.548 478.628
100 0 81.3568 13.2503 1078 119.84 723.238 476.988
101 0 85.1744 13.3256 1135 117.355 723.634 478.011
102 0 89.3112 13.8168 1234 117.227 724.006 474.177
103 1 47.2322 12.7455 602 115.721 724.57 494.317
104 0 48.0338 11.9707 575 115.943 725.43 492.525
105 0 49.291 13.0247 642 114.087 725.159 492.224
106 0 52.2646 13.8143 722 113.05 724.348 490.154
107 0 50.0609 12.8843 645 117.598 723.55 491.647
108 0 52.0498 12.5649 654 119.332 724.008 491.141
109 0 53.077 11.7377 623 121.202 723.135 491.342
110 0 55.1166 13.3716 737 118.896 723.091 490.057
111 0 57.1318 13.7752 787 116.643 723.714 488.842
112 0 58.1374 13.5885 790 118.109 723.251 487.615
113 0 60.1705 13.0961 788 118.959 722.829 485.923
114 0 61.133 12.0557 737 121.034 723.343 485.046
115 0 64.0519 12.8958 826 119.039 722.763 484.449
116 0 66.0962 13.9494 922 115.86 722.792 483.639
117 0 67.2771 11.9803 806 118.983 722.548 485.88
118 0 70.0977 13.1245 920 118.379 723.614 480.777
119 0 73.3072 12.8364 941 117.801 723.612 480.806
120 0 73.1435 12.1405 888 120.745 722.595 479.005
121 0 77.192 13.1749 1017 117.818 722.893 477.534
122 0 79.3612 13.8733 1101 117.728 723.115 474.531
123 0 82.3594 14.631 1205 115.731 723.085 473.338
124 0 86.3735 14.2521 1231 117.816 724.032 470.469
125 0 88.3452 13.5152 1194 121.315 723.81 469.89
126 0 91.4289 13.9343 1274 120.329 723.156 467.574
127 0 95.4741 14.0038 1337 117.243 723.661 469.285
128 1 50.3371 11.9792 603 115.768 724.046 490.461
129 0 50.0231 10.835 542 118.834 724.153 490.223
130 0 52.1401 12.8116 668 108.174 723.238 489.54
131 0 54.1112 13.7125 742 104.829 724.678 489.224
132 0 53.1258 12.2916 653 109.642 724.683 489.074
133 0 53.1123 11.6169 617 111.075 724.36 488.964
134 0 56.1348 11.8643 666 111.08 724.583 488.047
135 0 58.1124 12.8028 744 109.453 724.286 486.466
136 0 60.1997 12.2758 739 111.59 724.361 486.659
137 0 62.0479 12.1841 756 112.257 723.354 484.852
138 0 65.054 12.8048 833 110.589 724.162 484.792
139 0 66.0898 13.1639 870 111.248 724.374 483.318
140 0 68.0424 12.9625 882 111.61 724.404 483.274
141 0 68.0424 12.9625 882 148.264 724.424 483.312
142 0 75.1858 13.7792 1036 110.024 723.932 481.47
143 0 75.1102 13.3138 1000 113.016 724.581 479.281
144 0 75.1625 12.626 949 116.212 724.793 477.558
145 0 80.159 14.4213 1156 112.954 724.474 478.003
146 0 81.2547 13.8577 1126 116.694 725.147 474.034
147 0 84.1198 15.0737 1268 113.042 724.618 475.27
148 0 88.3579 14.0904 1245 115.225 724.528 473.569
149 0 91.1654 15.4335 1407 113.058 724.215 470.736
150 0 93.4163 13.6486 1275 117.606 723.757 469.503
151 0 95.3049 13.8083 1316 122.862 723.648 467.309
152 1 50.0924 10.82 542 118.902 725.19 492.511
153 0 51.0848 11.5103 588 116.855 724.998 491.223
154 0 52.1225 11.7608 613 113.649 725.527 489.271
155 0 54.0823 12.4255 672 109.211 724.933 489.555
156 0 55.137 13.0403 719 107.793 724.147 487.611
157 0 57.0918 11.8231 675 109.304 724.127 486.57
158 0 58.0958 11.4122 663 111.241 724.395 487.35
159 0 60.0995 11.0983 667 111.666 724.214 485.295
160 0 59.0908 11.2877 667 111.934 723.763 485.363
161 0 63.0968 12.7423 804 108.578 723.006 482.754
162 0 65.2213 13.0939 854 106.527 723.382 484.123
163 0 67.0725 11.5099 772 110.609 723.501 480.284
164 0 72.2197 12.4758 901 106.603 723.794 479.295
165 0 74.0903 11.9179 883 107.7 724.172 480.05
166 0 75.1307 12.2586 921 107.773 723.864 477.087
167 0 77.3399 11.6757 903 108.984 724.161 476.622
168 0 79.1906 11.8322 937 109.337 724.645 474.742
169 0 83.1858 12.4661 1037 107.12 724.332 473.114
170 0 86.1662 11.2805 972 109.389 724.649 473.616
171 0 88.162 11.9893 1057 109.889 723.654 471.309
172 1 44.0679 12.095 533 107.026 722.424 493.098
173 0 45.0413 11.989 540 108.137 721.731 491.461
174 0 46.0988 11.9092 549 106.539 722.891 491.985
175 0 47.0467 11.0316 519 109.453 722.326 490.391
176 0 50.0243 11.6743 584 107.759 722.241 490.481
177 0 50.0617 11.9053 596 108.904 722.773 490.641
178 0 53.1747 12.1298 645 108.803 722.553 489.485
179 0 53.0676 12.3427 655 110.864 722.689 486.918
180 0 55.0706 12.0391 663 112.425 722.066 487.525
181 0 58.1212 12.7836 743 110.892 722.968 485.351
182 0 59.089 12.0665 713 113.619 723.188 484.895
183 0 60.2022 11.2122 675 116.556 722.265 484.573
184 0 62.293 12.2967 766 114.909 722.911 483.214
185 0 66.1316 12.6868 839 113.184 722.602 483.806
186 0 66.0958 11.6346 769 115.793 722.557 483.533
187 0 69.0427 12.6299 872 115.266 722.513 481.511
188 0 72.1882 12.6613 914 114.559 721.91 480.115
189 0 74.1571 12.3387 915 115.211 722.095 479.792
190 0 77.0945 12.3355 951 114.567 722.057 478.242
191 0 79.1065 12.2367 968 115.683 721.853 477.158
192 0 82.1325 12.8695 1057 114.788 722.238 475.811
193 0 82.1325 12.8451 1055 150.661 722.247 475.725
194 0 86.0794 13.1274 1130 116.738 722.167 472.935
195 0 89.1129 13.2753 1183 116.853 722.116 472.079
196 0 92.0565 13.2527 1220 116.132 723.172 470.974
197 0 95.1035 13.7324 1306 117.028 722.991 467.08
198 0 99.1355 13.769 1365 115.476 723.034 468.158
199 0 102.212 14.4993 1482 115.273 722.854 464.428
200 0 103.152 12.6609 1306 121.029 722.677 463.351
201 0 108.199 14.6211 1582 116.345 722.779 462.678
202 1 58.1847 11.2401 654 119.679 722.214 487.937
203 0 60.1253 13.1725 792 114.36 722.149 486.473
204 0 60.1113 12.244 736 119.776 721.613 484.841
205 0 61.2039 13.4959 826 117.292 721.806 481.763
206 0 65.1236 13.5281 881 108.064 724.395 484.066
207 0 64.116 13.9279 893 110.087 724.096 481.96
208 0 66.1127 11.3443 750 112.731 723.967 484.344
209 0 68.2564 12.8047 874 111.658 723.427 480.201
210 0 70.0982 12.5681 881 111.922 724.178 482.46
211 0 73.0811 13.054 954 111.277 723.802 479.01
212 0 77.1807 13.6304 1052 110.196 724.008 477.706
213 0 79.1508 12.4067 982 112.003 723.34 476.152
214 0 82.1748 12.0718 992 113.061 723.312 472.593
215 0 86.1544 12.4428 1072 111.16 724.124 470.68
216 0 88.0943 12.1801 1073 112.522 722.843 469.007
217 1 46.06 11.0942 511 111.446 724.192 490.795
218 0 50.0889 11.8789 595 108.748 724.197 490.523
219 0 52.3033 12.0834 632 111.241 723.059 485.639
220 0 53.1787 11.0382 587 113.307 724.54 489.126
221 0 55.0545 11.6793 643 110.639 724.342 486.6
222 0 57.3305 12.3843 710 110.632 724.538 485.921
223 0 60.1438 12.8691 774 109.208 724.407 484.738
224 0 61.1009 13.4041 819 108.564 724.159 482.971
225 0 65.1506 13.5379 882 107.825 724.357 482.193
226 0 66.321 14.4148 956 106.31 723.942 480.811
227 0 66.147 12.3966 820 112.688 723.717 479.563
228 0 70.1093 12.8086 898 110.983 723.702 478.687
229 0 72.0853 11.8748 856 110.453 723.647 476.745
230 0 74.1329 12.7339 944 109.569 723.879 476.442
231 0 79.1183 13.1828 1043 106.344 723.874 474.371
232 0 82.1917 11.7043 962 109.596 724.008 473.915
233 1 42.0353 10.2771 432 116.317 724.741 491.769
234 0 44.1103 9.86163 435 116.598 724.43 492.492
235 0 44.0785 11.298 498 111.49 725.249 492.598
236 0 45.0999 12.306 555 104.73 725.294 490.396
237 0 45.0935 9.24745 417 112.312 723.453 490.595
238 0 47.0429 11.1175 523 106.793 724.891 491.488
239 0 50.0959 12.6358 633 102.771 725.325 490.142
240 0 51.0395 11.6185 593 106.563 724.46 489.572
241 0 53.2074 11.7653 626 106.992 724.292 485.192
242 0 54.1249 12.9146 699 103.734 723.361 488.545
243 0 54.0821 11.5935 627 108.156 723.78 487.955
244 0 58.1553 13.2232 769 105.363 724.048 486.77
245 0 59.1036 12.7911 756 108.026 724.093 485.474
246 0 59.128 12.3799 732 110.955 723.944 482.716
247 0 62.1713 12.9481 805 109.325 724.019 483.682
248 0 64.2077 14.7179 945 105.935 724.763 483.256
249 0 67.233 13.0888 880 110.93 724.303 481.407
250 0 68.2158 13.4573 918 112.533 724.615 479.397
251 0 71.2121 14.1689 1009 111.434 723.974 478.605
252 0 72.163 13.2894 959 114.56 723.964 477.672
253 0 74.0834 14.5377 1077 112.409 724.355 477.988
254 0 77.0964 13.4248 1035 116.557 724.268 477.243
255 0 78.1842 14.4403 1129 115.719 724.515 474.09
256 0 80.1935 13.6545 1095 118.711 724.876 473.07
257 0 83.1149 14.498 1205 118.278 724.236 473.309
258 0 85.0833 13.7395 1169 121.215 724.269 472.313
259 0 87.0814 13.229 1152 122.902 724.281 471.859
260 0 91.2043 13.848 1263 122.262 724.519 469.542
261 0 94.1788 12.901 1215 124.344 724.452 469.495
262 0 98.1532 14.0698 1381 120.684 723.606 466.386
263 0 100.143 13.5705 1359 120.553 723.695 466.324
264 0 105.152 13.9037 1462 120.885 723.373 461.65
265 0 106.2 13.4558 1429 121.952 723.614 461.003
266 0 111.204 14.0193 1559 119.601 723.867 459.338
267 0 115.204 14.9648 1724 115.571 723.66 458.701
268 1 65.0971 12.6887 826 119.01 723.655 482.137
269 0 67.2942 12.007 808 119.728 722.988 480.161
270 0 70.1394 13.6015 954 111.953 721.956 479.092
271 0 70.0893 12.7837 896 112.735 724.388 480.788
272 0 73.1015 12.5989 921 112.271 724.328 480.951
273 0 74.1429 13.3661 991 111.686 724.691 477.648
274 0 75.1205 12.8061 962 112.673 724.023 479.116
275 0 78.1901 12.3034 962 114.288 723.693 475.709
276 0 81.2732 12.0089 976 113.965 723.044 476.433
277 0 84.1618 13.5453 1140 111.032 724.329 470.808
278 0 86.1077 11.683 1006 114.099 724.398 471.313
279 0 89.176 11.4381 1020 115.767 724.562 467.625
280 0 91.1268 12.2686 1118 113.428 724.322 465.072
281 1 48.0437 9.38728 451 114.652 725.519 487.672
282 0 50.2959 9.50375 478 109.722 723.439 483.345
283 0 50.1992 10.8169 543 107.761 721.619 483.079
284 0 54.0519 10.8969 589 105.756 721.55 483.791
285 0 54.1414 10.3802 562 107.495 721.283 483.012
286 0 57.0587 10.0773 575 107.717 721.781 484.282
287 0 58.1287 11.3197 658 106.658 721.625 481.675
288 0 60.0212 11.2294 674 117.481 721.257 484.05
289 0 63.1097 12.0584 761 114.825 721.08 482.763
290 0 64.0404 10.9774 703 117.158 721.051 482.494
291 0 68.0597 11.4165 777 114.51 721.896 481.259
292 0 69.2182 11.471 794 112.419 721.569 481.535
293 0 72.1338 12.7957 923 109.255 722.026 479.602
294 0 73.1139 12.6378 924 112.439 722.399 477.964
295 0 73.2827 9.92049 727 106.542 724.043 480.431
296 0 77.0875 10.5724 815 106.029 724.27 479.677
297 0 80.1465 11.9531 958 103.733 724.404 476.594
298 0 83.1185 12.416 1032 106.203 724.679 474.226
299 1 45.1826 9.64974 436 111.612 724.126 491.828
300 0 48.1828 10.9168 526 109.26 723.344 491.247
301 0 51.0299 12.5613 641 104.688 724.715 489.373
302 0 52.0712 11.5995 604 108.346 724.321 488.235
303 0 53.0243 11.655 618 108.178 724.173 488.435
304 0 52.0061 10.941 569 111.777 724.07 488.067
305 0 54.048 12.1744 658 109.947 724.195 486.547
306 0 56.0752 12.0374 675 108.194 725.224 486.484
307 0 58.0538 12.2817 713 108.475 724.64 484.188
308 0 58.0908 12.2395 711 109.512 724.287 484.741
309 0 62.1149 12.2998 764 108.295 724.703 483.398
310 0 62.0342 12.6704 786 108.335 724.64 481.492
311 0 64.0557 11.2558 721 110.96 723.714 482.861
312 0 66.1378 12.0808 799 108.35 724.193 479.922
313 0 68.3369 13.5505 926 104.689 723.536 479.765
314 0 69.2749 11.9235 826 108.426 723.447 477.884
315 0 71.1831 12.4749 888 108.859 723.184 475.721
316 0 77.2068 13.4315 1037 105.649 722.867 476.532
317 0 78.3593 12.7617 1000 107.633 722.924 475.321
318 0 80.3484 13.0805 1051 106.704 722.685 473.53
319 0 83.5319 12.4862 1043 107.006 722.825 473.111
320 0 87.3721 13.7 1197 104.761 722.261 470.029
321 0 90.1668 12.1552 1096 100.284 721.777 470.179
322 1 46.0661 10.4415 481 95.9064 721.57 492.913
323 0 45.2175 11.6105 525 95.8038 722.457 491.897
324 0 47.1171 11.5669 545 94.2862 721.077 490.431
325 0 49.0845 11.9182 585 95.3487 721.535 489.489
326 0 50.0647 12.9233 647 93.9444 721.553 489.943
327 0 52.0753 10.7921 562 99.2794 722.018 488.432
328 0 54.0597 11.3578 614 98.2508 722.169 488.314
329 0 56.1017 14.4381 810 92.5481 722.335 486.312
330 0 57.0389 13.3768 763 96.0236 721.798 486.385
331 0 57.0317 12.8174 731 97.948 722.041 487.575
332 0 60.0741 12.5179 752 97.8059 722.758 485.238
333 0 62.0541 12.4246 771 98.7938 722.377 483.351
334 0 65.0756 12.5854 819 97.8718 721.99 484.774
335 0 65.0305 13.1938 858 97.9161 722.157 484.3
336 0 67.0813 13.1184 880 99.342 721.636 480.094
337 0 71.0761 13.0002 924 98.7695 722.161 481.528
338 0 71.0698 13.6908 973 98.5663 722.003 479.917
339 0 72.108 12.8696 928 101.288 721.706 478.287
340 0 74.1089 12.3872 918 102.439 721.779 476.147
341 0 79.1056 14.8788 1177 97.2481 722.41 475.466
342 0 82.1403 14.6944 1207 98.2527 722.212 474.74
343 0 84.0563 13.027 1095 103.246 722.61 474.979
344 0 87.0616 15.311 1333 100.012 722.686 472.93
345 0 90.1641 14.1298 1274 102.536 722.783 472.327
346 0 92.084 13.3899 1233 106.529 722.7 470.912
347 0 94.1727 12.3815 1166 109.653 722.639 469.545
348 0 98.0824 13.7333 1347 107.136 722.235 463.897
349 1 52.1083 11.3226 590 107.864 722.471 489.466
350 0 51.0692 11.9446 610 107.328 724.77 488.834
351 0 51.1584 12.0606 617 105.618 724.812 488.981
352 0 54.1802 12.0155 651 106.716 725.576 490.283
353 0 55.0818 12.7992 705 106.855 724.709 488.21
354 0 58.0986 13.2533 770 105.556 724.761 488.41
355 0 58.2164 13.1406 765 105.141 724.481 486.312
356 0 60.1007 12.3459 742 106.115 723.889 485.574
357 0 62.1725 12.1758 757 107.538 723.811 485.933
358 0 64.1093 12.9934 833 106.922 723.833 483.738
359 0 66.1337 13.5634 897 105.827 724.183 483.865
360 0 68.1263 13.563 924 105.725 723.514 483.485
361 0 72.195 14.0453 1014 103.86 724.192 478.848
362 0 73.2029 13.3191 975 105.942 724.168 479.254
363 0 75.1307 12.8177 963 106.891 724.33 479.593
364 0 77.0819 12.091 932 108.615 724.603 475.914
365 0 80.0721 13.6627 1094 107.14 724.154 476.948
366 0 82.1721 12.7172 1045 117.223 724.014 474.594
367 0 88.3036 13.0459 1152 115.125 723.604 473.668
368 0 86.1724 12.7651 1100 116.959 723.594 472.617
369 0 92.1577 12.3375 1137 113.702 724.345 469.291
370 0 94.213 12.8645 1212 113.63 723.903 469.469
371 0 96.2888 11.424 1100 115.282 722.96 467.35
372 0 102.319 12.6859 1298 113.008 722.951 463.23
373 0 105.383 12.298 1296 113.639 723.771 461.516
374 1 52.1325 11.183 583 107.003 722.636 488.647
375 0 53.1476 10.3297 549 108.96 722.158 488.574
376 0 53.1023 10.0937 536 110.985 722.009 489.524
377 0 57.1009 11.2783 644 106.064 721.138 489.227
378 0 60.0703 12.0026 721 105.634 721.716 487.05
379 0 61.0853 11.443 699 107.206 722.253 485.126
380 0 62.1542 11.6163 722 107.544 721.805 485.241
381 0 65.1481 11.1438 726 107.517 721.384 484.73
382 0 65.1806 11.5832 755 109.799 721.689 481.344
383 0 68.1993 10.4253 711 109.895 721.578 483.301
384 0 71.1035 11.2653 801 109.707 722.554 479.227
385 0 75.1312 12.4582 936 107.515 722.607 478.139
386 0 76.1086 12.1274 923 108.748 722.575 477.464
387 0 80.1182 12.3692 991 107.343 722.534 476.124
388 0 84.3312 12.6169 1064 107.094 724.039 475.716
389 1 46.0399 10.5126 484 108.221 723.043 493.331
390 0 47.0227 12.6322 594 101.854 723.684 492.96
391 0 46.0475 12.5088 576 101.113 724.938 492.198
392 0 48.063 11.693 562 104.664 723.454 492.336
393 0 50.0305 11.413 571 104.704 723.245 492.156
394 0 49.0589 12.169 597 104.583 722.735 491.049
395 0 54.0298 13.289 718 100.311 721.905 489.304
396 0 54.0795 11.4276 618 104.741 721.833 490.646
397 0 56.0544 13.3085 746 100.842 722.106 487.273
398 0 59.0312 12.2308 722 102.97 722.902 486.975
399 0 58.0719 12.3984 720 104.168 722.029 485.701
400 0 61.0491 12.3999 757 103.279 722.801 484.639
401 0 65.1009 13.794 898 85.559 722.351 487.467
402 0 66.0494 13.1568 869 101.362 722.458 483.547
