time division length width area intensity CMx CMy
0 0 31.0703 12.52 389 142.239 1032.23 486.033
1 0 33.0734 13.1223 434 138.166 1032.73 485.912
2 0 34.0276 13.0188 443 138.718 1032.26 485.422
3 0 35.0174 14.1358 495 135.04 1032.3 485.699
4 0 37.042 12.1484 450 139.036 1033.09 485.747
5 0 38.0915 13.4938 514 135.391 1033.24 485.934
6 0 40.0532 13.3073 533 135.884 1032.17 484.647
7 0 39.1102 13.5003 528 137.475 1032.26 484.564
8 0 41.1083 14.2064 584 134.019 1032.45 484.243
9 0 41.0672 13.2709 545 136.703 1032.65 483.453
10 0 43.0411 13.6614 588 133.537 1032.75 482.825
11 0 42.0592 13.5999 572 132.458 1033.52 485.631
12 0 45.0425 13.0765 589 132.389 1033.17 485.115
13 0 45.0889 13.174 594 131.059 1032.96 484.902
14 0 47.0727 14.0846 663 127.557 1032.39 484.302
15 0 49.0711 13.3072 653 128.314 1032.91 484.308
16 0 50.0656 12.963 649 128.883 1032.92 483.166
17 0 51.0439 13.2043 674 127.944 1032.79 484.298
18 0 54.058 13.652 738 125.921 1032.42 483.56
19 0 54.0337 13.4546 727 127.527 1032.64 481.314
20 0 56.143 12.9491 727 127.84 1032.39 481.475
21 0 58.0931 13.7538 799 126.13 1032.51 480.852
22 0 61.3103 15.022 921 122.374 1031.83 481.382
23 0 63.0711 13.4451 848 124.388 1032.04 481.139
24 0 65.0909 12.7207 828 126.523 1032.57 480.082
25 0 66.0882 12.9221 854 126.296 1031.84 479.738
26 0 70.1262 14.0889 988 123.796 1031.71 478.777
27 0 72.0539 13.8646 999 126.699 1031.13 475.89
28 0 74.192 12.9664 962 129.99 1032.11 475.448
29 0 77.1366 13.9752 1078 127.986 1031.92 473.667
30 1 38.0105 12.3124 468 131.427 1031.54 492.686
31 0 41.0587 13.8826 570 126.709 1031.22 490.349
32 0 41.0708 12.3689 508 130.4 1030.91 490.238
33 0 43.048 13.0784 563 126.853 1030.72 490.361
34 0 43.0396 12.8254 552 127.226 1030.88 489.556
35 0 43.0611 13.7015 590 126.168 1030.43 487.368
36 0 44.0279 12.3104 542 129.432 1030.92 488.959
37 0 46.0303 13.9256 641 125.587 1030.87 487.696
38 0 47.0776 12.1502 572 130.311 1030.78 486.986
39 0 49.0295 13.6041 667 126.742 1030.4 485.222
40 0 52.0711 13.7504 716 126.106 1030.25 483.758
41 0 54.0677 13.853 749 125.836 1030.5 482.154
42 0 56.1011 13.8678 778 126.027 1030.43 482.897
43 0 58.1655 13.857 806 126.95 1030.14 480.502
44 0 59.1532 13.7271 812 127.94 1029.94 479.972
45 0 63.1584 14.7882 934 123.49 1029.84 480.451
46 0 66.1312 15.7263 1040 120.556 1029.22 478.842
47 0 68.1131 14.3878 980 125.333 1028.99 478.6
48 0 71.1031 14.5141 1032 125.333 1029.6 476.322
49 0 73.0988 14.5146 1061 125.313 1029.38 474.317
50 0 74.1452 14.5256 1077 125.123 1029.55 473.72
51 0 78.0549 15.8222 1235 122.858 1029.4 469.602
52 0 81.1691 14.8702 1207 125.229 1029.21 469.278
53 0 86.118 14.9446 1287 124.058 1029.09 465.886
54 0 86.2171 14.9738 1291 125.362 1028.55 463.023
55 0 92.1229 14.676 1352 125.258 1027.81 463.444
56 1 45.1187 11.769 531 128.819 1028.42 487.16
57 0 49.1435 13.3487 656 122.919 1028.75 485.599
58 0 49.0157 13.2202 648 124.301 1029.33 487.36
59 0 53.0846 14.3544 762 118.495 1028.99 485.778
60 0 53.1855 11.8453 630 125.487 1028.75 484.243
61 0 56.0828 13.4979 757 118.744 1028.45 484.325
62 0 59.1677 13.6561 808 119.281 1029.04 482.423
63 0 61.1898 14.2998 875 119.193 1028.91 481.273
64 0 64.1432 14.5456 933 117.698 1028.54 481.032
65 0 64.0939 13.6987 878 118.983 1028.13 477.288
66 0 64.0964 12.5124 802 126.531 1028.75 476.714
67 0 69.0617 14.0454 970 120.192 1029.06 477.831
68 0 71.0683 13.086 930 124.027 1028.47 474.733
69 0 77.1666 13.9827 1079 121.639 1028.02 474.474
70 0 78.347 14.0146 1098 122.54 1027.94 473.053
71 0 79.2089 13.5212 1071 124.913 1027.54 470.764
72 0 83.1045 13.7658 1144 123.885 1027.77 469.863
73 0 85.2254 13.7048 1168 125.899 1027.27 466.22
74 0 88.2788 14.76 1303 120.695 1027.46 465.678
75 0 90.1369 13.2798 1197 125.662 1028.27 463.367
76 0 96.1529 14.0401 1350 122.288 1027.47 463.554
77 0 98.244 13.8736 1363 123.602 1027.92 462.18
78 1 52.1129 10.8802 567 112.938 1028.32 487.194
79 0 52.066 12.004 625 110.891 1029.08 486.331
80 0 54.0702 12.2618 663 113.735 1029.11 482.078
81 0 58.0717 13.38 777 109.64 1028.4 481.888
82 0 60.0747 12.4345 747 110.355 1028.01 481.305
83 0 62.0999 12.5121 777 111.32 1028.19 480.731
84 0 64.0926 13.4805 864 121.005 1028.98 482.61
85 0 66.1675 13.6321 902 119.724 1029.1 481.902
86 0 69.216 13.6674 946 120.97 1029.29 480.961
87 0 71.1454 14.3509 1021 119.648 1028.99 480.996
88 0 73.1708 14.186 1038 120.458 1028.1 480.46
89 0 75.1306 13.6961 1029 121.414 1027.36 479.63
90 0 78.1107 14.8251 1158 120.013 1027.69 478.49
91 0 80.1587 14.2966 1146 122.065 1027.58 477.491
92 0 82.2566 13.4336 1105 128.792 1027.22 474.458
93 0 86.2193 13.9876 1206 127.584 1026.98 473.158
94 0 89.1934 14.6872 1310 128.895 1026.4 470.42
95 0 89.1085 13.9605 1244 131.88 1026.84 469.636
96 0 96.1736 14.7026 1414 126.243 1027.14 470.354
97 1 47.0584 11.6239 547 124.587 1026.86 495.106
98 0 50.0471 12.5282 627 122.352 1026.8 490.606
99 0 51.0317 12.9723 662 121.435 1027.04 492.452
100 0 52.0687 12.906 672 119.539 1027.36 491.841
101 0 52.0686 12.3875 645 121.625 1027.65 491.904
102 0 56.0515 13.3092 746 117.249 1028 490.613
103 0 57.0361 13.0093 742 118.78 1027.8 490.08
104 0 59.1122 13.043 771 118.398 1027.62 489.016
105 0 60.0167 11.7467 705 123.111 1027.41 487.348
106 0 63.0406 13.1027 826 118.709 1027.89 486.094
107 0 63.0618 12.8921 813 119.619 1027.5 486.528
108 0 65.086 12.6602 824 120.927 1027.93 485.443
109 0 68.0746 12.6773 863 119.476 1027.03 485.114
110 0 70.0924 12.4122 870 122.063 1026.77 482.877
111 0 71.0966 11.4914 817 125.029 1027.06 481.255
112 0 75.1944 11.6897 879 122.981 1026.96 482.279
113 0 78.1528 12.1301 948 122.653 1027.21 479.414
114 0 80.1556 13.2617 1063 120.19 1027.74 477.828
115 0 84.0946 13.14 1105 119.784 1027.42 475.268
116 0 85.131 12.7098 1082 120.31 1027.57 475.338
117 0 88.2621 12.9274 1141 120.388 1027.29 472.309
118 1 46.0309 11.4271 526 117.285 1028.45 492.966
119 0 49.0971 11.9763 588 112.857 1027.7 494.032
120 0 50.0886 12.8572 644 106.255 1026.99 491.144
121 0 52.0127 12.6892 660 108.342 1027.69 491.814
122 0 51.0328 12.6781 647 110.621 1027.78 490.32
123 0 53.0668 13.6432 724 106.664 1026.81 490.539
124 0 54.1047 11.6071 628 110.868 1027.96 491.57
125 0 54.1113 10.7556 582 113.191 1027.72 490.244
126 0 56.0507 11.7929 661 111.968 1027.29 487.005
127 0 61.2006 11.977 733 110.348 1028.36 487.836
128 0 63.0984 12.7896 807 109.281 1027.82 486.004
129 0 64.0772 12.1104 776 112.879 1028.3 483.469
130 0 65.2149 12.0985 789 113.938 1027.79 484.52
131 0 67.131 11.6489 782 115.862 1028.6 480.313
132 0 71.1018 12.9955 924 113.384 1028.34 480.036
133 0 74.1419 13.5011 1001 111.482 1028.27 479.504
134 0 76.1052 12.2725 934 113.806 1028.79 479.584
135 0 77.0926 11.8559 914 116.848 1028.39 475.711
136 0 80.1987 13.1174 1052 114.815 1028.29 474.477
137 0 84.1438 13.6196 1146 112.291 1027.72 475.237
138 0 86.1334 12.3645 1065 115.114 1028.48 472.002
139 0 88.1005 13.11 1155 114.617 1028.91 468.744
140 0 92.134 13.882 1279 111.494 1028.89 469.199
141 0 92.1361 13.1762 1214 140.442 1027.92 468.61
142 0 97.0929 13.3686 1298 112.936 1028.41 465.27
143 0 99.1557 13.1208 1301 113.247 1028.65 461.661
144 0 101.129 12.6868 1283 115.094 1028.54 460.097
145 0 106.143 12.973 1377 114.502 1028.21 459.367
146 0 108.102 12.2939 1329 116.426 1029.06 456.869
147 0 114.172 14.0927 1609 112.615 1028.03 452.744
148 0 117.232 13.162 1543 114.409 1027.91 450.515
149 1 66.0746 11.8351 782 105.471 1027.69 476.312
150 0 67.2129 11.4115 767 106.07 1027.45 476.047
151 0 71.1359 13.2001 939 104.666 1026.69 478.07
152 0 72.1586 10.8372 782 109.93 1027.1 479.132
153 0 75.0917 11.7989 886 108.501 1027.04 477.853
154 0 76.1358 11.2693 858 110.575 1027.14 476.35
155 0 81.087 12.8997 1046 113.819 1026.3 472.992
156 0 82.1354 12.102 994 115.531 1025.82 473.854
157 0 88.1054 13.5066 1190 111.671 1025.91 472.157
158 0 93.1268 12.5957 1173 112.772 1026.26 471.243
159 0 93.1094 11.9644 1114 116.365 1026.33 470.138
160 0 96.1061 11.1127 1068 113.69 1025.96 466.767
161 1 51.0968 11.7229 599 101.028 1025.82 489.893
162 0 52.0582 12.4476 648 98.9012 1026.49 489.972
163 0 54.1732 12.1278 657 106.353 1026.82 489.673
164 0 54.1502 10.6002 574 105.291 1027.3 488.596
165 0 57.2022 13.1464 752 101.024 1027.26 486.945
166 0 57.0692 10.8114 617 105.739 1027 487.927
167 0 61.1177 11.4533 700 105.016 1027.04 484.301
168 0 63.1577 10.6084 670 107.334 1027.63 485.763
169 0 64.2154 10.9787 705 109.074 1027.21 482.092
170 0 68.1462 11.8569 808 109.869 1027.31 481.894
171 0 70.1058 12.0817 847 110.915 1027.26 480.032
172 0 73.3462 12.1206 889 110.245 1026.31 478.44
173 0 76.2192 12.569 958 110.238 1026.17 477.057
174 0 78.1845 12.9565 1013 109.752 1026.42 475.302
175 0 82.3173 12.7069 1046 109.728 1025.97 474.228
176 0 84.3632 11.5572 975 112.865 1025.92 471.294
177 0 87.3618 12.3967 1083 113.128 1026.46 467.247
178 0 91.4338 12.5993 1152 112.676 1026.15 466.785
179 0 94.2799 13.9478 1315 109.665 1026.18 467.708
180 0 94.3492 13.4606 1270 113.413 1025.63 463.654
181 0 100.49 13.0859 1315 113.972 1026.5 461.448
182 0 101.313 12.871 1304 116.163 1026.62 460.014
183 0 101.31 12.8911 1306 139.91 1026.63 460.217
184 0 110.369 12.431 1372 118.044 1026.19 453.166
185 0 115.489 12.538 1448 116.356 1026.02 455.737
186 0 119.536 13.4855 1612 114.303 1026.02 453.107
187 0 123.515 13.464 1663 117.023 1026.28 448.384
188 0 129.399 13.7482 1779 116.21 1025.38 448.067
189 0 133.511 14.6505 1956 115.476 1025.56 445.908
190 1 67.3204 13.3095 896 109.857 1025.8 478.585
191 0 70.1982 12.6641 889 111.713 1025.36 477.817
192 0 74.334 13.0492 970 110.365 1025.51 476.164
193 0 75.3113 11.2466 847 115.679 1025.77 474.904
194 0 77.343 13.0846 1012 112.173 1025.51 473.444
195 0 81.4941 13.0807 1066 112.268 1025.47 470.961
196 0 85.5362 13.7252 1174 110.339 1025.86 470.161
197 0 87.5738 12.2411 1072 114.297 1026.14 468.187
198 0 90.4784 12.0692 1092 114.909 1026.26 468.507
199 0 94.4749 13.5803 1283 112.33 1026.21 463.819
200 0 97.4689 12.4347 1212 115.889 1025.85 462.941
201 0 102.379 13.2644 1358 113.583 1026 462.228
202 1 53.4821 11.8357 633 108.003 1026.32 487.615
203 0 56.3752 12.062 680 107.363 1026.44 487.138
204 0 57.2285 13.2801 760 107.509 1026.61 486.171
205 0 57.1188 11.5724 661 111.648 1027.2 486.035
206 0 59.2741 11.6914 693 110.14 1027.46 485.515
207 0 61.1147 11.4048 697 111.713 1027.35 484.329
208 0 64.2878 12.584 809 107.277 1027.1 483.564
209 0 64.2668 10.9543 704 111.81 1026.43 482.197
210 0 70.2264 12.7445 895 106.535 1026.94 481.54
211 0 70.3872 12.4312 875 108.182 1025.49 474.798
212 0 74.4536 11.8866 885 109.46 1025.73 473.297
213 0 78.5824 12.0638 948 108.601 1025.38 470.845
214 0 78.4726 12.3865 972 109.686 1025.6 468.718
215 0 82.5037 12.1207 1000 110.239 1026.54 468.848
216 0 85.4743 13.8521 1184 106.465 1026.31 468.677
217 0 88.583 13.016 1153 109.219 1025.78 465.72
218 0 91.609 13.0773 1198 110.073 1026.06 462.601
219 0 95.6747 12.6679 1212 110.88 1027.02 459.932
220 0 96.5235 12.339 1191 113.433 1027.15 458.34
221 0 99.533 11.3631 1131 115.485 1026.24 459.446
222 0 106.429 12.7315 1355 113.089 1026.6 456.16
223 0 107.578 12.8279 1380 112.821 1026.55 453.405
224 1 59.4568 11.5882 689 111.527 1026.8 478.48
225 0 58.2593 12.4787 727 104.373 1027.42 474.271
226 0 60.1904 11.5135 693 104.473 1027.51 482.335
227 0 63.2074 11.1538 705 104.699 1027.3 483.603
228 0 65.1745 11.7377 765 105.848 1027.39 481.297
229 0 69.1971 12.3416 854 105.04 1027.13 479.301
230 0 70.2123 11.2943 793 106.908 1027.56 481.308
231 0 74.2208 13.7293 1019 109.156 1027.36 476.369
232 0 75.2802 12.925 973 111.946 1027.56 476.115
233 0 77.2956 13.1702 1018 113.476 1027.13 474.093
234 0 81.1383 13.5201 1097 112.727 1027.09 473.789
235 0 83.3875 13.4912 1125 114.026 1028.1 472.258
236 0 85.3291 12.6334 1078 116.285 1028.26 471.641
237 0 87.1202 12.4311 1083 106.597 1027.05 471.5
238 0 89.1092 12.2658 1093 108.091 1026.78 470.65
239 0 91.1043 12.3595 1126 108.788 1027.27 467.874
240 0 94.1163 11.1883 1053 113.095 1026.81 465.999
241 0 99.0882 12.4435 1233 110.469 1026.85 461.724
242 1 50.0467 11.1696 559 103.147 1026.43 489.687
243 0 52.0362 11.8956 619 101.564 1025.69 488.548
244 0 52.09 12.0561 628 100 1025.47 487.831
245 0 50.1118 9.97769 500 106.378 1025.88 488.05
246 0 53.0536 11.4601 608 102.817 1025.43 488.016
247 0 57.0867 12.3672 706 100.235 1025.39 486.346
248 0 59.0557 10.9896 649 103.205 1026.41 485.545
249 0 59.0781 11.9672 707 102.19 1026.04 483.079
250 0 61.0314 11.9774 731 100.706 1025.94 485.967
251 0 62.1476 11.3922 708 102.76 1025.22 482.531
252 0 64.0577 11.5209 738 103.087 1025.74 481.43
253 0 68.096 11.5132 784 102.744 1026.47 480.307
254 0 70.0779 11.4444 802 103.082 1025.93 479.724
255 0 72.0556 10.2837 741 105.787 1026.3 479.58
256 0 73.0448 11.5409 843 104.063 1026.97 478.146
257 0 73.0828 11.0696 809 107.037 1026.15 475.517
258 0 80.101 12.6091 1010 102.373 1026.32 475.602
259 0 82.0393 11.9089 977 104.953 1026.46 474.238
260 0 86.1175 11.2056 965 105.747 1028.29 472.447
261 0 87.164 11.312 986 108.209 1028.22 471.247
262 0 92.1812 11.6944 1078 113.442 1026.74 467.373
263 0 95.1825 11.9665 1139 112.025 1026.69 466.093
264 1 49.0426 12.3158 604 105.892 1027.5 488.445
265 0 51.0368 12.9906 663 100.057 1027.04 489.038
266 0 52.0312 11.8967 619 100.842 1026.49 488.108
267 0 54.0435 12.3974 670 98.4418 1026.45 490.475
268 0 55.0776 12.0013 661 100.737 1026.74 487.044
269 0 57.0905 11.8233 675 100.096 1027.28 487.744
270 0 58.0966 11.4809 667 99.9835 1026.92 487.864
271 0 60.12 13.3234 801 96.6841 1026.38 484.557
272 0 62.1488 12.0356 748 98.8529 1026.49 484.377
273 0 62.0543 12.0378 747 100.336 1026.81 484.671
274 0 65.1171 12.4545 811 100.287 1025.79 479.867
275 0 65.1673 11.2326 732 103.984 1025.54 480.363
276 0 68.0747 12.9564 882 100.345 1025.25 479.731
277 0 70.0972 13.3814 938 99.9307 1026.01 479.414
278 0 72.2168 12.4348 898 101.049 1025.76 478.849
279 0 74.1397 12.7867 948 100.152 1026.13 479.405
280 0 74.1272 12.3841 918 102.584 1026.06 475.448
281 0 78.1158 11.9566 934 102.909 1026.64 475.531
282 0 80.1662 11.8629 951 103.572 1026.36 474.341
283 0 81.1216 11.5506 937 103.624 1025.6 473.926
284 0 84.2213 11.4579 965 104.403 1026.1 471.244
285 0 87.1521 12.0938 1054 104.177 1025.72 470.881
286 0 88.31 11.0067 972 108.051 1026.26 469.245
287 0 90.3555 11.6429 1052 107.267 1026.43 465.506
288 1 44.1645 11.0269 487 99.4004 1026.3 485.138
289 0 45.2287 9.46302 428 102.556 1025.9 481.958
290 0 48.0229 9.93275 477 94.1761 1025.97 482.92
291 0 50.019 10.7159 536 93.7202 1027.05 482.502
292 0 52.0385 10.4922 546 92.2491 1026.67 482.229
293 0 51.1667 10.8078 553 92.387 1026.81 481.579
294 0 55.0693 10.4051 573 94.7504 1027.18 480.677
295 0 55.0954 9.49263 523 95.2008 1027.84 478.981
296 0 59.2378 11.0909 657 92.6119 1027.12 477.84
297 0 59.1531 9.66983 572 95.9615 1027.41 475.565
298 0 61.2652 10.8381 664 94.2696 1027.68 476.837
299 0 66.0721 10.6096 701 94.4408 1026.98 474.203
300 0 67.0894 11.0152 739 94.9689 1026.3 472.559
301 0 71.1366 12.5111 890 93.3281 1026.55 472.656
302 0 72.2051 11.5781 836 96.8409 1025.92 470.224
303 0 73.2377 10.582 775 100.488 1026.13 468.489
304 0 75.2528 11.1225 837 103.257 1025.56 468.649
305 0 80.1796 11.5615 927 103.798 1025.9 468.613
306 0 79.1314 11.3103 895 107.609 1026.29 462.793
307 0 84.122 12.7196 1070 106.054 1026.06 464.395
308 0 83.2269 11.3665 946 113.142 1025.87 461
309 0 91.3755 11.9945 1096 110.741 1026.28 459.297
310 0 94.2288 12.3954 1168 110.434 1026.27 460.027
311 0 95.1881 12.47 1187 111.515 1025.41 458.638
312 1 49.0743 10.0052 491 99.0815 1026.91 485.454
313 0 51.2787 9.69214 497 100.489 1026.83 485.107
314 0 53.1347 11.8378 629 105.299 1027.63 487.558
315 0 54.173 11.8694 643 106.232 1026.91 487.925
316 0 54.2445 11.3376 615 109.319 1027.06 486.361
317 0 58.1174 11.9586 695 106.892 1026.81 485.635
318 0 59.0994 10.7277 634 107.722 1026.65 487.162
319 0 61.1567 12.1982 746 108.479 1027.78 484.186
320 0 64.1179 12.6954 814 108.208 1027.31 480.494
321 0 68.1615 13.0425 889 106.675 1027.78 481.415
322 0 69.0774 13.6513 943 106.505 1027.49 479.243
323 0 74.2982 12.7998 951 112.426 1027.58 479.183
324 0 75.4097 11.5502 871 115.597 1026.8 478.581
325 0 78.2854 14.1278 1106 110.069 1027.09 476.307
326 0 80.211 11.6318 933 115.595 1027.1 476.906
327 0 83.3107 13.7077 1142 111.072 1027.58 473.79
328 0 83.2438 12.049 1003 117.601 1027.78 471.814
329 1 47.0429 10.8199 509 109.589 1029.32 494.556
330 0 47.062 10.9855 517 111.015 1028.82 492.087
331 0 50.0236 13.7535 688 103.634 1028.78 490.897
332 0 53.0739 12.5108 664 108.875 1029.59 490.175
333 0 49.0258 10.9126 535 109.561 1027.24 492.4
334 0 51.0725 11.5718 591 108.492 1026.7 491.697
335 0 52.0601 11.5251 600 110 1027.03 490.518
336 0 54.0825 11.0757 599 111.321 1027.46 489.743
337 0 56.0378 13.0448 731 106.551 1026.11 487.759
338 0 59.0418 10.6027 626 110.406 1025.83 488.141
339 0 61.0232 12.3396 753 107.243 1025.52 486.728
340 0 63.0224 13.2969 838 106.587 1025.52 485.921
341 0 65.0647 12.1879 793 110.362 1026.06 484.718
342 0 67.1246 12.082 811 110.203 1026.33 483.822
343 0 68.09 12.2044 831 111.347 1026.94 481.742
344 0 73.1278 12.3893 906 110.809 1027.19 481.455
345 0 74.1045 13.9533 1034 109.29 1026.48 479.87
346 0 75.1707 12.7177 956 114.44 1026.69 475.857
347 0 79.1102 13.5507 1072 112.599 1026.63 477.451
348 0 82.1145 13.81 1134 112.731 1025.84 474.831
349 0 86.1193 13.7135 1181 113.18 1026.6 474.207
350 0 88.068 12.7515 1123 117.394 1026.11 470.997
351 0 91.1566 13.0435 1189 117.142 1026.63 470.97
352 0 95.2171 12.7918 1218 118.94 1028.01 469.374
353 1 53.0831 10.9639 582 118.601 1029.23 490.089
354 0 53.1751 11.4527 609 120.067 1027.52 488.483
355 0 55.3005 11.2657 623 114.581 1028.06 486.831
356 0 52.184 9.71562 507 114.458 1026.72 485.008
357 0 57.3388 12.0686 692 108.701 1026.44 482.85
358 0 59.2055 11.553 684 108.781 1026.59 483.091
359 0 61.1886 11.2766 690 110.101 1026.66 480.68
360 0 62.1137 12.4127 771 107.691 1026.06 481.047
361 0 63.2306 11.2604 712 111.223 1026.66 478.139
362 0 64.1695 11.3138 726 111.464 1026.83 477.348
363 0 68.2481 11.1798 763 109.478 1026.96 478.241
364 0 70.1032 11.0123 772 103.521 1027.23 477.999
365 0 70.1139 9.61293 674 106.171 1027.02 477.461
366 0 72.1569 10.4079 751 106.306 1027.07 474.012
367 0 75.1638 9.72543 731 108.773 1026.57 471.978
368 0 76.1628 10.1756 775 107.613 1026.74 471.644
369 0 82.1444 12.3806 1017 114.543 1026.63 476.618
370 0 84.18 11.4754 966 116.682 1026.29 476.905
371 0 87.1192 11.3982 993 117.243 1026.14 474.898
372 0 88.1448 12.0484 1062 116.6 1026.15 471.987
373 0 94.1581 12.5746 1184 114.959 1026.68 470.421
374 0 96.0913 13.0605 1255 114.402 1026.56 468.17
375 0 101.2 13.419 1358 112.32 1026.31 467.216
376 0 103.164 12.5043 1290 114.143 1026.01 465.963
377 1 54.2346 10.5836 574 105.052 1025.35 490.627
378 0 54.075 11.5025 622 103.775 1025.87 489.156
379 0 54.0667 11.5043 622 107.979 1025.74 489.466
380 0 56.2122 10.7628 605 110.069 1025.58 488.721
381 0 58.1151 10.5308 612 109.203 1025.33 488.322
382 0 59.0681 9.88689 584 112.507 1025.33 486.022
383 0 61.2825 11.7978 723 107.411 1025.57 484.891
384 0 62.2254 11.153 694 108.487 1026.48 486.125
385 0 64.2182 11.3208 727 108.287 1026.27 485.037
386 0 69.143 9.89255 684 110.731 1026.27 484.386
387 0 70.1802 12.0832 848 106.035 1026.58 482.481
388 0 72.1958 12.0367 869 106.848 1026.83 481.069
389 0 74.2054 11.576 859 107.778 1026.25 478.974
390 0 78.2064 12.0323 941 106.033 1026.49 479.071
391 0 79.2414 12.1906 966 108.049 1026.73 477.091
392 0 83.2169 12.3893 1031 106.584 1027.07 475.911
393 0 86.2594 12.0219 1037 107.118 1026.97 475.473
394 0 90.4061 12.5877 1138 105.886 1026.74 473.518
395 0 92.3863 11.7009 1081 108.116 1026.98 475.435
396 0 95.5101 12.4908 1193 108.499 1026.96 467.611
397 1 51.1499 10.5376 539 109.67 1026 486.755
398 0 53.0723 10.4197 553 112.606 1026.52 489.642
399 0 58.1112 11.4952 668 113.576 1026.04 488.263
400 0 59.1646 12.1356 718 111.352 1026.61 488.947
401 0 62.1845 14.1032 877 93.3603 1026.59 488.276
402 0 64.1709 12.4044 796 112.704 1026.63 488.412
