time division length width area intensity CMx CMy
0 0 73.2959 12.5246 918 78.3486 269.435 456.929
1 0 76.2119 10.7726 821 80.4007 269.132 454.035
2 0 77.4917 9.56231 741 82.0837 269.528 454.067
3 0 79.2941 10.1773 807 82.2218 268.488 453.181
4 0 82.2727 8.03426 661 85.3646 268.41 447.967
5 0 87.2563 10.0165 874 92.5801 268.867 450.293
6 1 24.0134 6.41308 154 83.2078 270.526 481.591
7 0 26.0195 9.03168 235 78.6468 271.357 481.162
8 0 28.2731 7.03848 199 81.4121 271.07 480.995
9 0 23.012 9.6906 223 78.2108 271.067 483.193
10 0 24.0158 7.61999 183 82.1148 269.727 479.978
11 1 104.171 10.8188 1127 92.6264 268.657 440.76
12 0 105.302 10.7026 1127 93.4481 269.776 436.087
13 0 109.289 10.55 1153 94.4666 269.711 434.748
14 0 111.218 9.94447 1106 95.6347 269.57 432.819
15 0 114.335 10.5654 1208 95.8377 269.315 431.116
16 0 116.343 8.84455 1029 98.7765 269.662 426.143
17 0 119.292 11.0234 1315 95.1308 269.37 428.493
18 0 123.406 9.47276 1169 99.4346 268.857 425.095
19 0 127.487 10.5423 1344 97.8609 269.191 423.009
20 0 131.471 10.7857 1418 97.0494 269.083 420.27
21 0 133.289 10.1884 1358 98.8483 269.244 419.022
22 0 138.285 11.7584 1626 96.4041 268.919 417.473
23 1 83.4281 10.7278 895 88.8983 269.268 448.285
24 0 84.4618 11.7213 990 89.3394 269.877 446.788
25 0 87.1702 11.1047 968 91.4339 270.122 447.332
26 0 89.4475 11.0344 987 91.8987 270.426 445.459
27 0 90.5765 10.5546 956 93.8452 270.473 443.031
28 0 92.5569 10.5557 977 93.9355 269.668 441.433
29 0 95.7078 10.7724 1031 94.5849 270.005 439.784
30 0 97.4672 9.56219 932 97.4431 269.818 437.782
31 0 100.3 9.45162 948 98.5654 269.653 436.696
32 0 104.153 12.232 1274 93.7747 269.746 435.947
33 0 108.362 12.3106 1334 92.8171 270.377 435.521
34 0 110.535 12.8466 1420 92.8951 270.051 433.723
35 0 116.51 11.1836 1303 96.6992 269.243 430.492
36 0 114.381 10.3689 1186 99.4688 269.454 426.644
37 0 119.521 12.4413 1487 95.6046 269.131 427.058
38 0 123.574 11.8148 1460 96.8178 269.414 424.101
39 0 126.455 12.3522 1562 96.6108 269.385 422.936
40 0 130.357 12.0362 1569 97.0803 269.273 418.92
41 0 135.254 12.702 1718 96.3207 269.595 417.997
42 0 139.505 14.3794 2006 93.1301 270.319 416.221
43 0 145.536 13.5842 1977 95.0875 270.73 413.424
44 0 147.402 12.2522 1806 98.0642 270.509 410.551
45 0 151.328 12.6744 1918 97.5323 269.996 410.546
46 0 156.592 11.8653 1858 98.43 269.595 411.779
47 0 160.469 13.3608 2144 95.7579 269.566 403.131
48 0 165.435 12.4822 2065 96.8765 270.315 405.654
49 0 170.316 12.8995 2197 97.1484 269.366 396.092
50 0 178.531 13.8351 2470 94.8227 269.339 398.395
51 0 184.275 13.876 2557 94.8447 269.261 396.531
52 0 188.546 14.6913 2770 94.4942 269.578 393.255
53 0 194.513 12.2511 2383 99.1414 269.732 390.337
54 0 199.565 13.9053 2775 96.4288 269.164 388.177
55 0 205.816 13.7502 2830 96.8449 269.516 383.2
56 0 211.693 13.2787 2811 98.4657 269.559 378.645
57 0 219.587 14.2358 3126 96.8193 269.253 383.178
58 0 224.69 13.69 3076 99.6947 269.428 378.321
59 0 231.983 14.0614 3262 100.367 268.591 371.027
60 0 237.77 14.493 3446 99.8619 269.088 371.723
61 0 245.46 13.7212 3368 104.012 268.523 364.521
62 0 250.567 12.7431 3193 106.298 269.138 364.112
63 0 259.692 13.8818 3605 104.442 268.781 357.508
64 0 268.612 14.0984 3787 104.906 269.042 353.91
65 1 70.4271 10.1239 713 88.467 269.637 455.234
66 0 74.4302 10.9767 817 88.9767 269.365 451.988
67 0 76.3438 11.6447 889 91.6895 269.047 453.601
68 0 77.2698 11.8416 915 92.6153 269.232 448.819
69 0 80.431 12.3957 997 91.2357 269.6 445.375
70 0 85.6044 12.0788 1034 91.0029 269.537 447.295
71 0 90.4197 15.7045 1420 60.8585 269.727 447.99
72 0 89.4049 12.2253 1093 92.6908 269.416 446.108
73 0 90.3989 12.4006 1121 93.2828 269.334 443.157
74 0 93.3833 13.2893 1241 92.1926 269.38 443.366
75 0 95.2352 12.1279 1155 95.2649 269.432 440.698
76 0 97.2969 12.282 1195 95.4644 269.354 439.491
77 0 101.287 11.1071 1125 98.1022 269.492 437.428
78 0 105.495 13.3181 1405 93.8456 269.465 436.29
79 0 109.389 13.4383 1470 93.5585 269.578 437.259
80 0 111.332 13.2936 1480 95.5966 269.576 434.747
81 0 115.326 13.5356 1561 96.435 269.655 431.324
82 0 118.258 13.4114 1586 97.0271 270.269 432.318
83 0 120.385 14.5366 1750 95.932 269.738 429.268
84 0 122.467 12.3788 1516 101.637 269.551 427.079
85 1 139.408 19.7622 2755 81.6298 270.535 415.135
86 0 133.323 15.7887 2105 94.1487 269.93 420.949
87 0 137.375 13.343 1833 98.7169 269.552 422.01
88 1 79.2831 10.3175 818 97.2848 269.165 447.35
89 0 80.3447 10.2185 821 97.1998 269.709 449.432
90 0 83.2772 10.4951 874 97.6156 270.312 448.025
91 0 88.3025 13.3065 1175 92.0264 269.983 447.21
92 0 90.4189 12.0661 1091 95.7122 269.884 443.142
93 0 92.3308 11.4588 1058 95.5955 269.53 445.405
94 0 96.3718 13.5102 1302 92.6252 269.377 443.418
95 0 97.3287 14.0657 1369 91.7305 268.934 442.532
96 0 100.478 12.6694 1273 95.0856 269.855 441.242
97 0 102.614 12.0841 1240 97.0944 270.127 438.806
98 0 105.462 12.7534 1345 96.2476 269.059 437.911
99 0 108.282 13.0308 1411 96.0432 269.82 435.176
100 0 111.35 12.1509 1353 89.2483 269.279 435.972
101 0 115.56 13.11 1515 88.431 269.677 434.316
102 0 118.336 14.0025 1657 87.6856 269.138 430.62
103 0 119.264 12.9796 1548 90.8301 268.965 427.845
104 0 121.316 12.1748 1477 92.7705 270.028 426.683
105 0 126.286 13.5961 1717 89.9569 269.215 429.908
106 0 130.237 13.6827 1782 90.5527 269.186 426.463
107 0 131.217 13.3519 1752 91.9566 269.033 426.657
108 0 136.308 12.5085 1705 93.0311 268.042 424.972
109 0 138.37 13.3049 1841 92.7762 269.218 421.721
110 0 142.272 13.7835 1961 92.8047 269.047 418.298
111 0 150.226 13.0204 1956 92.1293 270.128 421.332
112 0 153.354 14.7371 2260 89.8456 269.813 417.362
113 1 89.2009 11.4012 1017 88.5143 269.29 450.393
114 0 93.1957 12.7366 1187 87.7313 269.316 445.212
115 0 98.0783 12.9285 1268 87.3375 269.197 446.316
116 0 100.229 13.0801 1311 88.3257 269.603 442.21
117 0 102.182 11.548 1180 90.9271 269.986 441.625
118 0 105.277 12.5004 1316 90.5456 269.586 440.551
119 0 108.096 12.7571 1379 89.7397 269.503 439.372
120 0 109.228 12.1856 1331 91.4718 269.853 437.932
121 0 114.3 12.3798 1415 92.1965 269.966 433.282
122 0 118.134 12.8836 1522 91.4947 269.565 432.631
123 0 124.216 12.7842 1588 90.9855 270.025 433.893
124 0 124.177 11.999 1490 94.351 268.836 427.742
125 0 129.25 14.1973 1835 90.6153 268.84 425.588
126 0 133.299 14.2236 1896 90.693 269.036 423.847
127 0 135.369 12.2997 1665 95.0186 268.806 420.326
128 0 139.539 13.1433 1834 93.5229 269.475 418.264
129 0 145.291 13.0634 1898 93.3656 268.602 418.079
130 0 149.187 13.5065 2015 92.8516 268.892 413.733
131 0 153.291 13.8234 2119 91.7999 270.285 415.258
132 0 157.265 13.3151 2094 93.4943 269.076 409.591
133 0 164.202 13.9219 2286 91.5862 269.029 409.864
134 0 169.333 13.9547 2363 92.3623 269.331 404.253
135 1 13.0014 5.61477 73 68.1644 272.411 487.425
136 0 15.0118 8.65986 130 66.6462 272.531 484.738
137 0 15.0009 4.19976 63 68.9365 272.063 485.587
138 0 17.0571 5.56954 95 68.3684 272.621 483.358
139 0 11.0051 4.3616 48 68.7917 271.771 487.729
140 0 16.0245 5.99082 96 67.3333 271.562 485.469
141 0 25.0233 5.43494 136 69.4412 271.368 482.147
142 0 22.0085 5.86136 129 70.6899 271.24 479.682
143 0 14.0138 6.63631 93 67.1828 271.968 484.419
144 0 14.0125 6.56557 92 69.0326 272.293 482.576
145 0 22.0364 7.26073 160 68.0062 272.075 480.631
146 0 19.0233 6.62347 126 67.9762 272.143 483.46
147 0 14.0047 4.21288 59 70.7458 271.305 483.78
148 0 26.0121 6.72764 175 69.2971 270.686 476.886
149 0 21.0504 2.70779 57 73.4737 271.386 479.772
150 0 24.0359 4.24366 102 72.902 271.765 476.137
151 0 14.0025 3.49937 49 73.4898 271.184 481.898
152 0 18.0764 5.5874 101 69.7624 270.832 482.416
153 0 22.0196 3.95102 87 74.1839 271.69 477.954
154 0 23.0053 5.95516 137 70.2555 270.883 478.438
155 1 245.408 13.7404 3372 91.0142 268.46 358.88
156 0 254.357 13.0525 3320 92.2009 267.407 357.827
157 0 264.442 13.8254 3656 91.1939 267.996 349.167
158 0 267.472 13.6837 3660 91.2978 267.883 352.589
159 0 277.366 14.9009 4133 88.8052 268.234 345.124
160 0 278.515 10.6386 2963 93.8262 267.9 354.043
161 0 275.421 9.78502 2695 91.6271 268.026 363.604
162 0 326.571 8.36572 2732 92.2738 267.503 357.258
163 0 326.388 8.20802 2679 93.6323 267.673 347.689
164 0 325.542 13.0705 4255 91.1293 267.115 313.893
165 1 270.55 10.2125 2763 89.6898 266.378 356.407
166 0 277.429 13.5026 3746 85.8783 267.378 346.121
167 0 284.513 12.3474 3513 87.5673 267.36 342.716
168 0 295.415 11.5668 3417 89.0948 267.445 343.87
169 0 304.44 11.2732 3432 89.9522 267.186 338.225
170 0 314.511 11.3955 3584 90.0234 266.583 330.072
171 0 19.091 5.76189 110 66.6545 267.136 485.509
172 0 19.0356 6.0413 115 68.4696 266.696 481.991
173 0 19.0219 7.57023 144 66.8958 267.917 482.91
174 0 18.0435 3.8241 69 62.9565 267.87 483.174
175 0 21.0167 5.13876 108 62.7963 269.306 481.519
179 0 379.704 16.792 6376 80.8828 266.689 276.064
181 0 374.608 14.8262 5554 86.7973 268.209 277.528
