time division length width area intensity CMx CMy
0 0 33.0184 10.8727 359 136.914 1257.31 487.894
1 0 33.0221 11.9011 393 137.865 1257.24 486.295
2 0 34.0057 11.5275 392 136.829 1257.78 485.969
3 0 35.0292 11.2478 394 135.566 1257.76 487.703
4 0 36.0287 11.8794 428 135.764 1258.81 485.488
5 0 37.0196 12.831 475 132.895 1258.87 485.535
6 0 38.0317 11.9111 453 135.775 1258.92 485.291
7 0 39.035 12.476 487 133.076 1258.48 484.374
8 0 40.0644 13.1289 526 129.348 1257.6 485.373
9 0 40.0836 12.3242 494 133.48 1257.68 484.933
10 0 42.025 13.0636 549 131.306 1257.7 484.545
11 0 44.0342 11.5365 508 134.705 1257.76 485.236
12 0 44.0093 12.7473 561 131.889 1257.65 483.977
13 0 44.0199 12.4489 548 134.25 1257.83 483.827
14 0 47.0192 14.0155 659 128.323 1257.68 484.736
15 0 49.0275 13.6046 667 129 1257.32 484.079
16 0 49.014 13.894 681 129.803 1257.42 483.457
17 0 49.0725 14.3869 706 129.429 1257.28 483.776
18 0 51.0463 13.6935 699 131.207 1256.54 481.75
19 0 52.0544 13.4283 699 131.514 1257.22 483.066
20 0 55.0386 13.645 751 131.084 1256.79 481.348
21 0 55.1059 13.4468 741 133.646 1256.27 480.626
22 0 57.082 14.4704 826 129.633 1256.06 481.521
23 0 57.0285 13.2565 756 134.552 1255.62 481.163
24 0 61.0641 15.0498 919 127.78 1255.61 479.779
25 0 62.101 14.8629 923 128.402 1255.99 479.013
26 0 63.049 12.8154 808 134.722 1255.72 480.309
27 0 67.0648 13.4944 905 132.524 1255.95 478.69
28 0 68.0473 13.5347 921 132.689 1255.64 477.937
29 0 70.0571 14.1028 988 132.379 1255.2 474.415
30 0 74.1765 15.3283 1137 127.158 1255.17 474.551
31 0 75.0583 14.2023 1066 132.881 1254.75 473.677
32 0 77.1093 14.1617 1092 132.634 1255.02 473.332
33 0 82.0819 14.8998 1223 128.081 1254.34 471.851
34 1 41.0552 13.0556 536 139.854 1254.89 489.399
35 0 43.0398 13.778 593 136.002 1254.99 489.024
36 0 44.009 12.6111 555 128.697 1254.37 487.714
37 0 46.0179 13.9294 641 136.591 1253.29 487.565
38 0 48.0583 13.5668 652 135.707 1253.23 486.991
39 0 50.0459 13.9672 699 135.429 1253.32 485.926
40 0 51.0195 14.1122 720 135.011 1253.47 485.274
41 0 53.0948 13.9938 743 135.192 1253.88 485.254
42 0 55.0814 15.5043 854 129.89 1253.62 483.299
43 0 56.0655 13.7339 770 135.758 1253.53 484.222
44 0 57.0799 14.4534 825 133.458 1254.07 483.701
45 0 59.0636 14.8315 876 130.457 1253.95 482.261
46 0 61.0679 14.2137 868 130.227 1253.43 481.763
47 0 63.1144 13.6736 863 131.397 1253.05 481.503
48 0 66.0525 14.7307 973 128.782 1253.28 479.028
49 0 68.0838 14.394 980 130.616 1253.6 477.912
50 0 70.0359 14.9638 1048 127.746 1253.26 478.802
51 0 73.1047 14.4314 1055 128.38 1253.06 476.288
52 0 76.2043 14.4611 1102 126.563 1253.3 476.933
53 0 79.0426 14.6756 1160 126.597 1253.49 473.767
54 0 80.0801 14.0235 1123 128.277 1253.44 471.742
55 1 41.0244 11.2372 461 128.26 1253.19 492.373
56 0 43.0392 11.7567 506 126.972 1253.65 491.458
57 0 45.0305 12.7469 574 118.906 1254.74 490.502
58 0 45.0502 13.8068 622 114.476 1254.54 491.592
59 0 48.0261 14.7211 707 112.185 1254.51 489.321
60 0 49.0935 13.7085 673 114.627 1254.2 488.733
61 0 51.055 13.3385 681 114.473 1254.45 488.029
62 0 53.0778 14.6766 779 109.25 1254.7 487.467
63 0 54.0954 14.1232 764 110.099 1255.04 486.878
64 0 55.1037 12.7759 704 113.459 1254.68 486.599
65 0 57.1054 14.1843 810 111.46 1254.7 485.543
66 0 62.0483 12.861 798 111.728 1254.35 485.236
67 0 62.1326 14.2437 885 110.348 1254.55 484.217
68 0 62.1402 12.7936 795 113.95 1254.2 481.865
69 0 67.1662 14.5013 974 108.466 1253.53 480.016
70 0 67.0969 13.7413 922 111.49 1253.68 478.559
71 0 71.0977 14.248 1013 109.654 1253.46 478.672
72 0 74.1188 13.7482 1019 109.871 1253.78 479.688
73 0 77.1261 14.6384 1129 108.283 1253.57 476.008
74 0 79.2064 14.2413 1128 109.097 1253.41 475.125
75 0 83.2542 13.693 1140 110.179 1253.17 472.251
76 1 43.1461 11.3568 490 111.212 1254.19 490.759
77 0 44.0963 11.7017 516 108.101 1253.52 488.159
78 0 45.142 10.8989 492 113.811 1253.27 487.394
79 0 47.1012 12.0591 568 110.644 1253.1 488.164
80 0 47.1438 12.6422 596 109.919 1253.35 488.06
81 0 51.1028 13.737 702 110.877 1253.91 488.748
82 0 52.162 14.3399 748 104.027 1253.73 488.916
83 0 53.0742 13.6978 727 104.418 1253.98 488.895
84 0 55.1477 13.4185 740 106.273 1253.37 488.034
85 0 57.073 11.6342 664 109.687 1253.65 488.125
86 0 58.0877 13.0837 760 108.329 1252.76 486.908
87 0 60.1504 13.3332 802 108.645 1253.2 485.825
88 0 62.0358 12.9764 805 110.393 1252.39 485.034
89 0 63.1012 13.6923 864 110.416 1251.9 483.399
90 0 65.0435 13.7139 892 110.613 1251.99 482.193
91 0 69.0869 13.1573 909 111.382 1251.66 482.292
92 0 70.165 12.6274 886 110.995 1252.17 481.263
93 0 73.2077 13.2636 971 110.058 1251.46 479.9
94 0 76.0746 13.9994 1065 108.211 1251.62 477.533
95 0 79.1283 13.5729 1074 108.912 1251.78 476.516
96 0 81.0657 13.5322 1097 109.319 1252.01 476.807
97 0 86.2985 13.6619 1179 111.004 1252.05 473.726
98 0 87.2452 12.9291 1128 115.861 1252.12 471.509
99 0 91.168 13.9852 1275 111.652 1252.16 471.068
100 1 47.0313 11.907 560 109.15 1252.67 492.407
101 0 50.1893 12.5326 629 109.626 1251.82 486.606
102 0 51.1083 13.0899 669 107.795 1252.55 489.643
103 0 53.0241 13.4467 713 105.244 1252.71 489.18
104 0 52.0273 12.1475 632 108.258 1251.98 490.809
105 0 56.0906 13.6743 767 106.193 1252.14 486.784
106 0 58.0616 12.6073 732 107.399 1252.15 487.541
107 0 59.0302 12.536 740 108.223 1251.93 487.351
108 0 60.1176 12.3924 745 109.789 1251.87 484.251
109 0 63.0805 13.3322 841 107.002 1251.49 484.458
110 0 64.094 12.6689 812 109.895 1251.41 484.094
111 0 66.0946 12.6637 837 109.399 1251.13 483.297
112 0 69.1215 13.6716 945 108.472 1251.41 481.093
113 0 71.0902 13.7009 974 109.164 1251.04 477.552
114 0 75.1534 13.8916 1044 107.476 1251.07 478.6
115 0 76.1067 14.7819 1125 106.983 1251.28 476.897
116 0 79.0716 12.8618 1017 111.067 1251.22 476.069
117 0 81.1091 13.8209 1121 109.903 1251.38 474.403
118 0 85.116 13.8869 1182 109.292 1251.11 472.864
119 0 86.0664 12.8273 1104 113.086 1251.86 471.364
120 0 89.1314 12.3862 1104 114.364 1250.75 471.901
121 0 90.0664 11.1251 1002 118.213 1250.65 470.092
122 0 96.086 11.6978 1124 116.41 1250.69 466.928
123 1 51.0583 12.4955 638 109.864 1250.66 490.02
124 0 52.062 13.4647 701 110.364 1251.02 487.673
125 0 55.0368 13.6454 751 108.314 1250.55 487.847
126 0 56.0772 12.3758 694 111.086 1251.14 487.398
127 0 59.0475 13.7347 811 107.339 1251.5 485.051
128 0 60.1156 13.1247 789 109.934 1250.82 484.479
129 0 63.1117 13.6583 862 110.479 1250.11 485.07
130 0 64.1302 12.4123 796 115.098 1250.32 483.338
131 0 66.1451 13.1831 872 114.735 1250.07 482.724
132 0 67.2241 13.3583 898 115.781 1250.37 481.947
133 0 71.1588 14.039 999 117.229 1250.4 480.121
134 0 72.1124 14.7547 1064 115.689 1250.42 479.559
135 0 76.109 14.3478 1092 116.947 1249.79 476.896
136 0 80.1486 15.4089 1235 113.499 1250.34 476.102
137 0 80.1112 14.5048 1162 118.606 1250.27 473.966
138 0 84.2106 15.6275 1316 115.182 1250.61 474.157
139 0 89.1746 15.5089 1383 115.649 1250.68 470.837
140 0 89.2282 14.8832 1328 118.614 1251.27 469.441
141 0 94.2766 15.3485 1447 116.971 1250.96 467.869
142 0 97.146 14.3084 1390 117.808 1251.07 465.944
143 0 99.0995 14.2281 1410 118.199 1250.72 463.406
144 0 104.219 13.4909 1406 119.656 1251.18 462.406
145 1 54.0864 10.6866 578 121.581 1250.33 487.851
146 0 55.0908 12.434 685 115.772 1250.16 483.451
147 0 60.1303 13.5705 816 114.395 1250.85 486.388
148 0 59.1166 12.8221 758 110.203 1250.43 485.429
149 0 61.085 12.8346 784 109.816 1250.14 482.083
150 0 64.0861 12.5768 806 108.917 1250.37 482.489
151 0 65.1129 11.6567 759 110.576 1250.09 480.639
152 0 71.0417 13.2457 941 105.526 1250.37 479.628
153 0 71.0579 11.3429 806 110.274 1250.31 478.516
154 0 75.0889 12.2655 921 108.721 1250.34 475.59
155 0 79.0634 11.7501 929 109.126 1250.57 475.244
156 0 82.0838 11.6832 959 110.05 1250.44 472.246
157 0 86.1218 12.8423 1106 106.647 1251.79 472.252
158 0 89.1638 12.8415 1145 108.92 1250.87 468.107
159 1 45.0697 11.2492 507 106.404 1250.54 492.604
160 0 48.0938 12.2261 588 105.619 1251.85 489.986
161 0 47.041 12.606 593 102.948 1252.98 489.739
162 0 48.061 12.3593 594 102.503 1252.43 488.771
163 0 49.0111 11.9973 588 104.527 1252.46 488.478
164 0 51.0382 11.9714 611 104.059 1251.71 489.383
165 0 53.0235 13.4469 713 101.118 1252.49 486.933
166 0 54.0443 12.8598 695 102.847 1252.59 486.009
167 0 56.0909 12.8541 721 103.051 1251.96 484.849
168 0 57.1091 12.765 729 103.342 1252.17 484.861
169 0 60.1073 13.2596 797 102.004 1252.64 484.266
170 0 61.1575 14.013 857 101.418 1252.96 482.901
171 0 63.1288 13.1002 827 104.528 1253.35 480.902
172 0 64.1561 12.0955 776 107.857 1252.78 481.227
173 0 65.0718 13.0779 851 106 1252.97 481.878
174 0 69.1055 13.5156 934 106.223 1253.04 479.628
175 0 68.0987 13.1133 893 108.532 1253.74 480.185
176 0 70.0821 13.4557 943 108.694 1253.45 475.884
177 0 74.0829 14.3758 1065 106.866 1253.11 476.077
178 0 76.0544 13.1353 999 111.119 1253.85 476.411
179 0 77.1398 13.7931 1064 111.14 1253.02 473.325
180 0 81.158 13.7879 1119 110.511 1253.07 472.282
181 0 83.1367 14.1935 1180 109.265 1252.95 471.952
182 0 85.132 12.51 1065 114.759 1252.98 470.37
183 0 86.0953 12.9508 1115 114.835 1252.17 470.37
184 0 91.0868 13.6244 1241 112.455 1252.08 469.82
185 0 93.1371 13.1312 1223 114.375 1252.16 466.643
186 0 99.1078 14.3278 1420 111.81 1252.02 465.361
187 0 100.173 14.2554 1428 113.811 1251.78 464.322
188 1 51.0558 12.124 619 113.54 1252.6 487.771
189 0 55.0579 14.1487 779 106.236 1252.55 486.196
190 0 53.0573 12.2698 651 115.763 1252.65 486.462
191 0 58.1491 14.652 852 108.945 1252.73 485.148
192 0 57.1076 12.923 738 108.523 1252.33 484.401
193 0 61.101 12.7821 781 107.179 1252.32 485.507
194 0 61.0753 12.7384 778 109.441 1251.91 483.754
195 0 64.1925 12.8052 822 108.118 1252.39 482.752
196 0 64.0754 11.9391 765 111.395 1252.57 481.688
197 0 67.2576 12.4298 836 110.11 1252.45 481.992
198 0 70.188 14.3187 1005 106.58 1252.6 480.005
199 0 72.1387 13.0582 942 109.091 1252.45 480.157
200 0 74.2024 12.9106 958 111.412 1252.17 477.264
201 0 77.0942 13.3992 1033 112.844 1250.16 478.436
202 0 79.2092 14.0261 1111 112.197 1250.55 475.476
203 0 81.1821 13.1803 1070 115.456 1250.7 474.509
204 0 83.1387 12.7738 1062 115.6 1250.67 475.045
205 0 85.3668 12.8739 1099 117.243 1250.85 471.198
206 0 91.2238 14.6782 1339 111.635 1251.48 469.486
207 0 94.22 13.8081 1301 112.923 1251.13 467.116
208 0 97.1493 13.855 1346 111.197 1250.69 465.768
209 0 99.1853 13.7319 1362 110.264 1250.86 462.576
210 1 53.287 13.8871 740 107.988 1251.7 481.416
211 0 52.196 12.7979 668 113.831 1251.24 487.608
212 0 55.0558 14.3309 789 108.649 1251.45 486.521
213 0 57.0498 13.0938 747 112.133 1251.1 485.793
214 0 59.1265 14.5958 863 109.277 1251.07 483.635
215 0 61.234 14.5671 892 109.285 1251.45 484.538
216 0 63.1179 14.0055 884 110.899 1251.8 482.851
217 0 62.1091 13.2187 821 115.121 1251.79 481.088
218 0 66.1511 13.9075 920 113.111 1251.67 479.948
219 0 69.1527 14.6921 1016 110.718 1251.37 479.912
220 0 70.1583 12.8424 901 115.539 1251.33 480.214
221 0 72.0999 14.2441 1027 112.844 1251.11 477.908
222 0 75.115 13.5792 1020 114.162 1250.48 478.326
223 0 78.0375 15.2491 1190 110.66 1250.39 476.781
224 0 80.1417 13.289 1065 115.978 1250.86 474.7
225 0 80.1743 12.4354 997 119.952 1250.36 475.109
226 0 84.0964 13.2586 1115 118.106 1250.81 472.124
227 0 85.2149 13.9412 1188 117.415 1250.1 470.434
228 0 88.1777 13.7563 1213 117.697 1250.09 469.623
229 0 92.2678 15.1082 1394 113.975 1250.77 469.191
230 0 94.1685 13.3272 1255 118.96 1250.5 466.522
231 0 97.1065 14.1906 1378 116.111 1250.94 465.845
232 0 101.183 14.6171 1479 115.031 1251.1 462.811
233 0 104.244 13.6794 1426 118.201 1251.91 460.952
234 0 108.149 14.6834 1588 115.585 1251.77 457.632
235 0 112.13 14.2157 1594 115.192 1251.27 456.871
236 0 114.222 12.8259 1465 116.212 1251.89 452.039
237 0 119.355 13.7321 1639 115.278 1251.43 448.284
238 0 123.336 13.6213 1680 115.16 1250.87 447.076
239 1 68.2514 10.3441 706 110.307 1252.14 475.312
240 0 72.1971 12.2166 882 106.966 1251.57 473.067
241 0 72.0626 12.17 877 109.393 1252.13 472.773
242 0 76.1171 11.5743 881 109.85 1251.96 471.802
243 0 78.0518 11.6589 910 110.455 1251.91 470.985
244 0 81.1157 11.1076 901 110.344 1251.67 471.535
245 0 84.1072 11.2119 943 110.281 1252.08 469.014
246 0 87.0734 12.6215 1099 107.803 1251.97 465.895
247 0 90.1271 11.2397 1013 110.401 1251.58 466.118
248 0 92.1823 11.3362 1045 110.645 1251.79 461.418
249 0 96.0704 11.9183 1145 109.122 1251.95 460.914
250 1 51.0304 10.5427 538 106.086 1252.66 484.522
251 0 53.0175 12.411 658 112.243 1250.91 486.193
252 0 57.0953 12.8557 734 113.986 1251.51 485.251
253 0 59.0957 13.1989 780 108.668 1251.5 484.241
254 0 59.1189 11.8744 702 111.517 1251.53 483.338
255 0 60.1001 11.7138 704 112.325 1251.72 483.146
256 0 64.0748 12.8912 826 108.252 1250.72 483.074
257 0 64.0647 12.9244 828 108.837 1250.7 481.216
258 0 68.0729 12.1928 830 107.812 1250.62 482.282
259 0 69.0521 11.4551 791 109.379 1250.41 479.174
260 0 73.0744 12.9047 943 105.051 1250.55 475.38
261 0 76.1347 12.9639 987 102.893 1250.79 473.533
262 0 78.1086 12.457 973 103.85 1250.86 475.03
263 0 83.1886 12.8383 1068 100.76 1251.14 473.18
264 0 86.1102 13.7034 1180 98.6941 1250.69 470.931
265 0 89.1883 12.9389 1154 99.7426 1250.63 470.305
266 0 92.0567 11.5472 1063 101.89 1250.33 469.27
267 1 49.0551 11.538 566 103.705 1250.56 487.668
268 0 53.0426 13.5363 718 99.9262 1250.13 487.593
269 0 54.0479 12.3224 666 101.67 1252.47 485.752
270 0 56.0344 12.8314 719 101.182 1250.32 485.796
271 0 55.1305 11.1372 614 99.0863 1251.78 486.795
272 0 56.1204 11.7961 662 98.855 1250.94 485.449
273 0 58.1159 12.5955 732 96.9276 1250.79 485.133
274 0 59.0996 14.6025 863 93.9015 1250.96 483.344
275 0 62.1454 12.5834 782 97.9616 1250.2 482.39
276 0 63.0511 12.2282 771 99.454 1250.24 482.901
277 0 64.127 12.5376 804 99.403 1250.66 481.674
278 0 69.1176 12.6885 877 98.6796 1250.53 479.204
279 0 69.0717 13.1023 905 99.5602 1251.02 476.796
280 0 73.0822 13.1906 964 99.1214 1250.5 478.303
281 0 76.2361 13.0909 998 98.8687 1250.64 476.489
282 0 79.1846 13.6643 1082 98.5157 1250.55 474.213
283 0 81.1315 13.6199 1105 98.4036 1250.96 473.243
284 0 84.1105 13.8271 1163 98.7601 1251.1 471.776
285 0 88.1542 12.9319 1140 100.491 1250.85 470.398
286 0 92.1042 14.0167 1291 98.3579 1251.8 469.528
287 0 94.1899 13.8975 1309 99.029 1251.18 466.659
288 1 50.109 11.2954 566 102.336 1250.65 489.292
289 0 53.0592 12.6086 669 98.9567 1251.57 489.254
290 0 55.0991 13.5755 748 97.3048 1252.48 487.123
291 0 54.1042 13.437 727 100.116 1253.12 487.917
292 0 58.0801 13.6708 794 97.437 1253.47 489.005
293 0 57.0417 13.0256 743 100.661 1253.1 485.354
294 0 58.1031 12.3573 718 102.671 1252.77 486.139
295 0 62.091 13.9473 866 98.5462 1252.95 484.133
296 0 64.0467 12.7251 815 102.206 1252.83 483.698
297 0 67.1719 15.6911 1054 95.8245 1252.55 483.799
298 0 64.049 12.8183 821 105.744 1252.85 481.861
299 0 70.1909 15.6573 1099 99.5696 1251.85 481.815
300 0 71.1362 13.2984 946 106.89 1251.74 479.236
301 0 75.066 14.4939 1088 103.25 1251.49 480.379
302 0 78.2336 13.6642 1069 105.501 1252.04 479.17
303 0 79.177 14.8654 1177 104.712 1252.16 475.647
304 0 82.2141 16.1286 1326 101.594 1252.06 474.497
305 0 84.1547 14.0099 1179 108.45 1252.23 472.741
306 0 87.1835 14.3032 1247 108.043 1251.88 470.386
307 0 90.2181 14.1324 1275 108.306 1252.7 469.525
308 0 92.2483 14.5585 1343 109.516 1251.49 465.559
309 0 92.2483 14.5911 1346 154.336 1249.49 465.464
310 0 97.1012 14.9226 1449 110.061 1252.48 461.175
311 0 101.136 14.8414 1501 109.191 1252.05 464.896
312 0 106.103 14.5613 1545 108.447 1252.77 464.372
313 0 107.081 13.896 1488 112.301 1252.95 460.816
314 0 109.169 13.0714 1427 114.619 1252.28 459.26
315 0 114.236 13.4109 1532 114.181 1251.32 457.022
316 0 120.252 14.7773 1777 111.78 1251.58 449.38
317 1 65.1786 12.6575 825 112.41 1251.09 476.592
318 0 68.1452 13.3832 912 110.066 1251.14 473.038
319 0 71.1887 13.9769 995 109.321 1250.88 478.521
320 0 73.153 14.1484 1035 109.023 1251.38 474.682
321 0 76.1914 13.8992 1059 109.316 1251.39 475.413
322 0 77.2102 12.1875 941 114.438 1251.29 473.276
323 0 80.4776 14.5631 1172 109.475 1251.82 470.38
324 0 81.138 12.7437 1034 112.162 1250.76 471.432
325 0 85.1509 13.5289 1152 110.211 1251.04 469.039
326 0 89.3148 14.3649 1283 107.712 1251.69 468.132
327 0 91.2786 14.4831 1322 108.399 1251.26 465.07
328 0 93.2912 13.2703 1238 111.157 1251.41 462.713
329 0 97.2844 13.9591 1358 109.029 1251.84 460.76
330 0 101.268 13.5384 1371 110.892 1251.83 457.589
331 0 102.397 11.8655 1215 114.061 1251.58 456.726
332 0 108.196 13.0504 1412 111.338 1250.85 453.823
333 1 55.1073 11.3415 625 110.707 1250.44 479.499
334 0 59.3192 14.2281 844 105.745 1251.12 475.776
335 0 61.081 15.1111 923 103.176 1250.51 481.303
336 0 62.101 13.8645 861 106.78 1250.1 480.693
337 0 64.1142 12.7273 816 109.632 1250.39 480.814
338 0 68.1936 14.3855 981 104.333 1250.21 479.287
339 0 68.2634 14.1218 964 106.988 1250.79 476.025
340 0 71.2429 13.9803 996 107.274 1251.11 473.423
341 0 73.4627 13.1495 966 109.902 1250.81 471.771
342 0 76.2653 14.148 1079 106.601 1251.25 470.319
343 0 79.2937 13.8977 1102 107.668 1250.49 468.142
344 0 84.2611 15.5707 1312 103.04 1250.89 466.743
345 0 86.2715 13.2952 1147 108.065 1250.67 465.785
346 0 90.2977 14.0757 1271 105.425 1251.01 464.151
347 0 92.3741 12.6442 1168 108.583 1251.06 461.382
348 0 95.3673 13.8622 1322 105.517 1251.09 461.219
349 1 51.136 11.2836 577 106.303 1251.57 482.515
350 0 52.1606 13.5926 709 104.212 1250.92 484.973
351 0 57.0752 13.4559 768 100.908 1250.4 487.724
352 0 56.1144 13.7041 769 102.391 1250.2 486.605
353 0 57.1243 13.777 787 102.944 1250.64 484.565
354 0 60.09 13.8625 833 100.777 1250.34 485.108
355 0 62.1112 14.1198 877 100.347 1250.06 483.483
356 0 62.0303 13.9125 863 102.349 1249.86 481.673
357 0 67.1212 15.107 1014 98.1677 1250.4 480.785
358 0 67.0582 14.1966 952 100.953 1250.43 480.019
359 0 69.2458 14.268 988 100.343 1251.08 476.485
360 0 72.2197 14.5251 1049 100.084 1251.02 475.223
361 0 75.2346 14.3152 1077 99.8236 1251.35 472.513
362 0 75.3384 14.03 1057 100.852 1251.21 467.6
363 0 80.302 15.0557 1209 98.3656 1251.36 467.673
364 0 83.2918 14.7313 1227 98.8623 1251.25 467.048
365 0 86.3349 14.5017 1252 99.3259 1251.83 465.617
366 0 86.2153 13.7099 1182 103.269 1251.65 464.194
367 0 92.2628 14.0143 1293 101.742 1251.57 463.538
368 0 93.2116 14.0862 1313 102.326 1251.6 459.857
369 1 52.1789 11.3264 591 100.453 1251.2 483.154
370 0 53.104 11.807 627 100.939 1250.97 479.254
371 0 55.1186 12.5548 692 102.084 1250.69 484.721
372 0 56.0307 13.5461 759 98.357 1250.1 484.644
373 0 58.0753 12.6904 737 99.5183 1250.77 486.262
374 0 60.1649 12.5987 758 100.79 1250.58 484.879
375 0 63.0173 12.9488 816 99.7047 1250.44 484.158
376 0 64.1115 12.6342 810 100.006 1250.57 483.422
377 0 66.255 13.0103 862 100.152 1250.51 480.76
378 0 70.1909 13.7482 965 97.6518 1250.57 479.318
379 0 71.1166 12.5428 892 100.747 1249.83 479.705
380 0 71.1261 11.7116 833 103.696 1250.27 477.325
381 0 73.3369 11.7812 864 103.689 1250.48 474.144
382 0 78.2921 13.82 1082 99.8771 1249.69 470.888
383 0 79.1425 13.7474 1088 101.088 1250.23 467.43
384 0 83.379 12.0294 1003 103.797 1250.6 468.134
385 0 86.3709 12.3421 1066 103.036 1250.82 466.818
386 0 89.3373 13.6673 1221 101.137 1250.83 464.578
387 1 46.1762 11.0663 511 104.399 1250.75 484.832
388 0 47.2087 11.5657 546 102.892 1251 485.667
389 0 51.1365 13.1022 670 100.23 1250.94 488.625
390 0 51.2934 13.296 682 100.787 1250.31 488.955
391 0 52.0241 13.0517 679 100.67 1250.15 487.761
392 0 53.131 13.2691 705 101.824 1250.68 486.719
393 0 55.0539 13.514 744 101.155 1250.43 485.368
394 0 54.0792 12.7036 687 104.876 1250.6 484.943
395 0 59.2513 15.1051 895 98.4592 1251.08 482.721
396 0 60.2408 14.1266 851 100.147 1251.12 482.42
397 0 62.287 13.6304 849 102.165 1251.37 479.768
398 0 65.2238 14.044 916 100.681 1252 477.309
399 0 65.179 13.7314 895 103.335 1250.84 475.429
400 0 68.2485 13.8025 942 102.099 1250.88 477.382
401 0 70.343 13.2636 933 105.392 1250.82 473.834
