time division length width area intensity CMx CMy
0 0 54.0496 11.3969 616 108.873 1191.11 471.049
1 0 63.1437 11.4659 724 114.261 1190.79 468.526
2 0 58.1672 11.9483 695 108.364 1190.3 462.728
3 0 58.1672 11.9483 695 137.39 1189.27 462.541
4 0 59.0916 9.57835 566 102.996 1189.84 466.122
5 0 63.0813 12.1906 769 98.9779 1188.47 459.411
6 0 63.1116 11.4084 720 103.393 1189.97 455.911
7 0 67.0468 12.6777 850 101.056 1190.6 456.865
8 0 68.1032 11.6147 791 104.277 1189.98 456.059
9 0 68.1032 11.5413 786 129.302 1190 455.906
10 0 73.0557 11.9224 871 103.893 1190.19 452.021
11 0 76.1297 13.0304 992 104.058 1190.76 446.078
12 0 77.1632 12.3116 950 106.812 1192.33 444.817
13 0 81.1478 12.2369 993 108.491 1192.02 441.155
14 0 82.0944 11.4015 936 110.565 1192.44 442.747
15 0 88.1006 12.463 1098 110.573 1191.68 432.94
16 0 91.3369 12.5688 1148 111.409 1191.4 431.194
17 1 45.0635 10.0969 455 115.877 1191.32 449.987
18 0 50.0954 11.3583 569 116.306 1191.57 446.12
19 0 50.1077 11.8345 593 108.091 1191.4 448.906
20 0 52.0456 12.6428 658 107.281 1191.26 450.152
21 0 54.0542 12.4135 671 107.499 1190.99 453.867
22 0 53.1146 11.9365 634 109.502 1191.17 455.044
23 0 57.203 12.0099 687 106.865 1190.35 458.263
24 0 57.2082 12.1311 694 127.928 1189.36 458.236
25 0 62.268 12.3177 767 104.888 1191.61 461.396
26 0 62.0404 11.2507 698 109.476 1190.9 461.822
27 0 65.1066 12.4104 808 111.827 1190.76 465.801
28 0 67.0956 13.1007 879 111.02 1191.42 462.79
29 0 70.083 13.3841 938 111.225 1190.92 461.217
30 0 70.1404 13.2021 926 113.635 1191.51 462.387
31 0 76.1218 13.8856 1057 110.898 1191.25 460.408
32 0 75.1103 13.2339 994 113.154 1190.83 460.424
33 0 78.1396 13.3223 1041 113.376 1191.31 458.86
34 0 81.3316 13.5495 1102 113.705 1191.1 457.127
35 0 84.3264 14.515 1224 112.411 1191.1 455.375
36 0 88.1467 14.0448 1238 114.96 1190.91 454.606
37 0 90.1389 13.6123 1227 119.717 1190.85 450.172
38 0 94.2252 14.0302 1322 116.214 1190.79 451.331
39 0 96.3472 12.7767 1231 120.812 1191.03 447.937
40 1 57.09 12.0862 690 119.446 1190.91 469.425
41 0 58.1158 12.5611 730 119.342 1191.79 469.789
42 0 61.067 12.3962 757 121.225 1191.43 468.848
43 0 62.1286 13.7779 856 120.673 1191.14 467.176
44 0 65.2098 13.8476 903 121.027 1191.55 463.437
45 0 68.0756 12.8387 874 121.4 1191.47 462.804
46 0 69.0313 13.0665 902 121.144 1191.34 461.269
47 0 74.1078 14.8567 1101 114.659 1191.32 458.829
48 0 76.1099 13.1258 999 118.592 1191.19 460.145
49 0 78.0315 13.6355 1064 118.565 1191.23 456.711
50 0 83.1006 14.7893 1229 115.043 1190.56 456.446
51 0 83.1319 14.4349 1200 116.91 1190.72 455.251
52 0 86.0939 15.3669 1323 114.81 1190.23 454.472
53 0 87.0502 13.475 1173 121.243 1191.22 453.237
54 0 90.2868 14.022 1266 121.897 1191.1 453.151
55 0 91.0416 14.3011 1302 121.367 1190.82 451.709
56 0 94.2031 14.352 1352 122.655 1190.81 448.826
57 0 97.2245 13.8442 1346 125.374 1190.84 446.965
58 0 102.121 14.0226 1432 123.746 1190.97 447.215
59 0 104.215 14.2495 1485 123.038 1190.51 445.224
60 0 107.137 13.7021 1468 120.276 1190.05 444.969
61 1 55.0388 11.5737 637 111.752 1191.68 464.834
62 0 58.0871 11.6033 674 111.476 1191.66 464.085
63 0 60.0658 11.5207 692 111.477 1191.27 462.644
64 0 59.145 10.2291 605 116.489 1192.21 459.706
65 0 64.0955 12.0133 770 110.452 1192.15 460.338
66 0 67.0522 11.9161 799 111.728 1192.66 455.742
67 0 68.0922 10.7648 733 113.75 1192.44 457.3
68 0 71.1496 10.7098 762 114.175 1192.61 456.503
69 0 75.124 11.7539 883 111.494 1191.88 454.725
70 0 76.2204 11.5717 882 112.198 1192.21 454.237
71 0 80.13 12.1552 974 111.306 1192.21 451.364
72 0 83.188 11.9488 994 110.47 1191.28 454.397
73 0 87.2013 12.0755 1053 109.424 1191.56 453.402
74 0 90.2335 12.0244 1085 111.44 1191.92 449.218
75 0 95.1913 12.9844 1236 109.845 1191.85 449.358
76 0 97.2299 12.7121 1236 109.163 1191.59 450.028
77 0 101.331 11.7141 1187 110.873 1191.94 448.859
78 0 104.356 12.9748 1354 106.377 1191.27 445.734
79 0 106.38 11.9477 1271 107.172 1191.88 447.769
80 0 109.321 11.6172 1270 108.863 1190.88 442.328
81 0 112.217 12.7877 1435 112.444 1191.44 442.693
82 0 116.299 12.8032 1489 111.674 1191.1 441.811
83 0 119.229 12.0608 1438 113.557 1191.3 439.41
84 1 66.1959 11.7681 779 105.84 1191.93 465.765
85 0 67.3133 12.0778 813 107.667 1192.38 464.688
86 0 68.2179 10.8183 738 110.136 1191.43 464.625
87 0 71.1278 11.7254 834 106.679 1191.7 464.357
88 0 74.2731 12.3194 915 105.819 1191.73 463.21
89 0 78.1879 11.5235 901 108.006 1191.7 460.664
90 0 81.2516 11.7044 951 109.856 1191.09 459.355
91 0 84.3302 12.0479 1016 108.467 1191.11 456.195
92 0 86.2024 11.647 1004 110.257 1191.77 456.472
93 0 89.1374 12.3293 1099 109.566 1190.85 452.586
94 0 92.2029 12.3749 1141 109.181 1191.17 452.705
95 0 92.2206 11.505 1061 112.271 1191.4 450.555
96 0 97.1881 11.7298 1140 111.559 1189.78 449.164
97 0 100.249 12.1597 1219 111.889 1190.63 446.717
98 0 102.418 10.0568 1030 115.573 1190.52 445.599
99 1 59.2767 11.2186 665 106.376 1191.46 467.713
100 0 62.311 12.2129 761 100.562 1191.81 466.687
101 0 62.1888 12.1565 756 99.8915 1191.95 466.524
102 0 66.1079 12.4796 825 97.72 1191.96 465.501
103 0 68.0778 12.8236 873 96.7297 1192.04 463.33
104 0 68.0709 13.0011 885 98.4746 1191.84 462.597
105 0 71.1051 12.6573 900 98.7889 1191.69 461.472
106 0 70.0712 11.6881 819 101.02 1191.69 461.009
107 0 74.0834 13.2553 982 97.4287 1192.15 458.346
108 0 77.1612 13.0636 1008 97.4067 1192.39 457.676
109 0 80.1347 13.3775 1072 96.7034 1191.5 456.109
110 0 84.1255 13.1946 1110 96.2189 1191.04 455.392
111 0 84.1767 12.4738 1050 99.2581 1191.5 453.641
112 0 86.1534 13.8938 1197 97.1053 1190.94 450.996
113 0 86.1196 12.3085 1060 102.07 1190.63 450.326
114 0 88.1819 12.8484 1133 102.42 1190.77 446.775
115 0 96.4267 13.4817 1300 99.9554 1190.78 447.822
116 0 95.2763 12.9833 1237 102.169 1190.1 444.96
117 0 100.378 14.2462 1430 98.7755 1189.7 444.381
118 0 101.25 12.3654 1252 104.272 1189.95 444.346
119 0 106.195 14.0591 1493 98.7796 1189.52 439.26
120 0 109.281 12.6646 1384 102.348 1189.59 439.973
121 0 111.249 13.627 1516 101.213 1190.27 435.476
122 0 114.552 14.3079 1639 100.588 1190.17 433.069
123 0 117.206 13.327 1562 102.777 1189.99 428.816
124 1 61.138 10.1901 623 105.695 1190.13 457.05
125 0 64.2607 12.1692 782 102.353 1189.13 454.222
126 0 68.1923 11.2916 770 103.716 1190.17 452.4
127 0 72.2181 13.1546 950 99.0674 1189.79 451.531
128 0 74.2363 12.1908 905 101.304 1190.03 451.755
129 0 77.1232 12.5643 969 101.162 1190.06 451.463
130 0 79.1817 12.705 1006 102.771 1189.57 444.555
131 0 80.1775 10.8135 867 108.481 1189.55 442.887
132 0 85.2814 12.6991 1083 102.85 1190.63 445.457
133 0 89.1906 12.3668 1103 104.529 1189.93 443.272
134 0 92.1897 12.9732 1196 104.164 1190.37 443.252
135 0 93.1713 13.0405 1215 105.283 1189.97 443.627
136 0 96.2821 12.7023 1223 107.001 1190.14 437.831
137 0 101.163 11.5359 1167 107.686 1190.55 444.804
138 0 106.28 12.6176 1341 104.115 1190.37 438.179
139 0 106.341 12.2154 1299 107.528 1190.18 437.818
140 0 111.428 12.2501 1365 106.271 1189.96 438.973
141 1 64.0512 11.3503 727 104.66 1191.93 460.003
142 0 59.1158 10.7755 637 104.713 1190.86 452.199
143 0 65.095 10.5999 690 105.554 1190.98 452.351
144 0 67.0714 10.9734 736 104.832 1190.93 453.928
145 0 66.0513 12.2481 809 105.241 1191.05 452.614
146 0 71.1401 11.386 810 106.346 1190.7 453.391
147 0 76.1137 12.3237 938 103.156 1190.19 451.307
148 0 74.0444 11.7227 868 106.339 1189.84 449.915
149 0 76.0545 12.6488 962 105.588 1190.1 446.714
150 0 78.0541 10.544 823 110.495 1191 445.821
151 0 80.0467 12.0804 967 108.361 1190.85 443.338
152 0 86.0916 11.9872 1032 107.513 1189.89 443.093
153 0 89.0766 12.2254 1089 106.837 1190.44 443.434
154 0 95.2032 12.321 1173 107.357 1190.79 441.973
155 0 99.2025 12.2477 1215 106.425 1190.6 443.979
156 1 52.1267 11.1843 583 103.357 1191.48 466.021
157 0 54.0539 10.138 548 106.971 1191.67 463.52
158 0 56.2734 11.4441 644 109.057 1190.95 462.516
159 0 58.2589 12.0325 701 108.158 1190.42 465.405
160 0 63.2136 12.3708 782 106.926 1190.28 465.824
161 0 62.2402 11.3431 706 111.105 1190.05 464.266
162 0 66.1642 12.4539 824 107.479 1190.21 464.198
163 0 65.2246 12.2653 800 109.884 1190.78 463.186
164 0 66.2343 12.184 807 112.287 1189.76 460.05
165 0 70.2123 12.3767 869 110.493 1189.78 463.078
166 0 72.2649 13.2153 955 109.595 1189.52 460.698
167 0 73.224 13.4928 988 110.064 1189.34 457.915
168 0 73.1509 12.3033 900 114.527 1189.51 455.528
169 0 77.1463 12.4957 964 113.493 1189.83 455.401
170 0 79.2833 12.2346 970 113.874 1189.23 455.639
171 0 83.1351 12.9187 1074 111.723 1189.88 455.939
172 0 83.1293 11.9934 997 115.141 1190.29 454.846
173 0 89.2915 13.3495 1192 111.029 1190.22 450.807
174 0 91.0914 12.2185 1113 113.529 1189.93 452.164
175 0 95.1383 12.4661 1186 112.575 1189.38 449.472
176 0 96.2906 13.2308 1274 110.879 1188.73 447.206
177 1 54.035 9.99352 540 111.97 1190.58 468.683
178 0 56.0186 12.2995 689 102.669 1190.61 467.2
179 0 55.051 10.0816 555 108.106 1191.01 463.573
180 0 59.0945 11.1855 661 108.375 1191.46 466.02
181 0 61.0655 11.152 681 109.442 1191.15 465.692
182 0 64.0504 11.3661 728 108.13 1191.33 463.984
183 0 66.126 11.5386 763 106.708 1190.92 465.029
184 0 66.0673 12.457 823 105.371 1191.18 462.326
185 0 70.0419 11.693 819 105.551 1190.93 461.178
186 0 71.0653 11.2854 802 107.608 1190.66 458.456
187 0 75.1022 12.2766 922 104.01 1191.74 459.889
188 0 75.0656 10.9504 822 106.146 1191.64 458.005
189 0 81.0856 11.9997 973 101.955 1190.69 458.035
190 0 80.0512 11.4427 916 104.551 1191.32 453.635
191 0 83.1242 11.573 962 104.107 1190.92 453.541
192 0 84.1202 11.9234 1003 104.402 1190.81 450.663
193 0 89.1604 12.2476 1092 102.297 1190.75 453.677
194 0 92.1134 13.2446 1220 100.681 1191.03 450.894
195 0 92.1934 11.0529 1019 105.697 1190.39 446.069
196 0 98.2441 12.2348 1202 101.108 1189.97 449.231
197 0 99.23 12.466 1237 101.119 1189.26 445.829
198 0 102.355 11.9095 1219 101.923 1190.16 444.711
199 0 106.178 12.1871 1294 103.675 1189.43 442.394
200 1 58.1684 10.9338 636 102.989 1190.07 468.129
201 0 60.1903 12.2445 737 100.668 1190.42 466.973
202 0 61.145 12.6257 772 103.729 1190.01 464.43
203 0 64.3615 12.4919 804 103.206 1189.72 463.738
204 0 65.5007 12.0609 790 105.086 1189.52 463.163
205 0 66.2756 11.7238 777 106.663 1190.32 463.637
206 0 68.242 12.1186 827 106.478 1188.5 462.01
207 0 69.3237 12.5642 871 106.011 1189.31 461.759
208 0 73.2853 12.2808 900 106.527 1189.7 459.442
209 0 76.3714 12.1773 930 106.546 1189.47 458.331
210 0 75.2045 12.6189 949 108.112 1190.11 456.269
211 0 78.4328 13.298 1043 106.857 1189.62 454.844
212 0 81.2741 12.9562 1053 107.654 1190.27 455.904
213 0 84.1769 12.3193 1037 108.791 1190.42 455.387
214 0 86.4448 12.5629 1086 109.175 1190.62 453.224
215 0 90.3508 13.6025 1229 107.839 1191.25 449.886
216 0 91.2788 11.6895 1067 114.913 1190.22 443.558
217 0 95.4518 12.3518 1179 113.175 1190.23 442.585
218 0 99.4695 12.7677 1270 112.172 1189.12 441.874
219 0 102.33 12.5575 1285 112.188 1189.42 440.606
220 1 57.1134 10.0152 572 110.605 1189.21 466.512
221 0 56.2885 10.3218 581 111.935 1190.84 466.009
222 0 61.4154 11.3978 700 109.467 1191.36 459.956
223 0 63.3224 10.8176 685 112.787 1190.8 453.28
224 0 65.2256 10.0574 656 112.869 1189.57 464.386
225 0 67.2211 11.3804 765 110.629 1189.15 461.25
226 0 70.2693 13.0498 917 105.907 1190.28 461.723
227 0 72.2043 12.4369 898 107.381 1189.88 460.04
228 0 77.1633 11.7413 906 106.896 1189.19 459.685
229 0 76.2075 10.8782 829 109.334 1189.48 458.752
230 0 79.2937 12.3339 978 106.157 1189.84 456.469
231 0 80.2193 12.1168 972 106.377 1189.32 457.799
232 0 83.1724 13.5502 1127 104.381 1190.46 455.075
233 0 84.2718 12.3292 1039 106.805 1190.01 452.898
234 0 89.3751 12.5538 1122 104.541 1189.45 453.246
235 0 90.2519 12.9637 1170 104.439 1189.76 450.56
236 0 95.2666 11.8824 1132 104.005 1189.56 453.11
237 0 96.3399 12.1445 1170 106.216 1190.36 446.417
238 0 99.3419 12.2204 1214 104.526 1190.25 446.119
239 0 103.46 13.4255 1389 102.984 1190.24 440.731
240 1 57.0842 11.0013 628 92.086 1189.22 463.581
241 0 58.1385 11.4726 667 91.1154 1188.66 466.114
242 0 60.0776 12.5504 754 90.2069 1188.39 462.29
243 0 63.3947 12.8087 812 88.4902 1188.99 463.257
244 0 65.2335 12.4936 815 88.7656 1189.13 460.746
245 0 65.1591 12.4004 808 90.1064 1189.74 459.632
246 0 67.1395 12.1687 817 90.7234 1189.18 458.695
247 0 69.1271 12.2817 849 90.7691 1189.8 459.011
248 0 71.1064 11.8695 844 91.9597 1189.14 459
249 0 73.2004 13.9344 1020 88.4167 1190.07 457.297
250 0 75.3316 13.487 1016 89.1535 1189.41 457.313
251 0 78.1418 13.3987 1047 88.8099 1189.86 454.273
252 0 83.2961 13.5901 1132 87.0327 1188.94 453.383
253 0 83.2153 13.7475 1144 86.799 1188.44 453.094
254 0 84.0852 12.5587 1056 89.9905 1189.28 452.675
255 0 86.2978 13.5577 1170 89.1675 1189.08 453.974
256 0 91.3272 13.3038 1215 88.6889 1189.81 451.402
257 0 94.1718 11.5852 1091 91.6022 1189.22 453.563
258 0 94.1682 12.4246 1170 92.6624 1189.83 449.28
259 0 98.2437 12.2145 1200 93.9542 1189.91 450.154
260 0 101.208 12.3606 1251 97.0703 1189.06 449.46
261 0 106.221 14.7052 1562 92.1255 1188.95 446.37
262 0 107.242 13.2597 1422 95.6048 1189.21 443.214
263 0 108.315 12.279 1330 97.285 1190.53 441.691
264 0 117.207 17.0042 1993 87.139 1189.96 442.866
265 0 115.271 12.9781 1496 93.5287 1189.57 439.357
266 0 120.173 14.063 1690 91.4822 1189.84 435.765
267 0 122.113 13.7168 1675 91.1898 1188.97 439.643
268 0 127.215 12.1841 1550 95.811 1189.58 434.78
269 0 131.227 13.2976 1745 94.0269 1189.9 431.556
270 0 132.187 11.7788 1557 97.456 1189.15 427.942
271 0 140.296 13.8564 1944 93.4928 1189.58 426.512
272 0 145.135 13.043 1893 95.5135 1189.14 422.893
273 0 150.247 13.2182 1986 96.646 1188.78 419.697
274 1 88.2543 11.2742 995 98.603 1188.95 448.465
275 0 91.1442 12.2114 1113 97.1006 1188.2 445.415
276 0 94.1178 11.9956 1129 97.5394 1188.69 444.33
277 0 96.2053 11.9952 1154 99.5901 1189.19 419.068
278 0 99.1554 14.5227 1440 94.4215 1189.1 419.384
279 0 103.418 12.4253 1285 92.4374 1188.81 425.577
280 0 103.133 13.0705 1348 93.0734 1188.64 425.616
281 0 109.173 12.8145 1399 93.9886 1189.65 424.365
282 0 110.22 12.847 1416 96.7062 1188.98 407.887
283 0 114.127 12.8804 1470 96.5592 1188.34 409.961
284 0 117.386 12.9828 1524 96.9127 1189.02 409.434
285 0 120.238 12.101 1455 99.5553 1187.89 407.515
286 0 125.19 13.4995 1690 97.155 1189.14 408.879
287 0 127.179 13.1783 1676 98.8592 1189.08 405.407
288 0 132.215 12.8049 1693 99.7053 1188.72 404.933
289 0 136.148 13.5808 1849 98.8621 1189.07 407.266
290 1 77.1572 12.9994 1003 94.5214 1190.42 445.637
291 0 77.1179 12.643 975 97.2349 1191.14 448.697
292 0 80.13 11.993 961 96.8064 1190.73 440.512
293 0 82.1674 12.9613 1065 95.4254 1190.41 441.531
294 0 85.183 12.0447 1026 97.2261 1189.76 444.304
295 0 90.2084 13.8125 1246 93.7544 1191.27 445.557
296 0 90.3645 13.6337 1232 95.9123 1190.3 441.229
297 0 94.3066 13.2228 1247 96.348 1190.6 442.922
298 0 96.1984 13.5033 1299 96.5004 1190.61 446.962
299 0 100.335 12.9267 1297 97.5405 1191.12 446.338
300 0 101.178 13.0562 1321 100.659 1190.16 440.264
301 0 104.259 13.9076 1450 99.98 1190.34 441.559
302 0 108.283 13.5847 1471 102.573 1189.95 440.322
303 0 109.178 13.565 1481 104.085 1189.99 437.854
304 0 114.147 15.2173 1737 99.7686 1190.33 437.294
305 0 115.136 13.4363 1547 103.479 1190.92 437.699
306 0 121.218 14.6842 1780 99.4809 1190.71 438.028
307 0 121.123 13.0858 1585 103.518 1190.38 433.864
308 0 121.123 13.0198 1577 156.824 1190.37 433.718
309 0 130.385 13.1764 1718 104.304 1189.9 430.515
310 1 74.208 11.333 841 100.697 1191.05 458.145
311 0 77.1034 11.2317 866 96.7771 1190.99 458.71
312 0 78.102 12.9446 1011 92.4154 1191.05 456.012
313 0 81.1706 12.64 1026 92.1248 1190.83 456.569
314 0 83.1591 11.7365 976 94.709 1190.42 455.616
315 0 86.2198 11.8766 1024 94.8721 1191.06 454.501
316 0 89.1506 13.0566 1164 93.86 1189.93 451.972
317 0 90.1366 12.7695 1151 95.6438 1190.92 451.672
318 0 94.3604 12.3039 1161 97.6589 1190.44 450.662
319 0 97.1794 11.8852 1155 101.455 1191.51 448.628
320 0 100.279 13.3527 1339 104.348 1191.71 445.38
321 0 104.221 14.4117 1502 101.054 1190.45 443.089
322 0 108.14 13.4547 1455 104.51 1189.63 441.803
323 1 60.1244 10.1124 608 104.704 1189.6 466.413
324 0 62.147 11.5693 719 102.115 1189.79 464.064
325 0 64.165 11.4548 735 102.498 1189.46 462.053
326 0 67.064 12.3315 827 93.9589 1192.04 463.369
327 0 67.1433 11.5425 775 97.6529 1191.58 463.754
328 0 71.1282 13.0609 929 94.5371 1191.66 461.572
329 0 72.1637 11.6125 838 96.679 1191.76 459.666
330 0 75.1137 12.0617 906 95.9779 1191.93 460.561
331 0 77.1955 12.993 1003 93.9751 1192.17 459.15
332 0 79.2015 13.3205 1055 93.7251 1191.37 456.572
333 0 81.1956 12.0204 976 96.8555 1191.38 456.778
334 0 86.1576 14.8681 1281 91.6425 1191.55 452.084
335 0 88.0872 13.9067 1225 94.3584 1191.48 446.716
336 0 89.1067 13.6017 1212 97.1279 1191.41 449.229
337 0 90.25 14.0055 1264 96.8639 1191.64 450.03
338 0 94.1133 14.9501 1407 94.7683 1191.43 448.786
339 0 95.1834 12.7648 1215 99.7778 1191.46 445.525
340 0 98.3752 13.3265 1311 98.6178 1190.65 444.156
341 0 102.175 14.0152 1432 97.2339 1190.51 443.202
342 0 104.264 12.5259 1306 101.528 1189.76 441.845
343 0 103.224 12.7393 1315 102.26 1191.32 439.872
344 1 58.0762 9.79748 569 101.773 1191.61 463.627
345 0 58.0178 11.5482 670 93.9149 1191.51 458.278
346 0 58.0549 10.714 622 87.6318 1190.5 461.622
347 0 62.1807 11.7561 731 96.026 1191.37 464.964
348 0 66.0721 11.7599 777 94.8404 1191.07 464.994
349 0 68.091 11.3231 771 95.5772 1190.66 460.204
350 0 68.0894 11.3233 771 125.433 1189.66 460.204
351 0 75.0377 12.6869 952 93.3256 1190.7 460.504
352 0 76.1513 12.8035 975 93.9097 1190.72 457.713
353 0 79.1186 12.753 1009 94.8087 1191.67 459.366
354 0 81.1018 12.6754 1028 97.4018 1191.29 455.819
355 0 86.2463 15.4325 1331 91.7874 1190.84 454.86
356 0 89.2276 14.5919 1302 94.3525 1191.66 452.983
357 0 93.4459 14.7465 1378 94.8628 1190.73 445.876
358 0 95.1354 14.0747 1339 98.5205 1190.89 448.498
359 0 97.2631 13.4069 1304 99.4854 1190.66 444.166
360 0 98.1442 13.7756 1352 99.4467 1190.11 440.146
361 0 104.365 14.2959 1492 97.4819 1190.28 437.806
362 0 105.149 14.4652 1521 97.8698 1189.78 430.696
363 0 106.186 14.0884 1496 100.334 1189.96 422.676
364 0 111.179 14.9038 1657 97.4611 1189.8 428.778
365 0 112.119 13.8692 1555 99.744 1189.8 430.621
366 0 116.191 14.7774 1717 97.0868 1189.66 435.751
367 0 116.094 13.9542 1620 97.7037 1189.95 430.369
368 0 120.349 12.1563 1463 100.928 1188.4 431.128
369 0 128.261 13.4648 1727 97.9942 1189.55 429.858
370 1 66.2081 10.9956 728 96.2994 1189.31 457.272
371 0 70.0409 12.6212 884 93.5554 1189.83 458.705
372 0 71.074 11.7483 835 96.5748 1189.97 453.162
373 0 73.0595 11.169 816 98.4657 1190.47 450.013
374 0 77.1843 10.8183 835 97.6371 1189.77 453.996
375 0 78.1203 11.8919 929 97.1421 1189.15 454.272
376 0 81.0928 12.2206 991 97.9082 1189.06 449.187
377 0 87.2112 13.7138 1196 100.549 1189.55 454.242
378 0 90.1532 13.5103 1218 101.75 1190.08 451.45
379 0 93.1544 13.4401 1252 102.498 1189.83 452.081
380 0 98.1684 13.6704 1342 101.119 1189.41 452.058
381 0 100.235 12.5206 1255 103.104 1188.96 451.286
382 0 104.168 14.4959 1510 98.6563 1189.39 446.687
383 0 104.31 12.1081 1263 103.553 1190.01 446.177
384 0 111.194 13.5619 1508 98.2818 1189.88 445.909
385 1 56.0691 11.5215 646 96.8947 1190.62 471.91
386 0 58.1314 11.646 677 95.2718 1190.65 472.648
387 0 60.1326 12.3727 744 93.4758 1189.64 469.086
388 0 62.1424 12.7127 790 93.4519 1189.75 467.799
389 0 64.1134 13.8973 891 91.7419 1189.67 467.572
390 0 63.0761 12.477 787 95.8882 1189.26 466.624
391 0 68.1016 12.9806 884 93.1143 1190.12 464.827
392 0 72.1331 13.6969 988 92.0455 1190.23 462.302
393 0 74.2186 13.6084 1010 91.5248 1190.45 459.791
394 0 75.1963 12.9129 971 93.622 1190.02 459.933
395 0 77.189 13.1495 1015 93.1576 1189.4 457.761
396 0 79.1841 12.4899 989 95.5682 1189.73 456.164
397 0 80.0601 12.9028 1033 95.9942 1189.48 456.166
398 0 85.1567 12.753 1086 97.7514 1189.51 456.336
399 0 87.1237 13.1078 1142 98.6252 1189.33 454.787
400 0 88.0686 11.7068 1031 102.271 1189.88 453.257
