time division length width area intensity CMx CMy
0 0 49.0423 11.0721 543 115.893 962.195 427.258
1 0 52.0742 11.138 580 114.797 962.21 428.971
2 0 54.0842 11.704 633 113.724 961.471 428.673
3 0 54.0842 11.6855 632 130.223 960.475 428.712
4 0 54.0392 11.6952 632 117.517 961.843 425.033
5 0 58.1256 11.2515 654 116.518 960.656 427.228
6 0 60.0811 11.6509 700 116.894 962.039 424.689
7 0 62.1096 10.3849 645 118.746 962.876 425.295
8 0 65.0849 11.631 757 116.861 962.161 422.069
9 0 65.0761 11.5403 751 139.289 960.192 421.939
10 0 66.2231 12.0351 797 116.386 962.701 422.799
11 0 71.1034 12.6998 903 114.874 963.733 418.969
12 0 73.1124 12.6381 924 114.747 965.145 419.338
13 0 75.2171 11.7659 885 117.131 964.774 417.789
14 0 76.216 13.8685 1057 113.653 965.249 413.653
15 0 79.1203 11.9944 949 117.698 964.592 416.647
16 0 84.1655 13.224 1113 114.262 964.301 414.703
17 0 84.1162 13.2198 1112 116.35 964.084 410.328
18 0 88.0875 14.6445 1290 115.267 964.02 412.396
19 0 90.1766 12.0209 1084 122.327 963.896 410.244
20 0 95.1077 13.4689 1281 118.302 963.919 408.39
21 1 52.0571 11.0072 573 115.75 963.557 429.815
22 0 54.0889 12.35 668 113.663 963.662 429.981
23 0 55.0621 12.2226 673 114.685 962.707 429.979
24 0 55.0621 12.1681 670 139.157 961.715 430.166
25 0 59.1422 13.1886 780 115.414 963.673 427.105
26 0 60.1425 13.3017 800 116.292 963.216 423.73
27 0 61.1099 12.4366 760 118.696 963.105 424.038
28 0 64.0883 12.9197 828 116.612 963.669 423.563
29 0 65.1094 12.5481 817 119.14 963.406 421.479
30 0 69.061 13.1623 909 118.277 963.735 421.462
31 0 72.0639 14.612 1053 113.558 963.56 420.49
32 0 74.0288 13.7649 1019 114.357 963.169 418.939
33 0 75.039 12.82 962 116.911 963.734 416.555
34 0 77.0337 12.8905 993 117.849 963.451 415.492
35 0 83.0381 13.8491 1150 113.211 963.616 414.33
36 0 85.15 13.6582 1163 114.377 963.547 411.972
37 0 88.1084 14.0395 1237 113.599 964.071 410.547
38 0 89.1213 12.7355 1135 116.426 963.865 411.409
39 0 92.1199 14.0035 1290 114.728 963.977 406.786
40 0 93.1733 13.7378 1280 114.38 963.741 406.632
41 0 97.1387 12.2917 1194 111.467 964.651 408.293
42 0 99.3071 12.8188 1273 109.553 964.383 405.226
43 0 101.299 12.3002 1246 112.089 964.161 402.889
44 0 107.236 14.6312 1569 108.33 964.655 400.645
45 1 59.0956 12.7421 753 111.142 964.028 423.967
46 0 61.0991 12.046 736 111.44 963.87 423.265
47 0 63.1514 13.2539 837 107.165 963.863 419.974
48 0 66.1796 11.9825 793 108.58 963.908 422.682
49 0 68.103 13.0538 889 107.94 963.979 419.496
50 0 70.1348 12.2193 857 110.847 963.627 417.564
51 0 72.2032 13.282 959 107.887 963.913 416.223
52 0 75.1417 13.1219 986 107.682 963.336 416.467
53 0 77.2153 13.0544 1008 108.383 964.432 413.986
54 0 79.0858 14.0101 1108 107.028 963.974 414.616
55 0 80.1485 12.3645 991 111.15 963.789 410.101
56 0 84.073 13.072 1099 108.622 963.696 411.692
57 0 86.1489 12.8963 1111 109.559 963.682 411.336
58 0 90.1334 12.4815 1125 109.871 963.556 406.024
60 0 93.1321 13.7332 1279 107.535 963.019 407.29
61 0 98.1141 14.4729 1420 110.17 962.787 403.899
62 0 102.248 14.8267 1516 108.206 963.408 406.14
63 0 105.147 13.9423 1466 110.074 963.81 404.22
64 0 107.085 12.4293 1331 111.73 963.236 403.887
65 0 113.086 13.954 1578 106.707 964.244 398.305
66 1 64.0962 13.7918 884 103.322 964.346 423.997
67 0 65.041 13.2993 865 105.555 964.416 422.52
68 0 67.1757 12.1026 813 107.325 965.014 422.938
69 0 70.1472 13.9991 982 103.851 964.345 419.968
70 0 73.0911 13.7363 1004 104.395 964.86 420.106
71 0 75.1236 14.1633 1064 103.11 964.876 419.196
72 0 78.1498 14.7281 1151 102.289 963.875 418.405
73 0 80.2482 14.6047 1172 102.837 964.14 415.81
74 0 85.1162 15.6962 1336 99.9596 964.496 414.698
75 0 86.1645 12.9288 1114 108.158 964.012 415.101
76 0 91.0785 14.8883 1356 104.719 963.977 412.209
77 0 91.1426 14.7132 1341 107.13 964.23 412.183
78 0 96.196 15.0422 1447 105.617 963.616 411.06
79 0 99.2159 16.3784 1625 102.785 964.282 408.122
80 0 102.224 15.4954 1584 105.473 963.47 404.967
81 0 105.256 14.289 1504 108.349 963.749 405.83
82 0 108.26 14.3635 1555 109.821 963.689 403.949
83 0 113.252 15.5494 1761 106.779 963.881 402.977
84 0 117.232 15.3712 1802 107.755 963.784 399.308
85 1 66.1666 12.4383 823 110.598 964.226 426.236
86 0 66.0668 12.7598 843 100.441 963.464 423.084
87 0 69.0823 12.8832 890 98.9742 963.919 422.888
88 0 70.0553 11.6765 818 101.945 963.709 422.028
89 0 72.0582 12.6564 912 101.612 963.719 420.934
90 0 76.1323 12.6884 966 102.307 963.523 419.967
91 0 77.0946 12.2317 943 103.566 963.394 419.024
92 0 80.1545 13.1496 1054 102.903 964.002 417.601
93 0 84.0786 13.2138 1111 103.187 963.217 416.783
94 0 85.1897 12.5602 1070 108.414 963.358 410.524
95 0 89.1006 12.4803 1112 108.728 963.647 413.36
96 0 93.134 13.1531 1225 106.472 962.221 413.823
97 0 93.2624 11.5266 1075 113.076 963.085 409.978
98 0 97.1066 12.9754 1260 110.108 963.03 407.798
99 0 101.091 12.3058 1244 105.622 963.439 405.275
100 1 51.0475 10.5784 540 93.0148 963.761 433.296
101 0 55.0879 12.0898 666 87.6396 963.641 431.509
102 0 55.139 12.2962 678 88.7979 963.202 429.389
103 0 57.0961 10.4736 598 91.5719 963.528 430.381
104 0 58.0302 12.2005 708 91.233 963.271 428.367
105 0 61.0525 11.269 688 92.484 963.221 428.288
106 0 63.0555 11.926 752 92.0266 963.061 426.225
107 0 67.2471 12.863 865 91.2994 963.625 425.047
108 0 68.0748 12.075 822 93.9173 963.838 425.265
109 0 71.2629 12.924 921 93.5396 963.108 421.319
110 0 75.1268 12.8716 967 93.4819 962.754 422.913
111 0 77.2993 13.1049 1013 95.382 963.112 419.94
112 0 79.1194 13.5239 1070 96.6626 962.607 419.087
113 0 80.1261 11.6941 937 100.512 962.525 418.692
114 0 85.1525 12.507 1065 100.454 962.786 417.146
115 0 87.138 13.6221 1187 101.831 963.398 414.457
116 0 91.1832 12.7107 1159 103.484 962.802 415.963
117 0 92.1461 11.8399 1091 108.135 962.281 412.49
118 1 47.1012 11.8468 558 102.654 962.817 436.873
119 0 48.0558 11.882 571 104.436 962.891 432.611
120 0 52.1347 11.6046 605 105.549 962.114 433.869
121 0 53.0441 11.7072 621 104.758 962.672 434.097
122 0 55.0708 11.349 625 105.923 962.651 433.12
123 0 58.1219 12.0437 700 104.156 962.636 431.26
124 0 61.2811 12.8098 785 101.58 962.461 429.106
125 0 63.0814 13.0308 822 101.409 961.63 428.574
126 0 66.1284 11.9616 791 102.636 962.799 428.445
127 0 68.1534 12.9854 885 101.314 962.47 425.081
128 0 71.2787 13.1596 938 99.6151 962.731 425.838
129 0 73.0887 13.1211 959 100.661 962.645 423.545
130 0 75.1454 12.4825 938 103.06 962.368 421.074
131 0 78.1907 12.9299 1011 100.552 962.356 422.496
132 0 81.1531 12.384 1005 101.592 963.287 420.249
133 0 83.1723 12.2998 1023 101.834 962.613 419.486
134 0 87.392 12.7472 1114 97.5584 963.184 416.429
135 0 89.0874 11.6964 1042 102.099 962.723 416.479
136 1 49.0746 12.7765 627 99.0351 963.309 433.278
137 0 51.2472 11.9226 611 99.3486 963.164 430.013
138 0 52.1609 12.2889 641 99.8986 963.075 430.289
139 0 54.0878 14.1437 765 93.7765 962.66 428.188
140 0 56.036 14.1516 793 94.8562 962.542 429.996
141 0 59.0915 12.9629 766 104.443 963.238 430.924
142 0 58.1855 12.4945 727 105.779 962.168 430.784
143 0 61.1045 13.4524 822 103.933 962.181 428.798
144 0 61.1983 11.4709 702 108.832 961.934 427.957
145 0 61.1668 13.079 800 103.344 962.196 426.982
146 0 67.1296 12.8855 865 98.9283 962.075 426.793
147 0 68.0499 13.0199 886 98.3996 961.585 424.491
148 0 72.2358 13.4144 969 96.4912 961.335 422.948
149 0 72.0692 12.8488 926 97.554 961.694 425.432
150 0 74.0948 13.3478 989 97.641 962.476 421.285
151 0 78.1429 13.872 1084 95.8026 962.458 421.933
152 0 80.126 12.8048 1026 98.5214 961.652 420.95
153 0 83.1184 12.3318 1025 98.9356 962.166 421.227
154 0 87.1381 13.7368 1197 97.0635 962.517 418.551
155 0 87.0874 12.298 1071 100.796 962.578 419.828
156 1 47.0907 13.8031 650 99.8215 962.689 435.618
157 0 49.079 13.733 674 99.9466 963.267 434.866
158 0 51.1062 14.3622 734 98.6308 963.379 434.752
159 0 52.1344 14.079 734 99.7207 962.489 433.772
160 0 54.2184 14.2387 772 99.6632 962.295 433.481
161 0 56.0355 14.4551 810 99.7025 962.088 431.963
162 0 57.0654 14.0015 799 100.736 962.278 432.188
163 0 57.0307 13.9925 798 102.62 962.917 431.179
164 0 61.1345 14.3291 876 101.409 962.006 431.139
165 0 63.355 14.3004 906 101.884 961.79 429.93
166 0 65.2177 13.2479 864 104.348 961.741 429.272
167 0 66.1599 14.2382 942 104.004 961.537 428.566
168 0 68.1574 15.919 1085 100.644 961.929 429.347
169 0 70.1973 14.2171 998 104.761 962.15 427.725
170 0 74.3452 15.3339 1140 102.424 961.418 424.73
171 0 77.1111 15.6916 1210 101.767 962.161 425.621
172 0 80.0913 15.4948 1241 102.691 962.501 420.948
173 0 82.1466 16.0567 1319 101.795 962.7 420.28
174 0 84.0441 14.1949 1193 106.655 962.366 421.646
175 0 87.1325 16.6184 1448 101.337 961.914 418.738
176 1 44.0732 12.3885 546 116.916 961.396 439.636
177 0 44.0257 14.1508 623 113.215 962.112 439.99
178 0 46.0296 14.0127 645 114.14 962.158 437.848
179 0 47.0696 14.5317 684 114.124 962.706 437.545
180 0 48.0257 14.9087 716 113.62 963.088 436.585
181 0 49.1145 14.7818 726 115.515 962.895 436.401
182 0 53.1222 14.5702 774 114.12 963.021 437.032
183 0 54.1051 15.6547 847 111.323 962.844 435.646
184 0 58.1051 16.3841 952 107.947 963.186 435.986
185 0 57.0498 14.6539 836 114.19 962.785 433.53
186 0 60.0755 15.6969 943 112.549 962.609 431.739
187 0 62.0808 15.5604 966 111.751 963.762 430.464
188 0 65.0912 16.8533 1097 108.229 963.662 429.262
189 0 67.097 14.412 967 113.77 962.589 429.348
190 0 67.2035 14.3743 966 116.461 963.197 427.207
191 0 70.1646 14.7795 1037 115.031 962.775 424.932
192 0 71.0956 15.8941 1130 114.63 962.72 423.75
193 0 72.0764 14.8315 1069 118.147 962.551 422.214
194 0 76.2457 14.4139 1099 117.757 962.94 423.784
195 0 76.0973 14.4026 1096 118.794 962.105 421.124
196 0 81.1596 15.143 1229 115.991 962.229 419.158
197 0 83.1691 15.1979 1264 116.459 961.605 417.257
198 0 87.1497 16.0069 1395 114.052 962.555 417.594
199 0 90.1337 15.6212 1408 115.901 961.676 414.09
200 0 93.0532 15.8297 1473 115.068 961.633 413.202
201 0 96.0731 14.9157 1433 118.174 961.937 411.978
202 0 100.068 15.7692 1578 116.465 961.913 408.492
203 0 103.103 15.2372 1571 118.19 961.717 408.631
204 0 110.151 16.7497 1845 114.969 961.33 405.878
205 1 55.1152 11.7209 646 120.009 962.218 430.342
206 0 55.0758 13.0184 717 120.972 960.665 427.602
207 0 59.1207 12.5506 742 121.571 961.43 427.34
208 0 61.1377 12.6599 774 121.093 961.641 425.668
209 0 63.1116 13.1038 827 119.969 961.549 425.77
210 0 65.16 13.7201 894 119.522 962.179 423.518
211 0 67.1384 12.8987 866 122.707 961.642 422.038
212 0 70.1148 14.3051 1003 117.938 962.184 422.956
213 0 71.1297 13.0888 931 123.487 962.39 419.504
214 0 72.2031 14.3207 1034 120.756 962.812 418.998
215 0 74.1251 14.7588 1094 120.198 963.441 419.231
216 0 77.1031 14.0202 1081 123.446 963.068 417.636
217 0 78.1726 13.7004 1071 125.519 963.113 413.451
218 0 84.1584 14.1162 1188 121.996 962 414.543
219 0 81.0948 13.0835 1061 128.254 962.455 410.489
220 0 88.179 13.4839 1189 124.804 962.635 410.177
221 0 91.1568 13.7455 1253 123.785 962.735 407.788
222 0 93.1439 12.8189 1194 127.168 963.282 403.966
223 0 96.0417 13.6711 1313 125.056 963.037 401.106
224 0 102.2 13.6888 1399 122.911 961.496 402.84
225 0 108.074 13.9904 1512 121.079 961.3 400.137
226 1 57.1127 9.78766 559 112.968 962.733 425.454
227 0 60.0821 11.0349 663 110.882 962.359 424.202
228 0 61.0857 10.0187 612 112.763 961.846 420.951
229 0 59.1151 11.0124 651 112.822 962.154 418.47
230 0 65.0617 12.4497 810 107.995 962.46 418.246
231 0 66.1178 9.6192 636 114.849 962.209 417.879
232 0 71.1014 11.0406 785 111.057 963.247 417.355
233 0 71.1014 11.7438 835 110.486 962.844 415.263
234 0 74.131 10.9401 811 113.244 962.324 411.534
235 0 78.1034 11.408 891 111.996 962.46 411.448
236 0 80.0341 12.0074 961 110.836 961.966 412.232
237 0 78.089 11.9607 934 113.452 962.724 408.165
238 0 83.0723 10.8941 905 114.502 962.887 407.82
239 0 87.0688 12.4269 1082 111.542 962.892 404.782
240 0 89.0758 11.6418 1037 113.255 962.167 401.4
241 0 90.1702 11.0901 1000 115.023 961.793 400.898
242 0 98.0951 11.7845 1156 110.683 961.149 402.156
243 0 98.1414 12.0235 1180 112.343 961.761 396.064
244 0 105.153 12.3725 1301 110.55 962.115 394.476
245 0 107.139 11.5271 1235 113.252 962.594 391.189
246 1 55.1915 8.04472 444 104.191 961.597 420.122
247 0 59.0195 10.0475 593 100.514 962.285 418.911
248 0 60.1465 8.94483 538 101.985 962.485 419.452
249 0 65.1795 9.66561 630 98.5365 963.432 418.57
250 0 62.2524 7.71055 480 104.492 962.848 413.877
251 0 61.1739 6.11372 374 107.404 963.398 408.762
252 0 72.2221 7.67078 554 98.3177 962.343 415.836
253 0 73.0837 10.5085 768 96.8359 961.495 411.254
254 0 76.1498 9.79648 746 99.9987 962.101 405.228
255 0 82.2459 10.8334 891 98.4164 961.732 408.506
256 0 80.099 10.8116 866 98.7991 961.423 407.363
257 0 83.3407 9.33517 778 103.515 960.341 399.368
258 0 92.1083 10.2705 946 100.572 961.113 402.474
259 0 94.3937 10.6787 1008 99.7946 961.942 404.689
260 1 46.0161 8.51876 392 94.3801 960.14 423.166
261 0 50.0545 8.11116 406 95.8695 959.729 421.904
262 0 51.166 8.46264 433 96.3326 962.804 421.845
263 0 51.0661 8.28339 423 97.5225 964.17 421.442
264 0 56.117 8.64266 485 96.1959 963.326 422.565
265 0 58.1794 7.49406 436 98.7316 963.193 423.362
266 0 56.0404 8.15483 457 99.8052 963.729 419.512
267 0 62.174 9.2965 578 96.8668 962.562 422.403
268 0 66.1107 12.0253 795 91.7924 963.404 416.19
269 0 71.2126 10.8408 772 95.307 963.557 416.224
270 0 69.145 9.70424 671 100.93 963.39 416.113
271 1 137.552 10.2434 1409 108.065 962.67 386.559
272 1 74.1716 10.5971 786 101.135 962.86 417.565
273 0 75.1576 10.2718 772 103.38 962.553 416.368
274 0 81.1443 11.7445 953 100.709 962.587 413.904
275 0 83.1774 12.3711 1029 100.662 962.255 415.971
276 0 84.0808 11.9766 1007 102.782 962.934 412.023
277 0 88.0965 11.896 1048 104.398 963.429 411.914
278 0 91.1443 10.9058 994 107.414 963.343 411.04
279 0 94.2021 13.28 1251 102.743 962.759 407.098
280 1 49.133 8.64999 425 98.2141 962.447 433.722
281 0 51.0811 8.2418 421 97.8955 963.382 430.689
282 0 51.1241 10.3474 529 98.8922 962.945 429.93
283 0 55.0977 10.4904 578 98.5346 961.806 430.914
284 0 57.038 10.8349 618 99.8139 962.625 429.751
285 0 58.0983 11.1191 646 101.087 961.354 430.265
286 0 59.0785 10.8161 639 102.408 962.651 427.491
287 0 61.0555 10.6952 653 102.596 962.565 429.002
288 0 61.1191 11.224 686 103.278 962.326 425.442
289 0 61.1455 10.3851 635 105.923 962.965 425.128
290 0 65.1526 11.1277 725 103.126 962.426 425.996
291 0 67.1595 10.8696 730 104.095 963.26 423.497
292 0 68.1553 11.2977 770 103.869 962.916 421.383
293 0 71.1503 10.78 767 102.313 962.701 424.705
294 0 72.1186 12.0219 867 102.138 961.337 423.641
295 0 75.0895 11.9058 894 103.37 962.782 421.469
296 0 76.2074 11.4162 870 104.223 962.054 417.721
297 0 81.1878 11.5904 941 101.724 963.072 418.305
298 0 82.1703 10.9894 903 105.083 962.738 415.138
299 1 42.1551 9.41761 397 92.8262 963.07 435.914
300 0 43.0848 10.4909 452 92.323 962.845 435.022
301 0 43.0713 9.44945 407 92.4717 962.889 435.108
302 0 45.0099 10.8421 488 90.4201 962.562 434.383
303 0 46.0419 11.0769 510 90.0333 962.435 434.974
304 0 47.1091 10.6986 504 92.6091 962.806 433.591
305 0 47.0601 9.79599 461 95.2299 963.174 432.388
306 0 48.0705 10.2558 493 95.5619 962.978 432.191
307 0 52.0749 11.9443 622 97.7154 963.04 433.212
308 0 52.1075 10.9197 569 99.3849 961.949 431.726
309 0 53.0143 10.3368 548 102.004 962.494 431.071
310 0 55.0649 10.5875 583 103.605 963.192 429.444
311 0 53.0461 9.53888 506 108.607 963.348 429.781
312 0 59.0366 11.3997 673 103.288 963.18 429.163
313 0 59.0298 10.842 640 104.089 962.992 429.788
314 0 62.0366 11.2514 698 103.182 962.562 428.926
315 0 60.0687 9.90533 595 108.676 963.321 426.812
316 0 63.1277 10.1699 642 107.522 962.101 426.995
317 0 64.0957 11.4828 736 105.731 962.849 425.155
318 0 69.1654 12.2315 846 103.901 962.5 425.658
319 0 69.1506 11.9449 826 106.09 963.272 424.975
320 0 70.2218 11.5776 813 108.208 963.609 420.942
321 0 74.1587 13.1205 973 104.293 962.467 419.639
322 0 75.1893 12.5949 947 105.711 961.947 419.177
323 0 76.1877 11.7998 899 107.923 963.052 420.529
324 0 79.169 12.9344 1024 106.668 962.976 417.63
325 0 83.1473 11.9787 996 109.903 963.052 417.398
326 0 86.0763 12.7213 1095 109.044 963.803 415.962
327 0 89.142 12.8671 1147 111.042 963.122 415.194
328 0 90.137 12.8804 1161 111.386 963.439 412.718
329 0 91.246 12.143 1108 112.264 963.685 412.256
330 0 95.1516 13.4207 1277 109.637 963.773 412.583
331 0 98.2305 14.5983 1434 105.953 964.103 409.529
332 1 53.0763 11.832 628 98.9697 963.382 434.245
333 0 56.0849 11.6787 655 109.551 962.714 432.785
334 0 58.0939 13.2544 770 103.817 963.101 430.512
335 0 58.2507 14.2831 832 102.696 963.23 428.496
336 0 61.186 12.5846 770 105.879 963.217 428.839
337 0 62.2652 11.6919 728 107.86 963.613 427.967
338 0 63.2514 12.2843 777 107.234 963.348 427.472
339 0 66.187 13.5374 896 104.272 963.402 424.507
340 0 65.1159 11.5486 752 108.789 962.664 425.258
341 0 70.1535 12.5582 881 106.159 962.702 423.62
342 0 72.2432 12.6379 913 105.692 962.137 423.279
343 0 74.1753 12.9558 961 106.362 963.541 421.795
344 0 77.1587 11.9235 920 108.099 963.058 420.785
345 0 81.1141 14.1159 1145 103.315 963.165 419.393
346 0 82.228 12.3194 1013 107.804 962.437 417.692
347 0 83.1608 13.504 1123 108.331 963.263 415.297
348 0 89.2489 12.4707 1113 108.284 963.025 414.303
349 0 91.329 14.2671 1303 105.643 962.641 412.117
350 0 91.3089 14.2483 1301 136.096 962.656 412.035
351 0 94.1921 11.0094 1037 106.144 962.748 409.752
352 1 48.0403 10.4079 500 99.854 963.012 433.822
353 0 51.0989 12.6813 648 100.289 964.069 433.65
354 0 51.0646 11.6715 596 106.768 963.601 433.374
355 0 53.048 12.0834 641 105.863 963.011 433.705
356 0 54.0522 11.3409 613 109.737 964.015 431.396
357 0 55.0378 11.5375 635 109.194 963.433 429.216
358 0 60.025 13.1279 788 104.534 964.039 427.174
359 0 61.036 12.0912 738 105.822 963.645 428.504
360 0 64.0578 11.6145 744 105.681 963.051 427.821
361 0 67.0546 12.7657 856 104.266 963.141 426.328
362 0 68.0473 11.9182 811 107.967 962.874 423.887
363 0 70.1215 12.4641 874 107.232 962.865 423.661
364 0 73.0623 13.9744 1021 105.422 962.826 420.969
365 0 77.07 13.1958 1017 105.736 962.707 421.504
366 0 79.0631 12.1296 959 103.278 962.339 420.174
367 0 80.0974 11.873 951 103.749 962.618 419.675
368 0 85.0643 13.8954 1182 100.696 961.051 416.431
369 0 87.1675 12.1031 1055 104.607 963.018 415.749
370 1 43.1376 9.2263 398 107.623 963.249 435.91
371 0 44.0612 9.71376 428 108.138 963.299 435.909
372 0 49.0272 12.0749 592 100.037 962.177 435.772
373 0 51.0843 11.3929 582 97.5584 962.122 431.716
374 0 52.0972 10.0005 521 101.081 961.745 432.14
375 0 55.0925 9.80169 540 101.554 961.841 431.289
376 0 55.1013 10.8164 596 100.94 961.774 428.888
377 0 57.2072 11.2398 643 100.078 961.563 428.345
378 0 59.1539 11.58 685 99.0496 962.272 428.704
379 0 61.1697 10.4137 637 102.108 962.055 426.049
380 0 63.2433 10.1829 644 100.871 961.773 428.011
381 0 63.4055 10.1568 644 102.214 961.616 425.896
382 0 66.1869 9.76023 646 101.279 962.115 423.986
383 0 67.0456 10.2169 685 101.876 962.86 422.943
384 0 73.145 11.1969 819 99.1709 962.221 420.713
385 0 75.2345 11.9493 899 98.7742 962.37 419.337
386 0 79.0774 10.8881 861 100.841 962.47 416.516
387 1 38.1074 10.0243 382 98.3063 961.113 438.031
388 0 41.1443 10.1594 418 98.6077 961.189 439.849
389 0 42.2046 10.8756 459 97.4619 961.187 439.318
390 0 43.2311 11.1262 481 97.1476 961.154 438.455
391 0 43.0583 10.0097 431 90.3504 962.557 436.459
392 0 44.0244 10.2898 453 90.3488 962.726 436.976
393 0 45.1005 10.1551 458 90.8319 962.491 435.483
394 0 47.0331 9.29132 437 92.2609 962.231 434.023
395 0 49.04 10.4404 512 90.3652 961.623 435.324
396 0 46.0612 8.40187 387 95.3721 962.07 432.904
397 0 51.0194 10.6234 542 91.6181 961.817 432.29
398 0 53.0135 10.3936 551 94.637 962.016 433.958
399 0 54.0396 11.251 608 93.7763 961.77 433.377
400 0 55.0667 9.82444 541 97.7116 962.464 431.893
401 0 57.0644 12.0566 688 94.1875 961.885 429.807
402 0 57.0353 12.1328 692 95.5694 961.89 428.883
403 0 57.0077 11.4546 653 98.2512 961.862 430.47
