time division length width area intensity CMx CMy
0 0 76.1026 13.784 1049 76.7731 1345.23 461.044
1 0 75.0533 13.8435 1039 78.77 1344.67 462.544
2 0 76.0954 12.4449 947 82.9525 1344.98 458.536
3 0 77.1018 11.634 897 86.0279 1344.36 453.097
4 0 80.1307 12.3798 992 82.8125 1344.82 459.795
5 0 84.0874 11.0005 925 84.7557 1344.22 462.359
6 0 86.0735 11.2578 969 84.6873 1344.7 458.899
7 0 89.1364 11.0393 984 85.9045 1344.82 456.13
8 0 93.202 10.1393 945 88.3767 1345.47 456.029
9 0 98.106 9.67321 949 87.7766 1345.41 458.52
10 1 52.1354 9.95485 519 79.1657 1344.77 481.32
11 0 54.0928 9.31733 504 80.0694 1345.32 477.302
12 0 53.1323 6.26737 333 83.5856 1347.14 475.228
13 0 56.0858 8.02343 450 81.8711 1346.95 473.413
14 0 58.0334 9.11544 529 79.6692 1347.31 475.8
15 0 61.052 10.1225 618 78.5631 1347.27 473.369
16 0 65.0208 10.2583 667 78.8786 1346.34 473.489
17 0 66.042 10.2208 675 80.563 1346.68 469.104
18 0 68.1003 9.10422 620 82.0919 1346.4 466.948
19 0 71.0636 10.6665 758 80.9486 1346.3 468.727
20 0 76.0735 10.6082 807 81.9665 1345.84 466.932
21 0 82.076 13.0976 1075 76.2195 1346.36 458.345
22 0 87.1266 14.1174 1230 74.6732 1346.24 458.47
23 0 90.1084 16.6577 1501 71.8128 1346.08 452.379
24 0 90.0667 14.8446 1337 77.3844 1345.72 455.782
25 0 93.1262 15.4414 1438 76.7559 1346.63 455.569
26 0 97.1154 14.1172 1371 78.8133 1346.7 454.164
27 0 101.139 14.4652 1463 79.7375 1345.46 452.033
28 0 99.1841 11.887 1179 86.2909 1346.71 451.483
29 1 52.1279 9.97546 520 87.3019 1346.35 474.079
30 0 57.1895 12.5897 720 84.8847 1345.98 471.432
31 0 57.2273 12.1795 697 86.7963 1345.99 470.963
32 0 59.0531 13.3101 786 84.3639 1346.42 470.966
33 0 61.059 12.6271 771 85.5772 1345.89 471.166
34 0 62.0554 11.4253 709 87.8505 1346.64 468.433
35 0 63.1459 13.0016 821 84.0999 1346.8 468.513
36 0 66.0589 12.2467 809 86.6737 1345.51 467.889
37 0 67.0841 11.2694 756 88.6614 1346.17 466.602
38 0 70.0872 12.0564 845 87.0793 1345.86 464.922
39 0 71.045 13.1466 934 85.8019 1345.62 466.522
40 0 73.1177 11.8439 866 88.2933 1345.8 463.431
41 0 75.1516 11.7496 883 88.7271 1346.11 461.151
42 0 84.1276 14.6207 1230 80.1496 1346.88 457.037
43 0 79.0952 13.2751 1050 87.001 1346.31 455.566
44 0 80.142 11.5794 928 89.3912 1346.83 457.349
45 0 87.0787 13.7806 1200 85.6833 1346.06 454.81
46 0 89.1761 13.2883 1185 86.3899 1346.44 450.971
47 0 92.174 12.1726 1122 90.1417 1345.77 452.706
48 0 94.1377 12.2905 1157 97.7986 1345.53 446.884
49 0 99.2353 13.3017 1320 96.0667 1345.7 442.944
50 0 103.199 12.597 1300 96.4415 1345.96 444.662
51 1 52.0789 9.12078 475 98.9053 1346.01 466.533
52 0 58.126 11.4235 664 94.8012 1345.96 464.526
53 0 60.1042 10.9643 659 95.4947 1346.03 465.757
54 0 60.0827 13.032 783 92.0971 1346.69 464.405
55 0 62.1353 12.2796 763 93.3447 1346.38 464.19
56 0 66.1196 13.0219 861 90.3287 1346.42 463.225
57 0 67.1619 12.3433 829 93.1242 1345.68 462.088
58 0 72.0452 12.6171 909 86.6865 1345.92 463.059
59 0 70.255 13.4083 942 85.811 1346.04 464.16
60 0 73.1494 12.1942 892 89.6973 1345.51 459.621
61 0 75.0863 14.237 1069 86.8335 1345.44 457.167
62 0 77.0896 11.0391 851 92.3102 1345.49 458.089
63 0 81.0872 13.2697 1076 88.3346 1344.89 456.158
64 0 81.0869 9.75497 791 91.9343 1346.07 452.535
65 1 96.1831 15.0962 1452 78.9821 1347.08 444.541
66 0 97.154 14.4822 1407 82.7541 1346.42 439.216
67 0 99.2272 16.558 1643 79.4796 1346.73 438.189
68 0 102.274 17.3259 1772 78.8076 1346.1 438.361
69 0 100.187 16.1398 1617 82.3278 1346.46 441.776
70 1 51.0441 11.1864 571 90.9229 1346.72 468.033
71 0 55.156 10.7513 593 89.6425 1346.91 469.007
72 0 53.0815 11.0396 586 91.6075 1346.04 465.355
73 0 60.0473 13.0564 784 86.2832 1345.78 468.532
74 0 58.0873 13.8757 806 86.5298 1345.46 465.38
75 0 64.0802 11.3451 727 89.3342 1345.92 465.146
76 0 63.0644 12.4159 783 88.3206 1345.78 464.805
77 0 65.1508 12.9239 842 87.0641 1346.16 458.026
78 0 64.0675 12.5024 801 89.7154 1345.67 457.762
79 0 69.0508 14.4676 999 85.5556 1345.41 453.49
80 0 74.1101 13.7633 1020 85.9873 1345.31 454.835
81 0 75.051 13.8572 1040 86.901 1345.58 452.881
82 0 79.0855 13.8711 1097 86.4439 1345.38 455.418
83 0 82.1558 13.6448 1121 87.0883 1345.49 451.268
84 0 84.1212 14.8952 1253 84.9002 1345.58 452.235
85 0 85.1396 14.2119 1210 86.6537 1345.72 450.472
86 0 87.3156 13.308 1162 88.9776 1346.14 447.292
87 0 88.0704 12.2743 1081 91.6096 1345.58 446.015
88 0 89.0675 13.0912 1166 90.4588 1345.69 444.378
89 0 95.0848 14.0296 1334 88.3246 1345.68 441.371
90 0 99.1916 13.4084 1330 88.7466 1345.99 441.512
91 0 101.211 13.6547 1382 88.3111 1345.66 439.029
92 0 105.16 13.5127 1421 88.6193 1346.25 432.468
93 0 112.124 15.2242 1707 83.092 1346.49 433.427
94 0 119.145 14.2012 1692 84.8972 1345.19 430.184
95 1 57.1782 10.476 599 79.2387 1346.45 460.142
96 0 60.0846 11.1676 671 76.6945 1345.79 459.466
97 0 69.2276 10.2127 707 77.1556 1345.64 462.819
98 0 74.112 11.4691 850 75.2294 1345.27 465.184
99 0 72.1401 10.438 753 74.1607 1345.2 458.963
100 0 75.107 10.545 792 71.1944 1345.33 462.937
101 0 78.1079 8.96197 700 73.7829 1345.13 461.864
102 0 79.201 8.43423 668 75.7844 1344.78 458.352
103 0 83.1054 10.3002 856 74.1659 1345.68 456.159
104 0 86.1473 9.5534 823 76.0899 1345 452.03
105 0 88.0557 8.188 721 78.025 1345.51 450.731
106 0 91.0567 10.6417 969 75.774 1344.93 449.332
107 0 96.085 11.8541 1139 74.2177 1345.19 451.45
108 1 52.038 9.10873 474 71.8312 1346.08 473.816
109 0 53.0361 9.03159 479 72.7307 1345.85 471.658
110 0 58.1172 12.0446 700 71.4229 1343.74 465.98
111 0 59.0769 11.1042 656 70.2302 1345.32 470.262
112 0 59.0789 9.90202 585 72.3043 1344.6 472.52
113 0 65.0561 11.5131 749 70.5207 1344.89 471.617
114 0 67.0585 10.9606 735 71.8612 1343.98 468.635
115 0 68.0366 11.92 811 70.7127 1344.59 468.306
116 0 72.1083 13.2162 953 69.3851 1344.37 467.984
117 0 73.0651 11.3734 831 72.438 1344.15 467.939
118 0 73.0585 10.4574 764 74.1793 1344.32 466.988
119 0 77.0414 12.5776 969 70.8875 1344.69 467.64
120 0 79.08 12.6075 997 71.3852 1344.67 464.203
121 0 80.1451 12.0531 966 73.176 1344.23 464.651
122 0 84.1612 13.3197 1121 71.6949 1344.97 461.037
123 0 84.1121 10.9972 925 76.5935 1344.78 459.337
124 0 87.1111 11.9158 1038 77.3189 1344.97 458.323
125 0 90.071 12.3014 1108 77.7978 1344.19 457.542
126 0 91.0788 11.5285 1050 78.8038 1344.19 459.441
127 0 95.1448 10.8782 1035 79.2899 1344.96 455.148
128 0 96.1554 9.82784 945 80.836 1344.72 454.064
129 0 103.213 11.4229 1179 77.6836 1345 452.289
130 0 108.356 12.5974 1365 76.8264 1344.47 446.422
131 0 111.187 12.0338 1338 78.3842 1344.69 446.128
132 0 116.398 12.0964 1408 78.1321 1343.66 443.114
133 0 109.149 12.6524 1381 76.6307 1344.43 430.044
134 1 64.1435 9.16694 588 82.4711 1344.7 468.189
135 0 67.1127 10.2365 687 81.1528 1344.71 466.833
136 0 66.0541 12.0961 799 79.4919 1344.96 462.451
137 0 70.091 13.4111 940 77.6989 1344.38 463.945
138 0 69.15 9.84816 681 83.5374 1343.86 460.847
139 0 70.1508 10.6913 750 82.2787 1344.8 458.447
140 0 78.2374 13.6891 1071 77.0402 1343.76 459.861
141 0 80.0974 12.4474 997 80.1053 1344.69 459.432
142 0 83.1642 12.6857 1055 79.5156 1344.44 460.417
143 0 86.2877 13.5245 1167 79.3205 1344.63 455.737
144 0 87.1606 13.1137 1143 79.4751 1344.12 456.243
145 0 88.0768 13.4996 1189 77.8629 1344.98 459.024
146 0 91.2638 13.3569 1219 79.6563 1344.28 455.813
147 0 94.2444 13.7621 1297 78.9198 1344.62 452.436
148 0 98.242 14.4948 1424 78.4284 1344.28 448.885
149 0 101.342 13.1831 1336 80.5681 1344.13 448.189
150 0 102.192 13.0441 1333 80.4546 1343.97 446.444
151 0 104.236 13.2009 1376 78.6584 1345.39 447.613
152 0 105.181 10.23 1076 82.1022 1343.79 447.297
153 1 57.0651 9.97107 569 79.5817 1343.76 465.61
154 0 60.1123 12.46 749 67.9413 1345.34 464.304
155 0 62.0589 10.49 651 70.7819 1345.01 463.823
156 0 63.1217 11.2006 707 70.9929 1344.35 463.564
157 0 66.0637 11.8976 786 69.9631 1344.33 462.421
158 0 67.2017 12.7229 855 70.0819 1344.65 458.552
159 0 74.1063 11.7534 871 69.992 1344.21 461.042
160 0 71.1048 12.5308 891 71.9989 1343.98 458.47
161 0 75.1104 12.5548 943 72.4677 1343.58 455.098
162 0 78.214 11.2768 882 74.5204 1344.52 455.991
163 0 79.1533 11.4461 906 75.0397 1344.49 454.568
164 0 84.165 13.0102 1095 74.2557 1343.4 454.883
165 0 85.2684 11.2938 963 77.9159 1344.01 451.169
166 0 87.1036 12.7549 1111 76.9163 1343.93 452.079
167 0 90.1705 12.3987 1118 79.1404 1342.72 448.675
168 0 93.1492 13.0973 1220 78.5352 1344.02 449.149
169 0 90.1269 11.8722 1070 82.6673 1343.98 448.986
170 0 97.1751 13.0692 1270 80.1583 1344.21 448.203
171 0 104.121 15.6933 1634 75.6848 1344.07 445.272
172 0 104.182 14.7818 1540 79.8656 1344.88 444.644
173 0 108.186 14.207 1537 80.7092 1344.17 437.379
174 0 112.284 14.3386 1610 81.5497 1343.76 436.905
175 0 116.281 12.8396 1493 84.4997 1343.55 434.82
176 0 124.29 12.8249 1594 86.579 1343.53 427.065
177 0 127.253 13.5321 1722 89.234 1343.25 413.661
178 0 132.221 13.9615 1846 89.9485 1344.13 391.718
179 1 67.0965 13.2347 888 86.7635 1343.76 424.587
180 0 69.145 13.7537 951 86.2145 1344.41 417.266
181 0 71.1303 12.4841 888 88.3795 1344.64 416.293
182 0 75.0692 13.4942 1013 87.0128 1344.27 406.706
183 0 78.184 13.9031 1087 86.218 1344.81 407.942
184 0 80.1377 12.6907 1017 88.5339 1344.85 409.71
185 0 81.1924 13.4372 1091 87.9285 1344.74 406.608
186 0 83.18 12.9358 1076 89.4071 1344.73 404.881
187 0 86.1159 13.0754 1126 88.6341 1344.19 399.925
188 0 92.151 12.7617 1176 88.54 1344.29 397.815
189 0 96.2272 14.736 1418 84.9993 1343.67 392.453
190 0 94.1503 12.7137 1197 89.9323 1344.51 393.119
191 0 100.176 13.4064 1343 87.4892 1343.73 396.915
192 0 104.208 13.1659 1372 87.7682 1344.11 395.635
193 1 55.0343 11.2657 620 82.1855 1343.57 424.855
194 0 56.1984 12.7584 717 80.9149 1343.12 423.53
195 0 56.1092 10.8538 609 87.7635 1342.87 429.453
196 0 58.2087 12.3693 720 84.7556 1343.89 435.718
197 0 57.0632 10.0765 575 88.3722 1343.29 439.579
198 0 64.238 12.5782 808 81.9827 1343.58 441.083
199 0 68.0612 13.3997 912 85.4956 1343.54 437.845
200 0 69.2003 12.7456 882 86.9093 1342.89 439.173
201 0 71.1177 12.88 916 87.5262 1343.99 438.045
202 0 75.1418 13.1219 986 86.3509 1342.94 439.173
203 0 77.1783 14.175 1094 84.659 1343.43 437.994
204 0 78.1417 12.6565 989 87.2498 1343.23 438.909
205 0 82.2529 13.3004 1094 85.9031 1343.07 438.611
206 0 83.1776 13.1406 1093 83.0485 1343.33 433.048
207 0 80.1221 11.7945 945 87.49 1343.2 427.785
208 0 86.2058 14.3262 1235 82.0154 1344.17 430.973
209 0 89.0901 13.9297 1241 82.6551 1342.89 432.035
210 0 92.1114 13.8528 1276 81.7978 1344.15 432.656
211 0 96.267 14.7818 1423 79.61 1343.46 436.981
212 0 95.1951 12.091 1151 84.7593 1343.58 434.351
213 0 101.232 12.6838 1284 82.9525 1343.36 435.275
214 1 56.2743 12.2258 688 80.7951 1344.08 457.238
215 0 59.1496 12.1049 716 81.6145 1345.78 452.468
216 0 60.1636 11.8676 714 82.2283 1344.67 448.599
217 0 62.0693 12.5505 779 81.2619 1345.28 448.689
218 0 62.1694 11.3561 706 84.5368 1344.08 448.269
219 0 67.1637 12.7152 854 81.5304 1344.47 447.561
220 0 70.1223 12.849 901 81.1676 1344.32 446.967
221 0 71.1506 12.6211 898 83.0212 1344.46 442.702
222 0 74.2125 13.5422 1005 81.4677 1344.54 444.111
223 0 78.2117 13.4251 1050 81.6771 1344.81 442.484
224 0 81.2663 14.2248 1156 79.865 1344.1 445.142
225 0 81.1031 14.1548 1148 80.7822 1343.13 439.373
226 0 84.1665 12.6891 1068 83.0749 1343.56 438.48
227 0 86.1512 13.4415 1158 82.1917 1344.53 441.995
228 0 89.2429 13.5473 1209 80.4971 1344.86 448.085
229 0 91.1602 13.6792 1247 81.3617 1344.33 446.197
230 0 96.1916 14.5231 1397 79.3579 1344.65 446.946
231 0 95.3394 12.7859 1219 83.8007 1343.53 443.813
232 0 100.209 13.1026 1313 82.9467 1344.02 443.64
233 0 102.229 12.1199 1239 83.4657 1344.72 441.835
234 0 107.181 12.7541 1367 82.4162 1344.8 435.849
235 0 117.16 13.2213 1549 80.0788 1344.66 442.102
236 0 120.259 11.7663 1415 85.3463 1343.83 443.44
237 1 61.0398 11.6809 713 74.9439 1344.42 472.828
238 0 65.0543 11.7748 766 75.2872 1345.08 470.973
239 0 65.052 11.6061 755 76.2344 1344.79 469.305
240 0 68.0866 11.0595 753 77.4369 1344.53 469.946
241 0 70.0412 10.6937 749 77.6302 1344.65 463.979
242 0 74.2386 12.6215 937 76.2775 1344.39 461.994
243 0 76.2094 13.6072 1037 75.0974 1344.91 460.873
244 0 79.2284 12.4072 983 77.2584 1343.71 460.679
245 0 81.1139 12.7598 1035 78.2899 1344.4 460.446
246 0 83.1176 11.0927 922 81.0553 1343.89 459.815
247 1 109.264 18.1396 1982 64.1125 1343.75 444.037
248 0 105.272 20.7272 2182 63.1535 1343.71 442.088
249 0 102.209 18.5698 1898 68.6201 1344.27 449.305
250 0 100.312 13.7372 1378 79.3026 1343.02 444.967
251 0 100.337 13.8832 1393 80.0926 1343.14 448.851
252 0 103.142 13.2633 1368 83.0183 1344.25 442.517
253 0 109.07 13.5693 1480 81.75 1343.85 436.426
254 0 116.246 14.7016 1709 79.7022 1344.1 439.388
255 1 60.1575 13.2153 795 78.4931 1343.67 470.717
256 0 62.0862 13.1269 815 75.8454 1343.25 469.761
257 0 64.1247 13.3646 857 76.979 1342.72 463.839
258 0 66.2269 13.9369 923 74.3727 1344.09 467.196
259 0 68.3043 11.8733 811 77.9975 1344.07 465.346
260 0 71.2098 13.397 954 76.1667 1343.73 463.526
261 0 73.1326 13.4824 986 76.0619 1343.57 465.075
262 0 75.1934 12.674 953 77.6642 1343.43 463.908
263 0 76.2563 12.694 968 80.6033 1343.79 453.791
264 0 80.1038 13.2952 1065 78.7324 1344.15 456.035
265 0 82.0654 12.9774 1065 80.9549 1342.7 453.037
266 0 83.1252 12.427 1033 81.7928 1344.47 452.997
267 0 86.1744 12.4631 1074 82.2095 1343.96 452.357
268 0 91.2502 13.6767 1248 80.1931 1343.73 455.882
269 0 93.2047 13.6366 1271 80.4296 1344.31 454.381
270 0 98.2812 13.8785 1364 82.9032 1343.72 452.694
271 0 103.24 14.7521 1523 85.7203 1342.82 436.781
272 1 55.0895 11.6901 644 85.6056 1343.77 462.203
273 0 57.1912 11.8025 675 86.4667 1344.11 456.916
274 0 60.1524 13.9479 839 83.7128 1343.65 451.135
275 0 60.1923 13.5233 814 84.3231 1344.18 454.356
276 0 60.1342 11.8734 714 88.8417 1344.48 452.895
277 0 65.4021 12.5684 822 86.9015 1343.76 454.057
278 0 65.1721 12.3826 807 88.2131 1344.5 454.86
279 0 69.2293 14.4881 1003 85.2353 1344.53 452.164
280 0 70.302 12.7877 899 88.8788 1344.3 453.232
281 0 72.1278 12.5333 904 90.479 1344.81 453.545
282 0 76.1649 13.1294 1000 90.422 1344.72 452.908
283 0 77.1174 14.1732 1093 89.0357 1344.26 452.399
284 0 79.1751 12.8702 1019 90.7615 1344.98 454.797
285 0 84.1875 13.3155 1121 90.1731 1343.87 452.787
286 0 90.1489 15.1305 1364 84.0777 1344.47 454.911
287 0 95.1742 17.6098 1676 78.4809 1345.1 447.729
288 0 98.2278 17.9583 1764 77.9484 1344.1 444.493
289 0 102.213 17.8646 1826 78.8795 1344.58 446.005
290 0 99.3645 14.2908 1420 88.6232 1344.68 447.274
291 0 101.201 13.488 1365 92.3399 1344.03 449.265
292 0 105.214 12.7455 1341 94.2491 1344.33 447.259
293 0 108.27 12.7182 1377 94.7422 1345.19 445.551
294 0 112.126 13.3065 1492 93.5838 1345.19 446.013
295 1 77.0868 8.76934 676 87.5651 1344.93 474.235
296 0 66.1239 15.1231 1000 78.714 1345.56 468.283
297 0 80.3291 14.59 1172 75.7329 1344.99 462.222
298 0 78.2986 13.6401 1068 79.0506 1345.35 461.816
299 0 78.0756 15.754 1230 76.9715 1344.97 460.511
300 0 75.17 14.5271 1092 81.1154 1345.37 461.709
301 0 84.1305 16.415 1381 75.3432 1344.83 455.638
302 0 85.142 14.9398 1272 79.2594 1345.13 458.056
303 0 84.2425 15.2061 1281 79.171 1345.7 459.276
304 0 84.1213 15.763 1326 80.0437 1345.35 457.405
305 0 84.1572 11.9895 1009 88.7641 1345.12 457.383
306 0 88.2592 12.6672 1118 88.5519 1344.74 455.635
307 0 90.1728 12.4317 1121 89.719 1344.21 453.659
308 0 94.1676 12.6052 1187 89.7009 1344.23 451.963
309 1 104.286 17.0205 1775 79.4851 1343.66 446.196
310 0 104.294 17.2109 1795 80.2674 1344.36 442.482
311 0 109.189 15.7708 1722 82.7381 1343.53 441.683
312 0 111.294 15.7241 1750 83.2834 1344.37 442.593
313 0 119.359 16.2954 1945 80.8355 1343.22 435.861
314 0 116.332 15.4214 1794 85.0412 1344.11 439.386
315 0 121.255 17.2776 2095 81.2272 1345.29 434.837
316 0 121.265 14.7858 1793 88.3854 1344.28 439.1
317 0 122.159 12.934 1580 93.0949 1344.49 438.951
318 0 129.24 15.6994 2029 87.4677 1344.42 435.201
319 0 130.191 12.8811 1677 94.0978 1344.46 436.575
320 1 70.0696 12.1308 850 86.4235 1345.51 460.828
321 0 70.0487 11.5348 808 88.7648 1345.35 455.467
322 0 76.0452 11.0987 844 88.8732 1344.15 453.791
323 0 83.1223 15.2546 1268 79.582 1345.38 452.756
324 0 83.1047 12.3459 1026 89.0068 1344.83 441.545
325 0 87.1016 10.1605 885 91.0644 1343.91 446.245
326 0 91.1316 12.1363 1106 87.0796 1344.8 451.664
327 0 91.1222 10.9413 997 91.652 1345.32 445.682
328 0 98.0875 12.6418 1240 87.8032 1345.02 451.169
329 0 97.0715 10.7756 1046 91.6061 1345.56 449.699
330 0 101.078 11.1894 1131 92.4651 1344.18 448.906
331 0 103.087 12.6108 1300 88.6654 1345.48 449.396
332 0 108.135 13.7976 1492 86.8914 1345.68 444.94
333 0 111.078 12.2617 1362 90.3392 1345.43 443.243
334 0 120.377 12.5107 1506 89.4117 1345.38 439.619
335 1 68.0383 10.2589 698 88.1318 1344.54 467.715
336 0 70.0606 12.1038 848 86.9599 1344.91 463.828
337 0 75.0957 13.3563 1003 86.7488 1344.18 459.557
338 0 76.0612 12.4636 948 89.9262 1344.46 451.199
339 0 78.26 12.0496 943 90.5461 1344.32 454.354
340 0 80.0707 13.1509 1053 89.9506 1344.37 454.851
341 0 82.0904 12.2304 1004 91.1464 1344.68 457.258
342 0 87.101 12.962 1129 88.9035 1344.6 458.036
343 0 89.0872 11.8872 1059 90.5581 1345.13 458.852
344 0 89.1897 12.5239 1117 90.8845 1344.23 458.015
345 0 94.1478 12.9584 1220 90.6025 1344.31 457.738
346 0 97.1368 11.8184 1148 93.7282 1344.68 453.345
347 0 99.1615 13.4931 1338 91.1644 1344.73 454.096
348 0 103.231 12.8256 1324 93.2795 1345.02 450.394
349 0 106.166 13.1398 1395 92.9075 1344.88 449.713
350 0 109.15 13.6692 1492 92.6676 1345.22 448.586
351 0 111.263 14.0118 1559 92.7832 1344.21 445.014
352 0 112.121 11.7641 1319 97.8984 1345.22 439.361
353 0 116.129 12.9339 1502 98.488 1344.72 435.68
354 0 117.095 12.9382 1515 98.6964 1345.06 431.533
355 0 117.095 12.8443 1504 161.594 1345.05 431.326
356 0 129.164 12.8364 1658 97.5193 1345.1 425.185
357 0 129.08 12.4109 1602 98.6586 1345.64 422.217
358 1 63.0913 7.46537 471 99.0276 1344.92 447.45
359 0 74.1929 10.9444 812 88.3498 1345.01 450.484
360 0 69.1816 10.3929 719 93.452 1343.87 443.999
361 0 72.1502 10.395 750 92.4027 1345.46 445.515
362 0 73.0799 7.90915 578 98.8149 1344.43 442.543
363 0 85.17 10.1562 865 91.3283 1344.94 437.534
364 0 85.1188 9.48087 807 92.9789 1344.6 440.012
365 0 87.1963 11.2046 977 88.7062 1344.99 444.611
366 0 92.1448 10.1362 934 92.6435 1344.01 437.745
367 0 98.1489 11.2278 1102 91.5898 1344.72 444.092
368 0 102.202 11.5555 1181 91.2447 1343.68 444.83
369 0 105.23 12.2779 1292 89.3359 1344.63 441.369
370 0 104.32 9.57626 999 95.2302 1344.65 436.757
371 0 112.286 12.8333 1441 87.7502 1343.7 440.455
372 0 112.176 10.2517 1150 92.6896 1344.79 431.203
373 0 117.188 10.4021 1219 91.4619 1344.39 429.623
374 0 120.199 9.34286 1123 94.2894 1344.74 427.166
375 0 125.181 9.99351 1251 92.2302 1344.41 431.472
376 0 130.169 11.8769 1546 88.9334 1344.62 429.705
377 1 21.0231 3.04427 64 70.7344 1345.42 492.766
378 0 20.0089 6.14727 123 69.7317 1345.84 488.659
379 0 24.0373 7.77957 187 67.9037 1346.26 488.053
380 0 22.0163 6.85854 151 69.543 1344.68 491.536
381 0 22.018 4.63258 102 70.1176 1345.92 492.274
382 0 21.0027 6.85626 144 68.5347 1346.08 491.701
383 0 22.0108 7.63263 168 68.256 1345.7 492.28
384 0 21.0162 4.09209 86 75.0116 1345.01 490.884
385 0 20.0089 7.99643 160 70.2938 1344.74 490.281
386 0 21.0058 3.9513 83 73.9277 1345.13 491.386
387 1 188.39 13.4243 2529 91.4579 1343.75 411.531
388 0 191.436 12.4585 2385 95.761 1344.46 401.174
389 0 198.226 13.1466 2606 94.8776 1344.23 396.904
390 0 200.304 11.9968 2403 98.3712 1344.44 394.695
391 0 210.524 12.9011 2716 95.933 1344.51 394.021
392 0 217.275 12.5141 2719 96.8385 1344.44 396.258
393 0 223.309 12.9014 2881 96.9976 1343.68 387.148
394 1 161.217 11.4814 1851 98.1702 1344.21 414.542
395 0 167.259 12.1129 2026 97.003 1343.43 417.389
396 0 172.363 11.3772 1961 98.2789 1344.35 414.18
397 0 181.31 12.1008 2194 97.8783 1344 405.438
398 0 184.278 10.7609 1983 100.69 1344.82 404.377
399 0 191.434 12.4377 2381 98.6308 1343.98 395.354
400 0 196.343 12.2286 2401 99.0021 1344.62 392.709
