time division length width area intensity CMx CMy
0 0 45.0316 13.4794 607 146.667 1262.59 478.438
1 0 47.0627 14.2151 669 141.827 1262.69 479.036
2 0 48.0461 15.1521 728 138.394 1261 478.151
3 0 48.0149 14.558 699 141.984 1261.1 478.684
4 0 49.0151 14.4853 710 141.18 1261.44 478.768
5 0 50.0417 14.348 718 143.13 1262.26 477.341
6 0 50.0138 14.336 717 144.643 1261.57 476.172
7 0 51.026 14.0908 719 144.974 1261.23 476.672
8 0 54.0195 15.1797 820 139.81 1260.8 475.932
9 0 55.0219 14.1216 777 143.318 1261.27 475.189
10 0 58.0792 14.9796 870 137.829 1261.58 475.782
11 0 57.0433 14.1647 808 143.286 1261.83 475.446
12 0 58.066 14.6557 851 141.706 1261.76 474.867
13 0 61.042 14.4491 882 141.239 1261.58 473.755
14 0 64.0486 15.2384 976 137.046 1261.11 472.942
15 0 66.0366 15.9003 1050 133.576 1260.66 472.423
16 0 67.0515 14.5411 975 138.829 1260.88 472.636
17 0 69.0903 16.0515 1109 134.402 1260.47 470.363
18 0 72.1784 15.3924 1111 134.846 1260.25 471.041
19 0 72.083 14.2613 1028 140.532 1260.49 470.907
20 0 74.0853 15.2662 1131 137.103 1259.92 467.825
21 0 79.1915 14.5344 1151 137.368 1259.19 467.938
22 0 81.1138 15.768 1279 133.189 1258.65 467.306
23 0 83.0861 14.2623 1185 138.849 1259.34 465.463
24 0 85.1478 15.3498 1307 136.146 1260.2 465.292
25 0 90.0616 15.3895 1386 133.092 1259.63 462.944
26 1 45.0523 12.4966 563 136.938 1258.82 484.302
27 0 46.0278 11.6234 535 140.301 1258.18 484.327
28 0 46.0369 12.7506 587 137.675 1259.66 483.083
29 0 49.0898 12.9762 637 130.915 1259.54 484.069
30 0 49.0313 13.6239 668 128.225 1259.71 483.356
31 0 51.0515 12.0467 615 132.663 1259.36 484.446
32 0 52.0241 13.1862 686 130.086 1259.03 482.771
33 0 50.0268 12.3934 620 134.923 1258.64 481.174
34 0 55.0517 13.8597 763 128.221 1258.52 481.202
35 0 56.0368 12.5632 704 131.406 1258.42 480.974
36 0 56.0421 13.365 749 130.858 1259.33 479.465
37 0 59.1135 13.0596 772 131.637 1259.35 479.931
38 0 62.0604 13.5835 843 128.279 1259.3 479.639
39 0 64.0429 14.0843 902 128.539 1259.11 476.8
40 0 64.1733 14.118 906 130.046 1258.79 475.279
41 0 68.1916 13.5647 925 130.619 1258.64 474.355
42 0 69.0799 13.2455 915 131.496 1258.1 474.619
43 0 73.0453 14.5663 1064 127.561 1258.56 472.346
44 0 74.1837 13.9923 1038 131.954 1258.35 472.357
45 0 78.154 15.5334 1214 128.185 1258.26 471.242
46 0 78.1299 14.1559 1106 133.327 1257.78 469.652
47 0 82.1375 14.9627 1229 129.753 1257.94 467.251
48 0 87.0874 15.5821 1357 125.166 1258.59 468.326
49 0 88.1054 15.4361 1360 126.503 1258.05 464.996
50 0 92.1302 14.6098 1346 128.137 1258.18 464.422
51 0 95.1302 14.3067 1361 127.035 1258.21 465.17
52 0 97.0637 14.2587 1384 127.78 1258.93 460.224
53 1 50.0912 11.3593 569 125.163 1259.7 485.649
54 0 51.2646 12.3282 632 122.089 1258.41 485.407
55 0 52.049 12.2 635 125.502 1257.79 483.178
56 0 53.108 13.482 716 116.925 1257.62 483.761
57 0 56.1454 13.2513 744 116.375 1258.04 483.621
58 0 57.0949 13.2411 756 117.439 1258.13 482.112
59 0 60.0703 13.7672 827 114.738 1257.84 483.166
60 0 61.1127 13.1724 805 117.504 1257.55 480.804
61 0 61.1127 13.1887 806 148.846 1257.54 480.801
62 0 65.0953 13.7183 893 116.012 1258.25 479.006
63 0 66.0507 13.3988 885 116.768 1257.45 478.995
64 0 70.0781 13.7418 963 115.137 1256.63 477.276
65 0 74.0466 14.2073 1052 113.073 1256.65 477.128
66 0 74.0841 13.3092 986 116.484 1256.58 475.557
67 0 79.1455 13.8353 1095 114.234 1256.77 475.474
68 0 81.0746 14.2091 1152 113.925 1256.33 473.231
69 0 84.1073 13.1855 1109 116.023 1256.64 471.075
70 0 87.0741 14.1718 1234 113.188 1256.71 470.177
71 1 47.0501 12.8799 606 111.749 1257.01 489.843
72 0 47.0161 12.4 583 113.883 1257.71 488.106
73 0 50.0427 13.0688 654 111.024 1257.19 488.852
74 0 51.096 14.2672 729 110.833 1257.27 487.982
75 0 51.0714 12.3161 629 115.957 1257.23 488.081
76 0 53.169 13.5793 722 113.467 1257 486.434
77 0 56.0528 13.1483 737 113.201 1257.41 486.084
78 0 57.1332 12.9872 742 114.067 1257.23 484.993
79 0 60.0563 13.0211 782 112.272 1257.59 484.528
80 0 61.0183 12.7339 777 112.063 1258.1 484.026
81 0 64.0501 13.9266 892 110.359 1258.35 481.48
82 0 65.1314 13.5419 882 112.902 1257.67 479.297
83 0 68.0635 13.0026 885 113.634 1257.87 478.797
84 0 70.0791 13.128 920 114.65 1257.78 479.411
85 0 72.1705 13.482 973 114.225 1257.63 478.564
86 0 77.1209 14.1466 1091 112.096 1257.69 476.113
87 0 78.1376 13.4122 1048 114.443 1257.64 473.931
88 0 82.1082 14.0303 1152 112.529 1257.75 473.03
89 0 84.1271 13.5985 1144 112.858 1257.61 472.233
90 1 43.0748 11.1434 480 116.66 1257.62 491.712
91 0 45.0237 13.7483 619 108.695 1256.92 492.772
92 0 46.0278 12.3838 570 112.958 1256.24 491.761
93 0 48.0295 12.4923 600 113.148 1256.06 490.465
94 0 50.0737 11.9424 598 113.472 1255.99 490.418
95 0 48.1127 12.0135 578 115.574 1256.69 488.215
96 0 51.0678 13.5898 694 109.948 1256.06 487.677
97 0 51.0244 13.5622 692 112.285 1255.85 487.299
98 0 54.0924 11.9056 644 115.747 1255.85 486.963
99 0 56.0936 13.4775 756 111.819 1256.36 486.015
100 0 55.0388 12.1369 668 116.034 1256.57 485.716
101 0 58.0484 12.1795 707 116.441 1255.96 483.494
102 0 63.0195 13.6783 862 110.246 1256.26 482.746
103 0 64.0621 13.5962 871 108.777 1255.86 483.906
104 0 66.086 14.0272 927 110.082 1256.15 479.543
105 0 68.1155 11.7447 800 115.609 1256.05 478.447
106 0 70.083 12.7135 891 113.641 1255.42 477.907
107 0 73.0464 12.7316 930 113.918 1255.65 477.506
108 0 77.0648 13.0929 1009 112.322 1256.09 475.488
109 1 38.0994 11.9687 456 114.349 1255.56 493.535
110 0 40.1399 10.9118 438 115.966 1256.01 494.292
111 0 41.1189 10.9439 450 118.924 1255.84 492.331
112 0 44.0368 12.5804 554 119.948 1256.28 491.442
113 0 45.0586 12.5392 565 121.508 1256.65 492.37
114 0 47.0308 12.1622 572 122.486 1256.61 490.021
115 0 49.0553 12.6388 620 121.211 1254.82 489.855
116 0 47.1493 11.3257 534 118.448 1255.87 490.732
117 0 48.104 11.4336 550 119.424 1255.68 489.351
118 0 48.1226 10.3693 499 123.565 1256.4 488.651
119 0 51.1494 12.0236 615 118.886 1256.63 487.997
120 0 54.1597 13.0355 706 114.938 1255.82 486.38
121 0 54.1095 12.2714 664 117.62 1255.51 486.256
122 0 56.0544 12.2559 687 117.916 1255.36 484.36
123 0 59.0688 13.8144 816 113.179 1255.7 484.252
124 0 61.1242 13.5462 828 112.589 1255.64 483.198
125 0 62.0509 12.4575 773 115.145 1256.19 483.638
126 0 64.0729 12.8916 826 115.209 1256.03 482.292
127 0 67.0524 13.6311 914 113.456 1255.66 481.57
128 0 67.0832 12.6261 847 117.115 1255.81 480.74
129 0 71.0652 12.0031 853 117.314 1255.79 478.883
130 0 70.0575 12.19 854 118.563 1256.28 478.062
131 0 76.0558 14.2133 1081 112.385 1255.87 476.151
132 0 77.0427 13.3043 1025 115.34 1255.6 475.015
133 0 79.116 13.1832 1043 115.251 1255.48 473.932
134 0 81.0806 12.5307 1016 117.511 1255.83 474.048
135 0 86.0663 12.8157 1103 115.578 1255.84 472.989
136 0 88.09 12.7824 1126 117.526 1256.15 469.121
137 0 92.0676 12.7624 1175 117.052 1255.28 467.993
138 0 94.0935 13.6885 1288 117.292 1255.94 465.454
139 1 48.0701 10.7551 517 118.946 1256.53 489.89
140 0 50.1156 11.2939 566 118.981 1255.75 488.217
141 0 50.1611 11.5428 579 120.359 1254.32 485.157
142 0 52.1475 12.0428 628 118.258 1254.28 483.783
143 0 56.1307 12.845 721 114.613 1256.35 484.121
144 0 57.0311 14.4658 825 110.525 1256.44 481.436
145 0 60.048 12.6898 762 114.071 1256.13 481.803
146 0 62.0371 12.5892 781 113.814 1256.37 480.781
147 0 65.1224 11.9007 775 116.174 1255.6 479.916
148 0 67.1419 13.3002 893 122.403 1255.74 478.196
149 0 69.157 13.0572 903 122.558 1255.82 477.663
150 0 70.113 12.0377 844 125.569 1255.24 477.023
151 0 74.1002 12.861 953 122.615 1255.4 474.665
152 0 76.1298 14.0287 1068 120.833 1255.76 473.728
153 0 79.1731 12.7947 1013 124.416 1256.33 472.328
154 0 82.0986 12.5093 1027 124.79 1256.52 471.649
155 0 83.1241 13.0167 1082 123.549 1256.25 469.679
156 0 88.0691 12.4788 1099 123.504 1255.91 468.26
157 0 86.1279 12.5859 1084 125.705 1255.77 465.399
158 0 90.0827 12.6994 1144 125.28 1255.87 465.584
159 0 96.0785 12.7916 1229 122.125 1255.43 463.964
160 0 98.0978 12.4264 1219 122.632 1255.58 462.86
161 0 101.099 11.6717 1180 124.733 1256.26 459.172
162 0 105.307 11.9841 1262 124.482 1256.55 456.562
163 1 55.0155 11.4331 629 119.304 1256.87 485.192
164 0 57.0892 12.4017 708 119.167 1256.44 481.959
165 0 60.0638 13.186 792 118.981 1257.14 480.689
166 0 61.0722 12.9028 788 122.915 1257.04 479.666
167 0 62.0597 12.0851 750 125.453 1257.13 480.875
168 0 67.0921 13.3399 895 120.437 1256.92 478.197
169 0 66.0471 12.1277 801 124.576 1257.21 477.335
170 0 72.0441 13.811 995 119.176 1257.15 475.657
171 0 74.0513 13.6122 1008 120.044 1257 473.823
172 0 76.0839 14.2343 1083 118.525 1256.86 474.331
173 0 78.0662 12.0283 939 115.735 1256.34 474.81
174 0 80.0611 13.7895 1104 111.965 1256.74 472.284
175 0 81.0769 12.297 997 115.626 1256.73 472.233
176 0 84.1205 12.8625 1082 113.755 1256.27 472.564
177 0 90.0449 13.5044 1216 109.225 1255.76 469.271
178 0 91.1179 13.2136 1204 114.264 1256.11 467.404
179 0 94.1718 12.9444 1219 113.033 1255.25 467.13
180 0 98.236 14.2718 1402 110.412 1254.85 464.672
181 0 99.1437 12.5979 1249 117.669 1255.61 460.04
182 0 106.244 14.3349 1523 114.603 1255.47 458.081
183 0 111.371 14.519 1617 113.37 1255.95 458.542
184 0 111.371 14.4472 1609 151.438 1256.94 458.467
185 1 52.2827 12.1455 635 111.29 1256.62 485.51
186 0 54.2215 12.8178 695 110.99 1256.74 483.35
187 0 56.038 12.2595 687 113.297 1255.57 482.579
188 0 58.0551 13.4011 778 108.793 1255.28 482.895
189 0 57.0777 12.3691 706 109.966 1256.44 482.02
190 0 60.0554 12.8049 769 108.174 1256.13 481.826
191 0 63.1614 11.526 728 109.896 1256.06 481.434
192 0 63.0333 12.0889 762 109.559 1256.16 482.056
193 0 66.0455 13.4453 888 107.351 1256.19 479.184
194 0 68.1595 11.3997 777 110.474 1255.67 480.108
195 0 71.0515 12.2446 870 109.932 1255.5 476.922
196 0 73.1028 13.7067 1002 106.098 1255.78 476.552
197 0 74.1616 12.5671 932 110.293 1256.42 473.263
198 0 77.1167 11.6447 898 113.013 1256.15 471.378
199 0 79.1624 11.4575 907 114.065 1256.18 470.486
200 0 83.1306 10.9707 912 113.406 1256.01 472.853
201 0 86.058 12.4567 1072 111.771 1256.55 467.927
202 0 88.0788 12.4775 1099 113.365 1256.78 465.289
203 0 90.1344 12.2706 1106 113.228 1256.53 467.442
204 0 94.1938 12.7503 1201 113.777 1256.57 463.877
205 0 97.1582 13.936 1354 110.954 1256.5 462.134
206 0 100.107 11.1581 1117 116.814 1256.45 463.221
207 0 102.059 12.2576 1251 116.742 1256.42 456.266
208 0 104.113 13.1204 1366 114.646 1256.23 458.212
209 0 109.085 13.5766 1481 113.12 1256.31 454.028
210 0 114.168 13.9619 1594 113.238 1256.52 450.602
211 0 118.213 14.0593 1662 112.335 1256.63 448.925
212 0 121.192 12.542 1520 116.888 1256.92 448.863
213 0 126.167 13.4267 1694 114.391 1256.42 446.826
214 0 130.181 12.9819 1690 115.976 1256.7 443.301
215 0 134.22 13.0234 1748 115.971 1257.18 443.569
216 0 140.181 13.6252 1910 115.992 1256.12 435.934
217 0 145.241 14.0662 2043 114.047 1256.3 437.985
218 0 150.119 13.3827 2009 115.208 1256.28 434.79
219 0 154.184 13.6914 2111 116.147 1256.61 428.587
220 0 159.224 12.8686 2049 118.265 1256.72 430.457
221 0 165.215 14.0786 2326 116.262 1256.22 426.481
222 0 170.308 13.6693 2328 117.628 1256.69 423.229
223 0 177.368 13.6609 2423 118.057 1255.84 418.247
224 0 182.327 13.1741 2402 119.77 1256.23 415.927
225 0 187.203 12.4731 2335 122.113 1256.32 415.59
226 0 194.269 12.6731 2462 122.421 1255.88 409.908
227 0 202.328 13.1568 2662 120.74 1256.4 408.876
228 0 209.309 13.1432 2751 120.775 1256.09 405.004
229 0 217.224 13.6495 2965 118.351 1256.07 400.692
230 0 223.398 14.6555 3274 114.661 1256.28 398.688
231 1 172.196 11.5102 1982 117.665 1257 425.573
232 0 180.286 12.2583 2210 116.199 1256.75 422.478
233 0 185.342 13.2242 2451 115.073 1256.55 416.8
234 0 193.264 12.6201 2439 115.674 1256.51 414.098
235 1 71.108 9.50667 676 111.836 1258.02 471.729
236 0 74.2659 12.0109 892 105.143 1257.78 472.817
237 0 77.1182 12.6948 979 104.94 1256.24 471.865
238 0 78.3136 12.2329 958 106.156 1256.63 469.448
239 0 81.1793 11.5054 934 107.229 1257.62 469.828
240 0 84.2711 11.5579 974 108.761 1257.25 468.103
241 0 86.247 11.7337 1012 108.627 1257.07 465.772
242 0 89.176 11.4829 1024 101.011 1257.49 466.387
243 0 92.1176 12.0498 1110 100.758 1257.56 463.954
244 0 96.1743 11.7599 1131 99.6755 1257.36 465.374
245 0 99.3603 11.5841 1151 101.759 1257.44 462.797
246 1 54.3121 11.7101 636 98.2594 1257.13 483.066
247 0 55.3731 11.1787 619 98.3247 1256.71 479.664
248 0 54.2006 9.92609 538 98.7639 1257.3 484.539
249 0 54.2413 8.62811 468 100.919 1257.48 486.111
250 0 54.0771 9.76384 528 98.3902 1257.56 486.464
251 0 59.2477 10.0932 598 99.1906 1257.22 482.326
252 0 60.1975 10.2994 620 99.1016 1257.28 478.894
253 0 64.2444 9.55725 614 98.627 1257.67 481.84
254 0 66.0723 10.4885 693 98.5325 1257.32 480.267
255 0 68.1716 9.94549 678 100.718 1257.25 478.801
256 0 68.1883 9.8844 674 101.091 1257.4 476.773
257 0 74.0553 11.4239 846 97.0887 1257.29 475.202
258 0 75.1938 10.1072 760 100.739 1256.67 473.958
259 0 78.1707 10.6434 832 100.743 1256.56 471.495
260 0 80.2299 10.3203 828 100.746 1256.62 471.129
261 0 84.2129 11.0434 930 99.6957 1256.97 469.442
262 0 88.385 11.2915 998 108.001 1256.32 467.62
263 1 43.0464 10.1518 437 101.549 1257.95 488.659
264 0 45.0324 10.3703 467 100.782 1257.19 487.976
265 0 47.0762 10.4087 490 99.7102 1257.9 489.188
266 0 48.1628 13.4959 650 98.0431 1254.74 485.905
267 0 51.0394 13.421 685 97.8204 1254.78 487.534
268 0 52.0447 12.8159 667 99.7796 1255.18 485.523
269 0 52.0359 11.9533 622 103.596 1255.25 485.828
270 0 52.0359 11.0308 574 139.385 1255.29 485.134
271 0 54.1172 11.7338 635 102.479 1255.74 483.058
272 0 56.0703 11.2537 631 103.696 1255.13 483.124
273 0 57.0739 13.2635 757 99.1149 1255.6 482.956
274 0 58.1088 12.6143 733 101.9 1255.22 482.16
275 0 61.126 12.7278 778 101.812 1255.15 481.568
276 0 62.1696 12.6107 784 102.236 1255.55 478.862
277 0 63.1824 12.0287 760 103.703 1255.75 479.129
278 0 68.0881 12.5132 852 101.396 1255.49 479.182
279 0 69.0949 14.111 975 98.9313 1255.61 476.611
280 0 71.1283 13.0328 927 101.77 1255.32 476.036
281 0 72.1033 12.2463 883 104.23 1255.82 475.531
282 0 76.1765 13.1274 1000 102.895 1256.08 472.865
283 0 76.1765 13.2324 1008 131.285 1256.07 472.753
284 1 40.0159 11.3955 456 110.925 1255.62 489.553
285 0 43.0407 12.1745 524 107.821 1254.96 491.279
286 0 41.0285 11.3336 465 109.985 1258.03 490.705
287 0 45.0345 11.9908 540 107.526 1257.67 490.481
288 0 45.0584 11.2965 509 108.56 1256.92 490.226
289 0 44.0228 10.5173 463 111.864 1256.96 487.924
290 0 48.0342 12.9075 620 106.673 1257.47 486.161
291 0 49.0749 11.4519 562 110.064 1257.45 486.03
292 0 49.0428 10.8681 533 111.388 1257.54 486.418
293 0 51.0529 11.4979 587 110.836 1257.72 485.789
294 0 53.0878 12.9032 685 106.477 1257.56 485.142
295 0 54.0291 11.8825 642 109.53 1258.28 483.439
296 0 56.0493 12.1143 679 109.262 1257.47 484.405
297 0 57.062 12.5302 715 108.306 1257.81 483.72
298 0 59.0553 11.7009 691 110.402 1257.64 481.78
299 0 62.1476 12.8082 796 105.629 1257.34 483.016
300 0 63.0559 13.0678 824 106.788 1257.12 478.644
301 0 64.0864 12.2023 782 108.702 1257.43 479.107
302 0 69.0897 13.4463 929 104.984 1256.84 476.995
303 0 71.0751 12.9863 923 104.558 1256.72 478.499
304 0 73.1753 13.6522 999 103.619 1256.76 475.179
305 0 74.0796 12.1896 903 106.391 1256.85 474.641
306 0 80.1656 13.1353 1053 103.305 1256.74 472.587
307 0 83.133 13.3521 1110 102.723 1256.83 470.666
308 0 85.1683 13.9019 1184 101.595 1256.5 469.601
309 0 87.1929 12.6501 1103 104.21 1256.89 467.749
310 0 90.1285 11.9718 1079 105.697 1256.54 468.906
311 1 49.034 11.5022 564 103.351 1256.32 486.622
312 0 51.019 10.5255 537 103.678 1256.7 486.972
313 0 53.0539 12.6098 669 101.985 1256.67 484.858
314 0 53.033 11.8605 629 104.409 1256.95 482.574
315 0 55.1343 12.5874 694 103.955 1257.18 482.416
316 0 57.0629 11.9342 681 104.128 1257.18 482.919
317 0 59.038 13.3473 788 101.797 1257.52 479.784
318 0 62.0939 11.1444 692 104.461 1257.78 481.877
319 0 64.0849 11.5784 742 104.903 1257.67 479.318
320 0 66.1276 12.7783 845 102.811 1257.26 477.961
321 0 67.1132 12.9185 867 103.341 1257.35 477.8
322 0 70.1394 13.8724 973 101.092 1257.12 476
323 0 73.112 13.1305 960 101.414 1257.18 476.627
324 0 75.1404 14.3598 1079 99.2947 1256.82 475.274
325 0 76.2074 12.6628 965 103.061 1256.93 473.94
326 0 78.147 12.2334 956 103.951 1257.04 472.793
327 0 81.1399 12.4353 1009 102.756 1257.23 471.422
328 0 84.2185 11.4702 966 104.343 1257.19 471.372
329 1 39.0346 8.71022 340 100.812 1257.21 491.153
330 0 43.0676 10.797 465 97.8129 1257 489.692
331 0 46.091 11.0434 509 98.391 1255.6 488.792
332 0 47.0374 11.459 539 94.1317 1257.37 488.074
333 0 47.0949 11.084 522 94.8621 1257 488.697
334 0 50.0264 12.2535 613 92.2398 1256.96 488.054
335 0 49.0427 11.2351 551 95.706 1257.55 487.031
336 0 49.0421 12.0916 593 94.9477 1256.66 485.241
337 0 52.0437 11.9899 624 94.3333 1257.06 485.449
338 0 53.0175 11.5999 615 95.6374 1256.77 485.605
339 0 55.0931 11.9434 658 95.3921 1256.2 483.822
340 0 56.0639 12.1112 679 96.6097 1256.64 482.259
341 0 58.0714 12.2435 711 96.3502 1257.19 482.197
342 0 58.0653 11.7282 681 98.3495 1257.15 480.954
343 0 62.0242 12.4306 771 96.5772 1257.28 479.445
344 0 65.1169 12.6235 822 95.9355 1257.76 479.444
345 0 68.1398 12.6798 864 96.2731 1258.2 478.096
346 0 68.0843 13.498 919 95.3166 1258.51 479.398
347 0 70.0646 13.2877 931 97.8163 1258.33 475.15
348 0 74.0734 12.8116 949 98.5111 1257.56 475.176
349 0 75.0567 14.136 1061 96.6098 1257.88 473.364
350 0 77.1571 12.4681 962 100.486 1257.6 473.418
351 0 80.108 12.5331 1004 100.513 1258.09 472.957
352 0 79.1293 11.8287 936 103.982 1258.53 470.153
353 0 83.1252 13.3654 1111 100.209 1258.47 468.511
354 0 84.1387 12.5388 1055 103.216 1258.25 468.523
355 0 89.1343 13.6087 1213 100.538 1258.37 467.658
356 0 90.1394 11.0274 994 106.863 1258.47 468.86
357 0 93.1478 12.6788 1181 104.307 1258.19 466.009
358 0 98.1745 12.3352 1211 104.717 1258.02 465.291
359 0 98.1178 13.0863 1284 104.28 1258.6 460.385
360 0 102.15 11.7278 1198 107.652 1258.08 461.097
361 0 106.115 13.2403 1405 104.31 1258.79 457.922
362 1 63.1279 11.6589 736 101.141 1257.68 474.111
363 0 64.1256 10.8069 693 101.517 1257.92 472.924
364 0 68.1136 10.7908 735 102.608 1257.3 474.464
365 0 73.1583 12.3568 904 107.419 1258.42 477.412
366 0 74.1871 11.9832 889 110.672 1258.4 474.252
367 0 78.1203 12.7368 995 108.411 1257.66 473.465
368 0 80.0944 13.4966 1081 108.367 1257.45 471.475
369 0 83.1803 12.3587 1028 110.687 1258.27 470.833
370 0 86.127 13.0737 1126 109.913 1257.98 468.48
371 0 88.2649 12.7344 1124 109.785 1257.41 468.76
372 0 92.1527 12.794 1179 108.763 1257.78 469.841
373 0 94.161 13.2645 1249 109.643 1257.42 465.891
374 0 93.1772 10.7215 999 115.556 1257.44 462.918
375 0 100.057 10.9438 1095 112.882 1257.2 466.299
376 1 54.0603 10.7843 583 109.604 1257.69 486.949
377 0 58.0622 12.1422 705 107.695 1257.7 484.186
378 0 59.1453 13.3738 791 104.372 1257.19 481.491
379 0 60.0179 12.4963 750 98.3947 1256.51 482.317
380 0 62.0619 12.2781 762 98.689 1256.32 480.226
381 0 65.0739 11.7559 765 99.9386 1255.86 479.872
382 0 66.0593 11.9892 792 99.7639 1256.39 479.093
383 0 71.0715 13.3527 949 95.4447 1256.21 477.85
384 0 73.0637 12.0169 878 98.9009 1256.97 478.957
385 0 76.0673 14.382 1094 94.7011 1257.05 475.269
386 0 79.0673 12.736 1007 98.2234 1256.34 474.563
387 0 81.0476 12.1534 985 100.031 1256.69 472.318
388 0 84.0767 12.9525 1089 99.5087 1256.78 471.77
389 0 87.0859 13.6647 1190 98.9378 1256.56 469.74
390 0 88.1213 12.1423 1070 103.167 1256.8 467.792
391 0 93.1072 12.6521 1178 102.419 1256.8 465.846
392 1 45.0304 10.504 473 105.391 1256.75 490.827
393 0 45.0274 10.3493 466 105.092 1256.65 490.427
394 0 48.1361 11.5921 558 101.192 1256.14 489.31
395 0 49.1134 10.8931 535 102.252 1258.13 487.037
396 0 51.0513 12.2426 625 100.502 1258.12 486.714
397 0 51.0875 12.2143 624 101.758 1257.66 485.981
398 0 53.0806 12.773 678 101.159 1258.35 486.058
399 0 54.1076 13.3438 722 100.292 1257.8 485.374
400 0 57.1701 12.3841 708 102.02 1257.7 484.773
401 0 60.0516 12.8889 774 100.245 1257.52 485.603
