time division length width area intensity CMx CMy
0 0 127.22 11.3819 1448 109.039 512.437 436.195
1 0 131.199 11.09 1455 115.672 511.889 435.51
2 1 70.0854 8.67513 608 110.044 512.822 465.113
3 0 75.047 10.4868 787 103.079 511.602 465.537
4 0 73.1068 11.1344 814 102.717 511.726 462.962
5 0 79.2186 11.8407 938 99.3475 511.332 463.513
6 0 86.1934 14.5951 1258 91.2051 513.255 455.795
7 0 89.2122 14.6617 1308 91.3723 513.369 457.311
8 0 91.3368 14.1235 1290 93.4062 513.702 454.732
9 0 95.2027 14.2958 1361 92.7465 512.621 454.376
10 0 92.0918 12.9219 1190 99.5479 512.124 456.264
11 0 94.1021 13.2516 1247 99.5196 512.346 455.243
12 0 97.1512 11.9607 1162 102.884 514.539 454.117
13 0 101.112 12.2241 1236 102.307 514.286 454.448
14 0 103.226 12.4194 1282 102.346 513.822 452.291
15 0 105.209 13.8391 1456 101.066 513.095 449.049
16 0 107.178 12.8944 1382 103.913 513.332 449.048
17 0 111.107 12.1774 1353 106.314 513.03 445.625
18 0 112.14 11.5213 1292 107.913 513.091 446.685
19 0 116.167 12.1549 1412 107.58 513.132 444.892
20 0 119.162 13.3768 1594 107.95 513.057 441.353
21 0 122.19 11.8013 1442 116.863 513.497 440.843
22 0 124.177 12.3453 1533 111.784 513.05 439.804
23 0 130.174 12.5601 1635 109.046 512.437 438.851
24 0 136.151 11.8398 1612 111.363 513.812 436.142
25 1 77.065 10.9777 846 106.992 513.079 464.245
26 0 79.1448 10.2091 808 110.631 513.373 462.775
27 0 82.0935 12.8756 1057 106.431 514.127 460.669
28 0 85.0871 13.6213 1159 105.786 512.831 459.114
29 0 87.0879 13.2969 1158 110.788 512.886 453.151
30 0 89.0538 11.1506 993 115.933 513.052 452.972
31 0 88.0737 13.2048 1163 111.728 513.114 447.778
32 0 95.1209 12.4894 1188 111.757 513.074 448.311
33 0 95.0978 12.6186 1200 111.848 513.495 444.671
34 0 96.1303 11.8485 1139 114.766 513.9 443.506
35 0 100.136 12.3932 1241 112.168 512.737 442.235
36 0 101.36 10.9116 1106 110.276 513.52 450.688
37 0 101.122 12.4799 1262 108.72 513.169 446.032
38 0 101.123 12.4997 1264 132.64 513.18 446.034
39 0 107.159 11.7395 1258 110.211 513.676 438.718
40 0 114.24 12.36 1412 108.158 513.021 438.181
41 0 112.217 11.4955 1290 111.841 513.239 438.103
42 0 114.119 12.0313 1373 111.542 513.377 439.808
43 0 119.275 12.3077 1468 111.698 514.484 435.906
44 0 124.132 12.5189 1554 109.963 514.236 433.784
45 0 123.144 12.7818 1574 110.899 513.392 426.392
46 0 129.163 11.9538 1544 109.118 513.388 428.247
47 0 132.168 10.9179 1443 108.035 513.026 421.546
48 0 136.173 11.7424 1599 106.406 514.302 420.443
49 0 141.134 11.5281 1627 108.693 513.537 411.579
50 1 83.1999 8.97838 747 103.657 513.467 444.149
51 0 82.1064 9.1832 754 100.028 514.52 444.288
52 0 85.1063 9.68201 824 99.7354 513.701 442.839
53 0 91.1108 9.36223 853 99.7433 514.294 439.401
54 0 92.1605 8.85412 816 101.384 513.728 438.401
55 0 94.1728 12.201 1149 95.9948 514.815 440.052
56 0 99.2001 11.754 1166 98.0163 513.887 436.678
57 0 105.193 11.7023 1231 98.7214 514.409 435.713
58 0 110.161 11.6648 1285 99.2257 514.604 434.872
59 0 114.24 11.0031 1257 105.34 514.005 443.021
60 0 120.421 12.232 1473 103.434 513.781 440.529
61 0 123.205 12.4021 1528 105.99 513.427 433.458
62 0 129.285 13.5592 1753 105.082 513.899 435.783
63 0 132.353 12.4893 1653 108.059 513.832 423.557
64 1 76.1806 9.39871 716 106.83 514.254 456.581
65 0 81.3182 11.289 918 101.918 513.446 456.605
66 0 83.1652 11.2427 935 102.373 513.581 457.578
67 0 86.1053 12.8912 1110 98.2279 512.869 456.553
68 0 87.1452 12.3013 1072 100.733 512.807 454.808
69 0 91.1442 13.0014 1185 99.0245 513.473 454.71
70 0 94.1827 12.2422 1153 100.749 513.21 451.033
71 0 97.2987 13.7823 1341 96.5772 513.602 448.372
72 0 99.2447 12.0208 1193 102.149 513.72 444.721
73 0 103.293 13.1084 1354 99.4845 512.724 426.166
74 0 105.372 11.654 1228 103.248 512.853 422.974
75 0 108.285 13.4921 1461 98.026 512.962 422.784
76 0 110.243 12.663 1396 100.041 513.08 419.667
77 0 108.221 12.918 1398 99.6474 512.872 412.253
78 0 109.236 13.0086 1421 99.6868 512.533 415.531
79 0 117.248 12.7081 1490 99.5705 513.215 421.029
80 0 120.194 11.6063 1395 101.897 513.331 424.701
81 0 120.091 13.4481 1615 98.4873 513.103 429.689
82 0 127.155 13.0156 1655 99.2435 513.961 424.374
83 0 129.139 12.1806 1573 100.591 513.149 420.455
84 0 135.225 12.2389 1655 99.8387 513.001 423.753
85 0 138.305 13.4196 1856 97.2737 513.671 422.572
86 1 81.1459 11.8552 962 98.5447 513.714 449.597
87 0 87.2103 12.0743 1053 96.1377 513.163 452.882
88 0 90.4111 11.492 1039 96.462 513.294 446.768
89 0 94.4604 12.5873 1189 95.2717 513.15 449.157
90 0 96.455 13.1357 1267 93.9629 513.616 447.123
91 0 99.3666 13.7471 1366 92.44 513.93 445.869
92 0 101.461 10.4966 1065 100.119 513.644 441.148
93 0 103.379 11.4143 1180 97.8831 513.458 440.904
94 0 101.372 11.6403 1180 99.4695 513.826 436.625
95 0 107.365 13.2538 1423 95.7906 512.23 437.006
96 0 107.458 12.6747 1362 98.6696 513.141 434.756
97 0 112.34 11.4118 1282 102.332 513.402 432.51
98 0 115.448 13.2874 1534 98.7151 512.906 430.255
99 0 115.359 11.0264 1272 98.7586 513.371 427.603
100 0 126.135 11.7731 1485 90.1044 512.875 433.813
101 1 76.0929 12.7739 972 84.5113 512.02 455.889
102 0 77.0855 12.3888 955 85.4953 512.471 460.232
103 0 79.1889 13.6257 1079 84.6311 512.749 459.721
104 0 80.2182 11.4313 917 89.7317 513.248 456.119
105 0 83.239 12.5903 1048 87.5267 512.386 454.653
106 0 84.2643 12.8287 1081 87.1286 512.833 456.398
107 0 88.3076 12.7962 1130 87.3602 513.176 454.827
108 0 92.1927 13.5911 1253 85.5291 512.575 455.444
109 0 94.1626 14.1033 1328 86.0723 512.698 451.041
110 0 97.249 13.9025 1352 86.7833 512.701 450.57
111 0 98.3462 12.6492 1244 90.2267 513.292 447.904
112 0 102.358 13.2866 1360 89.2 513.157 447.321
113 0 104.365 14.6696 1531 86.9739 513.298 449.18
114 0 103.339 11.2736 1165 95.9631 513.002 444.125
115 0 108.245 12.2869 1330 93.1105 511.608 444.276
116 1 129.507 7.12705 923 100.655 512.194 437.538
117 1 113.226 12.3381 1397 94.4474 512.558 416.422
118 0 117.288 12.8146 1503 93.1823 511.96 409.005
119 0 116.283 13.2178 1537 93.8614 511.858 405.152
120 0 123.263 14.254 1757 90.4485 512.345 409.772
121 0 130.162 13.3911 1743 92.424 512.183 403.156
122 0 133.274 12.358 1647 95.0067 512.285 402.331
123 0 139.315 13.5448 1887 91.7817 512.745 406.162
124 0 144.315 13.124 1894 93.6837 511.465 399.786
125 0 150.372 12.9678 1950 94.3462 511.91 403.323
126 0 152.342 11.5924 1766 98.1212 511.857 400.012
127 0 162.276 13.8837 2253 92.2401 511.482 406.693
128 0 163.283 12.2426 1999 97.1036 512.459 406.32
129 0 169.261 12.2119 2067 99.1258 511.112 402.254
130 0 171.383 11.7807 2019 101.269 511.692 396.414
131 1 105.248 9.41586 991 92.7013 512.253 439.3
132 0 109.128 12.2792 1340 89.4209 511.595 425.778
133 0 113.144 11.0921 1255 92.8024 511.239 407.97
134 0 113.111 9.73378 1101 97.6676 511.176 399.815
135 0 120.207 11.3305 1362 94.4053 511.302 405.548
136 0 121.165 11.4885 1392 95.0366 511.455 408.145
137 0 126.13 12.4554 1571 94.373 511.68 403.413
138 0 128.267 12.3726 1587 94.8116 512.016 401.343
139 0 132.242 12.1595 1608 95.1256 511.621 408.396
140 0 136.385 11.8342 1614 97.4758 511.96 409.931
141 0 138.365 13.3127 1842 91.747 511.888 413.955
142 0 141.332 10.9812 1552 94.6785 511.336 412.051
143 1 81.2079 9.40796 764 91.4359 511.3 445.071
144 0 79.2652 9.15913 726 90.197 512.997 448.712
145 0 85.2485 9.41952 803 87.9851 512.04 448.37
146 0 86.2131 11.3788 981 87.3578 512.114 445.459
147 0 92.3945 11.2886 1043 85.1285 512.059 451.622
148 0 92.3857 10.4345 964 89.6006 511.898 443.465
149 0 97.1306 11.6853 1135 87.4722 511.98 441.487
150 0 100.245 11.0828 1111 91.7183 512.176 442.961
151 0 104.387 10.5856 1105 92.8362 512.043 442.109
152 0 108.234 11.817 1279 91.147 512.507 439.332
153 0 112.223 11.6643 1309 91.9969 512.85 436.601
154 0 114.227 11.6872 1335 92.8494 512.243 435.67
155 0 118.146 12.8232 1515 90.631 512.578 440.323
156 0 122.244 11.7061 1431 93.1838 512.164 436.961
157 0 126.241 13.8624 1750 89.3794 512.56 435.35
158 0 129.15 11.4983 1485 94.6633 511.996 433.195
159 0 133.259 12.592 1678 93.4362 512.615 431.884
160 0 137.431 12.6027 1732 95.7385 512.048 431.936
161 0 141.278 12.4294 1756 95.7238 512.427 432.981
162 1 81.3302 11.9513 972 87.4506 512.188 462.763
163 0 83.1891 12.2492 1019 87.3445 512.394 458.593
164 0 84.163 11.953 1006 87.5994 512.167 460.375
165 0 88.0735 10.3663 913 86.6166 511.165 454.057
166 0 90.227 10.3406 933 86.6806 511.462 451.045
167 0 94.1772 10.8094 1018 86.5098 511.59 452.274
168 0 95.1413 11.9822 1140 84.5754 511.435 451.301
169 0 98.2119 11.577 1137 85.7898 512.457 448.808
170 0 101.28 12.8653 1303 84.4643 511.589 445.617
171 0 106.102 12.5352 1330 85.4865 512.402 444.556
172 0 107.142 12.1894 1306 86.2787 512.022 444.641
173 0 112.153 12.1976 1368 86.2982 512.201 443.841
174 0 115.122 11.857 1365 87.8381 512.769 441.524
175 0 118.28 12.1998 1443 87.4622 512.836 440.855
176 0 123.196 12.0621 1486 89.1716 512.168 440.159
177 0 124.183 13.7056 1702 94.1269 512.72 433.418
178 0 130.262 14.2252 1853 92.5542 511.883 432.751
179 0 133.361 12.1475 1620 100.614 512.228 430.989
180 0 138.27 12.8444 1776 99.2005 512.195 429.993
181 1 148.223 14.006 2076 91.0501 512.27 417.496
182 0 151.23 15.44 2335 90.4921 512.101 421.394
183 1 88.092 12.3734 1090 89.3284 511.906 458.956
184 0 90.0996 12.3197 1110 92.0018 512.99 459.05
185 0 92.2083 12.7863 1179 86.6124 512.685 458.349
186 0 94.2288 11.557 1089 88.9082 512.528 457.219
187 0 97.426 11.9167 1161 87.3635 512.277 455.984
188 0 100.253 13.8549 1389 85.3636 511.673 452.405
189 0 102.239 11.9621 1223 88.9583 512.022 453.061
190 0 104.301 11.8791 1239 89.3414 511.741 451.777
191 0 109.241 12.8248 1401 88.4118 512.463 447.718
192 0 111.211 12.256 1363 89.562 512.048 446.786
193 0 116.124 12.5039 1452 89.416 512.107 443.121
194 0 118.227 12.1292 1434 90.6269 510.946 441.919
195 0 121.251 13.1545 1595 89.2119 511.535 440.159
196 0 124.126 12.1973 1514 90.7933 511.279 438.16
197 0 130.279 12.5039 1629 89.7152 511.481 436.151
198 0 133.146 13.0157 1733 88.9429 512.089 433.384
199 1 77.3423 11.1582 863 92.9664 511.36 460.649
200 0 68.1224 10.5252 717 96.0126 512.086 450.411
201 0 74.1876 11.8483 879 84.5722 511.262 448.776
202 0 78.1232 11.7251 916 84.3526 511.344 450.155
203 0 81.1453 10.968 890 85.6022 511.771 450.749
204 0 82.1773 12.8016 1052 83.6597 512.058 446.034
205 0 86.2387 12.1175 1045 84.956 511.54 446.226
206 0 87.1972 13.8651 1209 83.5103 511.581 443.746
207 0 87.1526 13.0461 1137 86.3342 511.978 443.785
208 0 90.1328 11.4942 1036 89.75 511.308 445.406
209 0 93.0427 12.2739 1142 89.6874 512.06 441.461
210 0 100.153 12.3411 1236 89.3074 511.121 442.562
211 0 100.2 10.998 1102 98.8929 512.497 433.835
212 0 107.084 13.1579 1409 93.9134 512.358 438.624
213 0 108.164 13.3501 1444 96.0429 511.976 435.409
214 0 112.419 13.5742 1526 92.692 511.566 434.795
215 0 114.182 11.6568 1331 94.5041 512.361 435.251
216 1 63.1555 11.2579 711 96.6484 513.256 460.318
217 0 65.0691 11.9258 776 86.8015 512.947 459.537
218 0 67.2031 12.2762 825 87.143 512.841 457.29
219 0 68.1044 11.0712 754 90.7626 512.273 457.728
220 0 74.195 12.9119 958 86.0313 512.385 458.97
221 0 75.1954 12.1417 913 89.0011 512.02 455.755
222 0 78.191 12.8915 1008 88.4722 512.226 453.057
223 0 78.1601 12.2569 958 94.3434 511.456 454.624
224 0 83.1268 12.7997 1064 93.703 512.299 453.388
225 0 85.3642 12.3471 1054 94.5816 512.139 451.485
226 0 87.233 13.7907 1203 92.0067 512.278 444.953
227 0 90.2731 14.1792 1280 92.093 512.048 445.07
228 0 93.1649 12.5369 1168 95.7603 512.09 441.676
229 0 96.1601 13.8311 1330 93.7346 511.584 440.562
230 0 99.3109 12.3753 1229 96.8487 511.967 439.643
231 0 105.269 13.1377 1383 94.4526 512.05 434.687
232 0 111.28 14.2074 1581 91.3112 512.356 433.009
233 0 112.248 13.9156 1562 93.8131 511.895 435.917
234 0 112.167 13.0431 1463 96.8291 512.689 432.34
235 0 113.338 12.7407 1444 98.1842 512.811 430.773
236 0 121.338 14.3483 1741 94.1499 512.372 430.509
237 0 125.283 13.4256 1682 96.5927 512.342 427.689
238 0 130.316 13.9967 1824 94.3405 511.293 424.9
239 1 72.1206 13.0199 939 94.3024 512.185 456.776
240 0 75.0853 12.4525 935 95.1968 511.864 453.978
241 0 80.1636 14.0213 1124 91.1913 512.294 454.049
242 0 80.0534 12.0919 968 95.9876 512.695 455.561
243 0 84.0849 13.7361 1155 91.8978 512.403 455.678
244 0 82.1325 13.1738 1082 95.9972 512.517 451.444
245 0 89.0714 13.5622 1208 94.5265 512.757 452.351
246 0 88.0976 12.8721 1134 98.045 512.347 450.334
247 0 93.2449 13.6522 1273 96.1736 511.472 450.394
248 0 94.3664 12.4939 1179 100.097 511.933 448.065
249 0 97.169 11.938 1160 101.453 512.008 447.778
250 0 102.351 13.8836 1421 97.7051 512.109 445.136
251 0 103.185 13.0252 1344 100.392 512.06 443.42
252 0 110.294 14.144 1560 96.7135 511.872 443.219
253 0 113.126 13.6839 1548 98.7106 512.276 439.45
254 0 116.167 12.9038 1499 100.093 511.452 440.342
255 0 121.194 14.9348 1810 94.9492 511.132 440.263
256 1 67.0897 11.4474 768 102.82 511.586 461.93
257 0 69.0638 12.4088 857 101.87 511.841 459.8
258 0 71.0483 13.1882 937 99.5005 511.016 461.491
259 0 75.0984 12.943 972 99.5412 510.798 454.455
260 0 79.1269 13.3456 1056 98.8106 511.879 448.103
261 0 81.087 13.837 1122 99.2977 511.787 449.855
262 0 85.0396 13.7936 1173 98.8312 512.177 451.13
263 0 86.0974 14.1584 1219 99.6694 511.288 430.139
264 0 89.1694 15.3416 1368 97.5833 511.561 425.949
265 0 92.294 14.5405 1342 100.186 512.341 425.662
266 0 95.1257 14.2338 1354 100.601 511.192 427.264
267 0 98.1256 14.5528 1428 101.347 511.974 421.607
268 0 99.1398 13.95 1383 104.213 511.364 423.367
269 0 102.245 13.3405 1364 105.556 511.617 423.354
270 0 104.114 14.5225 1512 103.795 511.892 421.791
271 0 106.1 13.7228 1456 106.3 511.869 420.071
272 0 111.186 15.6135 1736 101.219 510.779 421.93
273 0 116.168 15.7186 1826 101.585 511.924 422.101
274 0 118.217 14.3549 1697 105.214 511.953 422.054
275 0 122.157 15.914 1944 101.977 511.851 419.91
276 0 124.183 13.8988 1726 107.299 512.07 419.908
277 0 130.204 14.4619 1883 106.865 512.411 416.534
278 0 135.222 14.4651 1956 106.529 511.81 415.787
279 0 142.264 15.8157 2250 104.886 512.107 421.968
280 0 145.148 14.282 2073 106.348 511.726 429.121
281 1 94.0853 15.6347 1471 95.0517 511.878 453.86
282 0 89.2149 15.9166 1420 100.49 511.635 441.923
283 0 90.092 14.9958 1351 104.05 512.439 441.229
284 0 93.1732 15.7341 1466 102.097 512.334 444.723
285 0 96.2055 15.6124 1502 102.679 513.06 446.628
286 0 96.2116 12.8675 1238 112.002 512.915 445.683
287 0 95.1924 13.3939 1275 112.609 512.151 442.504
288 0 104.164 15.1011 1573 105.334 512.641 439.436
289 0 110.261 17.9121 1975 96.3782 512.333 435.531
290 0 108.315 15.3902 1667 106.517 512.54 440.821
291 0 109.159 14.3827 1570 109.507 512.553 436.553
292 0 114.104 13.8645 1582 109.403 511.666 436.089
293 0 119.165 13.3009 1585 110.702 512.317 433.678
294 0 120.201 14.3177 1721 108.471 512.429 428.855
295 1 71.0979 12.3632 879 104.217 511.815 457.915
296 0 69.0411 10.8196 747 109.151 511.307 454.171
297 0 73.1378 12.4833 913 103.116 512.068 458.042
298 0 76.056 13.4769 1025 100.261 511.401 456.411
299 0 82.1269 13.3574 1097 99.5433 511.629 453.405
300 0 87.1925 16.3431 1425 90.9488 512.826 448.088
301 0 91.0563 15.8913 1447 91.7028 512.287 447.494
302 0 91.1142 15.4312 1406 94.2731 512.236 445.415
303 0 93.2002 16.1373 1504 92.486 512.275 443.648
304 0 98.0698 17.1409 1681 89.5021 512.184 440.333
305 0 99.132 15.5248 1539 95.3307 511.988 443.306
306 0 103.136 15.1548 1563 95.8599 511.819 442.017
307 0 101.124 13.7356 1389 100.251 512.334 435.313
308 0 105.156 13.5227 1422 101.85 512.572 440.687
309 0 108.2 13.3086 1440 102.567 512.404 438.537
310 0 113.109 13.7919 1560 100.657 511.471 436.498
311 0 114.191 12.5404 1432 104.33 511.746 433.52
312 0 113.174 12.6354 1430 105.493 512.091 429.579
313 0 123.175 12.121 1493 105.834 512.642 427.619
314 0 128.215 14.0779 1805 101.919 512.909 430.211
315 0 133.312 12.632 1684 104.67 512.665 428.716
316 0 138.29 13.1535 1819 104.009 512.97 424.864
317 0 142.288 13.4867 1919 104.321 512.907 421.601
318 1 80.2213 12.0168 964 105.851 512.602 450.566
319 0 80.0917 10.875 871 108.972 513.009 449.367
320 0 85.166 11.6713 994 106.748 513.024 448.407
321 0 87.2435 13.1815 1150 103.333 513.03 445.125
322 0 90.1168 12.8722 1160 103.601 513.254 446.891
323 0 95.1855 13.6996 1304 100.499 512.283 448.427
324 0 98.1487 13.5203 1327 101.702 512.545 446.144
325 0 101.166 13.9277 1409 101.405 512.536 444.886
326 0 101.128 12.5287 1267 105.684 512.373 441.767
327 0 107.24 13.3532 1432 102.953 512.968 441.512
328 0 108.192 12.3485 1336 105.604 513.081 439.374
329 0 112.244 13.4261 1507 103.508 513.349 437.644
330 0 118.166 13.7433 1624 102.071 513.134 436.254
331 0 121.222 15.385 1865 98.237 513.297 434.998
332 0 126.212 13.2713 1675 102.768 512.934 427.928
333 0 129.282 14.1087 1824 100.408 513.019 429.899
334 0 134.133 12.9648 1739 103.097 512.851 424.968
335 0 135.311 12.3715 1674 104.348 513.051 421.195
336 0 142.223 12.825 1824 101.742 513.195 421.02
337 0 148.197 13.5833 2013 99.7968 513.037 418.547
338 0 156.292 14.0058 2189 98.2289 513.149 414.816
339 1 87.0555 9.12062 794 105.997 513.397 443.961
340 0 89.1665 11.8206 1054 101.307 513.349 442.812
341 0 94.07 12.7883 1203 98.1704 513.569 444.466
342 0 93.0996 12.7283 1185 98.6962 513.53 445.669
343 0 96.1155 13.4838 1296 97.4946 513.299 446.676
344 0 100.156 12.6702 1269 99.1844 513.344 443.718
345 0 101.252 11.338 1148 103.281 512.683 438.704
346 0 105.291 11.264 1186 102.468 512.954 437.909
347 0 106.24 11.4928 1221 102.563 512.769 438.688
348 0 114.374 12.4242 1421 101.365 513.438 435.85
349 0 115.214 13.106 1510 99.8954 512.795 432.422
350 0 121.133 12.3253 1493 102.007 512.876 427.223
351 0 122.325 10.701 1309 106.634 512.993 424.539
352 0 125.254 9.69232 1214 107.24 511.936 427.904
353 0 127.175 12.243 1557 103.936 511.553 418.294
354 0 132.308 12.2366 1619 104.146 511.768 417.271
355 0 137.356 11.3574 1560 105.243 512.418 419.461
356 0 147.276 13.6003 2003 100.311 512.091 417.674
357 0 152.27 12.7406 1940 102.826 512.055 412.165
358 0 157.376 11.9586 1882 105.321 512.116 406.552
359 0 161.332 12.3906 1999 104.595 511.568 402.585
360 0 166.646 13.1176 2186 103.471 511.375 398.183
361 0 174.49 14.316 2498 100.11 511.404 401.792
362 0 180.27 14.7224 2654 100.39 511.941 399.715
363 0 183.227 12.8311 2351 106.578 511.819 391.825
364 0 189.292 12.8267 2428 107.33 511.708 390.239
365 0 189.347 12.7174 2408 109.522 511.61 380.24
366 1 204.423 12.117 2477 109.517 511.939 385.031
367 0 215.374 13.5996 2929 105.289 510.889 383.41
368 0 211.321 13.6002 2874 108.178 511.981 373.845
369 0 217.383 13.2853 2888 109.264 511.261 366.454
370 0 226.409 12.1947 2761 112.288 512.225 359.788
371 0 226.421 13.2806 3007 156.403 513.293 365.769
372 1 187.214 8.96835 1679 107.575 511.927 404.469
373 1 12.0014 3.66623 44 70 511.591 486.273
374 0 15.0089 2.46521 37 70.6486 511.892 487.324
375 0 18.0508 4.43194 80 68.3625 512.05 487.8
376 0 12.0023 1.9163 23 69.7826 510.565 487.13
377 0 16.0046 3.81141 61 69.623 511.426 488.066
378 0 14.001 3.64261 51 70.2157 511.725 489
379 0 18.0125 3.16448 57 70.9123 511.474 487.421
380 0 19.0009 0.63155 12 74 512.083 488.917
381 0 14.0042 0.856886 12 73.1667 510.5 486.167
382 1 46.1027 4.44659 205 77.7122 512.82 464.639
383 0 51.0559 6.28723 321 79.1059 512.383 474.888
384 0 56.1336 8.96076 503 79.668 512.002 474.469
385 0 58.0662 10.5741 614 77.855 511.7 475.614
386 0 61.1334 10.8615 664 77.1852 511.586 474.511
387 0 61.1517 11.7413 718 76.8287 511.923 472.167
388 0 63.1077 10.7435 678 79.2094 511.617 471.143
389 0 66.1443 11.1423 737 78.6689 512.311 471.847
390 0 66.0898 9.88049 653 81.438 511.493 471.107
391 0 69.0913 11.2026 774 79.2003 511.403 469.222
392 0 69.063 10.961 757 81.2008 511.185 468.139
393 0 71.2266 9.36448 667 84.4078 511.181 469.63
394 0 69.0841 10.48 724 85.384 511 467.086
395 0 152.503 10.3736 1582 92.8123 511.066 427.239
396 0 156.229 11.5343 1802 88.8391 510.398 424.573
397 0 161.439 11.2055 1809 90.6694 511.536 425.378
398 0 165.662 9.58578 1588 93.1946 511.618 423.316
399 0 171.644 11.7044 2009 89.3728 512.068 420.403
