time division length width area intensity CMx CMy
0 0 43.1829 11.2081 484 132.163 1263.46 481.698
1 0 42.2659 10.4103 440 136.33 1264.38 482.132
2 0 45.1804 11.1774 505 134.162 1264.33 480.465
3 0 45.1753 11.0459 499 135.493 1263.9 480.675
4 0 46.2252 11.0979 513 135.503 1264.44 480.992
5 0 50.1377 12.2263 613 131.437 1265.05 480.085
6 0 51.1404 11.2827 577 134.482 1264.19 479.707
7 0 50.0701 10.8248 542 137.327 1264.24 480.12
8 0 54.1189 12.4356 673 131.211 1264.43 479.256
9 0 55.1035 11.9412 658 133.799 1263.71 477.015
10 0 57.1322 12.3923 708 132.136 1264.02 476.977
11 0 58.0897 11.5339 670 134.275 1264.06 477.379
12 0 60.0687 12.3359 741 131.444 1264.16 475.134
13 0 61.0903 12.4406 760 128.85 1264.38 477.018
14 1 32.0559 11.1056 356 135.478 1262.52 489.152
15 0 35.0414 11.1297 390 134.182 1262.67 488.882
16 0 35.0466 12.0696 423 132.52 1262.96 488.359
17 0 38.055 11.6936 445 129.151 1263.28 488.926
18 0 37.1345 12.7105 472 130.184 1262.68 487.754
19 0 33.0692 12.247 405 130.23 1262.93 490.881
20 0 35.0939 11.284 396 131.694 1262.38 490.015
21 0 35.111 10.6804 375 131.747 1262.51 490.731
22 0 39.0809 12.9219 505 123.721 1261.71 489.855
23 0 39.1048 12.0957 473 125.7 1261.33 490.148
24 0 41.0804 12.5607 516 123.969 1261.29 490.072
25 0 43.1154 12.1998 526 123.192 1261.52 489.713
26 0 42.1072 11.8507 499 126.539 1261.48 488.685
27 0 44.051 12.2812 541 124.338 1261.42 488.407
28 0 45.0945 13.0615 589 123.083 1261.69 487.272
29 0 48.0941 12.1428 584 123.209 1261.32 487.125
30 0 47.0653 11.8134 556 126.099 1261.29 486.678
31 0 51.1208 12.9106 660 121.28 1261.83 485.305
32 0 51.0437 12.9889 663 121.584 1261.31 483.897
33 0 53.0585 14.0788 747 117.167 1261.19 483.925
34 0 56.0609 12.5399 703 118.653 1261.31 484.751
35 0 56.0427 13.5076 757 117.58 1261.03 483.433
36 0 58.0988 14.0622 817 116.778 1261.13 481.169
37 0 60.0724 12.9843 780 118.953 1260.94 481.108
38 0 63.0457 13.0064 820 116.427 1260.44 482
39 0 64.0933 12.3414 791 118.987 1260.21 480.303
40 0 67.2068 13.1088 881 116.301 1260.58 480.574
41 0 71.0677 13.9585 992 114.628 1260.47 478.165
42 0 72.0735 13.625 982 114.812 1260.85 478.322
43 0 75.079 14.5047 1089 114.493 1261.25 476.245
44 0 77.0622 13.1582 1014 119.725 1260.53 474.919
45 0 80.0993 13.8703 1111 117.607 1260.95 473.952
46 0 83.0646 14.3984 1196 116.693 1260.31 472.236
47 0 88.1799 14.4364 1273 113.942 1260.26 471.545
48 0 88.1133 15.2644 1345 114.362 1260.53 468.067
49 1 48.0353 12.5325 602 123.198 1261.03 487.257
50 0 50.0414 13.9485 698 120.907 1260.26 486.215
51 0 51.0935 14.3658 734 120.326 1261.03 485.255
52 0 53.0341 14.9526 793 113.738 1260.05 486.158
53 0 54.0649 14.5011 784 114.876 1260.55 486.061
54 0 57.0301 14.7466 841 114.106 1260.51 484.797
55 0 59.0843 14.4201 852 114.398 1259.73 485.244
56 0 60.0661 14.9835 900 114.342 1259.49 482.548
57 0 64.0789 15.8398 1015 110.566 1259.53 482.354
58 0 63.2904 14.631 926 115.509 1259.3 481.324
59 0 66.1742 14.9152 987 114.617 1259.19 480.698
60 0 68.0804 15.0264 1023 112.188 1259.68 479.004
61 0 71.1305 14.2555 1014 113.097 1259.33 479.001
62 0 73.1641 15.0484 1101 112.04 1258.95 477.819
63 0 74.0475 14.3421 1062 114.225 1259.05 477.674
64 0 77.1531 14.9962 1157 112.36 1258.52 475.38
65 0 80.0652 15.4624 1238 111.45 1259.2 474.918
66 0 82.117 14.4672 1188 114.398 1259.23 473.39
67 0 85.1408 15.2218 1296 113.944 1259.36 471.677
68 0 88.163 14.6206 1289 115.432 1259.14 468.957
69 0 91.2119 14.998 1368 113.876 1259.11 468.107
70 0 91.2822 14.0991 1287 116.983 1258.54 467.261
71 0 95.1464 14.3568 1366 115.649 1259.29 462.928
72 0 100.209 15.6772 1571 112.56 1259.4 461.731
73 0 103.075 14.533 1498 116.632 1258.92 461.465
74 0 105.188 15.3535 1615 114.557 1258.64 461.154
75 0 110.185 15.238 1679 113.454 1259.3 459.355
76 0 114.144 14.0875 1608 116.952 1259.42 456.123
77 0 117.217 14.7846 1733 113.718 1259.53 452.812
78 0 119.15 13.3529 1591 115.087 1259.34 446.871
79 0 124.164 13.748 1707 112.674 1258.91 446.124
80 0 130.206 13.2789 1729 113.335 1258.47 444.726
81 0 139.254 13.2994 1852 112.745 1259.14 444.065
82 1 70.0574 12.6753 888 106.032 1259.67 477.407
83 0 73.0947 12.8737 941 106.883 1260.77 476.101
84 0 75.0547 13.0838 982 108.176 1260.34 474.022
85 0 80.1222 14.4904 1161 103.137 1260.15 473.92
86 0 82.0279 13.0322 1069 106.041 1259.96 471.709
87 0 85.0612 13.3551 1136 105.691 1260.26 471.188
88 0 87.0537 13.44 1170 106.642 1260.36 469.622
89 0 90.199 13.2596 1196 107.268 1260.11 468.251
90 0 96.0791 14.5401 1397 103.458 1259.26 468.083
91 0 96.1386 12.586 1210 108.349 1259.45 465.031
92 0 102.264 12.986 1328 107.866 1259.46 462.691
93 0 104.205 13.5215 1409 108.372 1259.36 461.253
94 0 109.206 13.7081 1497 108.441 1259.18 460.048
95 0 113.305 13.6446 1546 108.934 1259.36 455.596
96 0 118.331 13.082 1548 111.318 1258.78 454.745
97 0 123.307 13.2515 1634 114.314 1259.25 450.831
98 0 127.262 13.7433 1749 110.874 1259.56 450.242
99 1 68.2235 10.7881 736 110.319 1259.59 481.872
100 0 73.3473 13.0612 958 105.211 1258.64 478.246
101 0 75.2588 13.1945 993 104.826 1258.21 475.404
102 0 75.3023 13.2532 998 107.685 1259.39 475.765
103 0 78.2607 14.3111 1120 105.462 1259.48 476.631
104 0 80.368 13.3511 1073 106.818 1258.9 477.009
105 0 82.2749 12.7864 1052 108.721 1259.55 473.768
106 0 86.2518 12.8345 1107 107.997 1259.45 469.285
107 0 89.413 13.8459 1238 105.822 1258.95 464.858
108 0 92.3798 12.8599 1188 107.108 1259.57 463.117
109 0 94.2748 13.8425 1305 105.154 1258.89 457.785
110 0 98.2953 11.73 1153 107.254 1259.35 460.888
111 0 103.189 13.6449 1408 103.859 1259.16 458.281
112 0 105.101 12.8162 1347 106.76 1258.7 453.415
113 0 107.283 11.8379 1270 109.919 1258.74 450.85
114 0 112.259 13.1749 1479 105.528 1259.29 452.29
115 0 112.259 13.1927 1481 157.876 1259.31 452.396
116 0 121.144 12.7369 1543 106.928 1259.02 444.819
117 1 65.0539 11.5596 752 99.4588 1258.3 476.868
118 0 66.099 11.044 730 101.901 1259.04 472.775
119 0 69.2153 12.8151 887 106.329 1259.02 478.339
120 0 70.2119 13.388 940 103.997 1258.25 480.399
121 0 75.1464 13.1344 987 104.374 1257.75 479.362
122 0 75.0787 13.6523 1025 104.496 1258.36 475.252
123 0 78.1407 11.9528 934 104.319 1257.67 477.226
124 0 81.067 12.9152 1047 103.467 1258.15 472.031
125 0 83.2723 13.0896 1090 102.717 1257.31 474.667
126 0 85.0775 12.1301 1032 104.55 1257.81 473.37
127 0 90.1292 13.3142 1200 102.329 1259.5 470.137
128 0 95.1273 13.6239 1296 101.147 1260.08 466.215
129 0 96.0517 12.5766 1208 104.435 1259.25 466.844
130 0 100.106 12.8363 1285 104.445 1259.54 463.053
131 0 105.209 13.5635 1427 110.124 1259.07 462.244
132 0 106.226 12.7369 1353 111.166 1258.45 460.953
133 0 111.146 13.1359 1460 109.455 1257.75 459.914
134 1 60.1875 12.7103 765 103.396 1256.84 486.123
135 0 61.0977 12.5373 766 104.086 1258.33 483.77
136 0 62.1491 13.0171 809 100.216 1257.42 483.471
137 0 64.132 13.02 835 100.659 1257.11 480.459
138 0 68.138 12.504 852 99.784 1257.3 482.397
139 0 70.1909 12.8792 904 99.8496 1257.19 480.719
140 0 72.1607 14.343 1035 98.1188 1257.16 477.396
141 0 73.2629 12.3937 908 102.435 1256.8 479.195
142 0 77.047 12.6157 972 103.285 1257.48 476.754
143 0 80.1677 13.1724 1056 100.875 1257.37 476.82
144 0 83.1269 13.0523 1085 102.344 1257.77 473.173
145 0 85.3235 14.029 1197 101.047 1259.26 471.296
146 0 88.1542 13.2495 1168 103.836 1259.21 469.639
147 0 90.148 13.134 1184 104.707 1258.79 467.712
148 0 95.2162 12.9915 1237 104.275 1258.68 468.993
149 0 98.4573 13.4474 1324 104.421 1258.56 465.09
150 0 102.316 13.087 1339 107.211 1257.82 464.606
151 0 106.571 13.7373 1464 105.872 1257.05 462.072
152 0 106.27 12.3459 1312 111.968 1257.91 459.936
153 1 54.1122 10.9218 591 107.306 1256.37 487.259
154 0 56.2629 11.4107 642 109.145 1257.31 484.38
155 0 60.3714 13.3176 804 104.739 1256.58 482.928
156 0 59.0739 12.0866 714 107.69 1257.03 484.273
157 0 61.1423 11.5959 709 108.223 1257.22 483.251
158 0 63.0768 11.8744 749 107.689 1257.47 483.326
159 0 64.1441 11.5677 742 109.469 1256.84 481.981
160 0 69.145 13.2331 915 105.41 1257.83 479.714
161 0 70.1047 13.7081 961 104.761 1256.75 478.266
162 0 72.096 12.8301 925 108.754 1257.19 476.174
163 0 75.1148 12.5408 942 108.744 1257.4 477.356
164 0 77.0921 12.9196 996 108.221 1258 475.07
165 0 81.0833 13.813 1120 106.404 1258.68 475.071
166 0 81.1481 13.4199 1089 108.904 1259.28 474.691
167 0 83.294 12.2698 1022 112.695 1259.34 471.813
168 0 89.3307 13.0638 1167 111.045 1258.64 468.797
169 0 91.2452 12.8774 1175 111.831 1258.61 469.319
170 0 95.1942 14.6963 1399 107.485 1258.62 466.954
171 0 98.1166 13.4941 1324 109.73 1258.92 467.35
172 0 100.197 13.6032 1363 110.178 1257.29 463.453
173 0 103.257 13.3744 1381 110.251 1257.56 460.741
174 1 55.2348 11.9128 658 110.002 1257.21 485.175
175 0 59.2681 11.5239 683 107.594 1257.01 487.977
176 0 60.2312 12.4852 752 108.243 1257.34 484.669
177 0 61.3096 12.233 750 109.093 1257.45 482.951
178 0 63.2474 12.4432 787 108.17 1257.61 482.809
179 0 64.184 11.6073 745 110.745 1256.54 481.821
180 0 66.2606 12.0283 797 111.024 1257.3 479.235
181 0 68.2133 11.7133 799 109.941 1257.36 479.707
182 0 71.1056 10.9696 780 111.262 1257.42 479.988
183 0 75.1086 12.7016 954 107.623 1257.46 478.262
184 0 77.137 12.4454 960 108.386 1257.63 476.57
185 0 78.206 13.1576 1029 108.214 1257.5 473.537
186 0 81.2045 13.8785 1127 106.044 1258.22 473.856
187 0 82.108 12.3374 1013 111.621 1258.39 471.124
188 0 85.2172 12.6148 1075 111.334 1257.85 470.391
189 0 90.1048 13.0737 1178 109.457 1257.62 468.634
190 0 92.1541 14.2153 1310 107.035 1257.76 467.683
191 0 94.0844 13.3072 1252 110.421 1257.26 465.384
192 0 100.083 13.9684 1398 107.403 1257.71 465.489
193 0 103.108 13.19 1360 109.73 1257.54 463.951
194 0 105.165 12.8845 1355 111.069 1257.64 461.347
195 0 109.093 13.5664 1480 110.023 1258.15 458.161
196 0 112.188 13.2456 1486 110.649 1257.84 457.777
197 0 118.306 12.7128 1504 109.993 1257.81 456.157
198 1 60.0466 10.7416 645 111.082 1258.23 484.436
199 0 60.0466 10.725 644 148.208 1259.21 484.502
200 0 63.0653 12.0986 763 110.387 1257.34 479.041
201 0 67.0913 13.2059 886 107.135 1257.08 478.868
202 0 70.1794 13.6935 961 104.421 1258.35 478.229
203 0 73.0886 13.5452 990 105.133 1257.78 478.261
204 0 75.1294 14.0957 1059 104.443 1258.32 476.741
205 0 77.077 13.1557 1014 107.791 1257.93 475.524
206 0 78.1021 13.3287 1041 108.897 1258.15 475.164
207 0 82.119 13.4683 1106 108.956 1258.45 473.704
208 0 83.108 12.8628 1069 111.058 1257.44 471.979
209 0 88.098 12.9288 1139 109.057 1257.35 471.74
210 0 91.0626 13.628 1241 108.943 1257.5 468.629
211 0 95.0643 13.3068 1265 109.746 1257.25 467.258
212 0 96.075 13.7809 1324 117.069 1256.89 465.553
213 0 99.1572 14.5728 1445 116.228 1257.15 462.547
214 0 103.133 13.1093 1352 120.161 1256.82 462.902
215 0 106.073 13.3964 1421 118.739 1257.07 461.156
216 0 109.164 13.8507 1512 118.186 1256.55 458.473
217 0 112.171 14.0589 1577 117.359 1256.69 457.499
218 0 115.251 14.4467 1665 113.966 1258.86 456.972
219 1 62.0669 10.682 663 116.312 1258.93 479.897
220 0 65.1408 11.8359 771 106.196 1258.96 477.922
221 0 67.1821 14.0811 946 99.8457 1257.83 479.113
222 0 70.0758 13.1144 919 101.14 1258.03 478.39
223 0 74.1922 13.3707 992 100.195 1257.79 476.888
224 0 74.0826 12.2836 910 103.181 1257.44 476.967
225 0 76.0777 11.4488 871 105.573 1257.73 473.093
226 0 81.1139 12.5749 1020 102.179 1257.5 474.625
227 0 82.0752 13.4876 1107 101.032 1257.17 470.708
228 0 84.1329 12.6942 1068 103.195 1257.62 472.07
229 0 85.063 10.6862 909 108.09 1257.77 468.766
230 0 91.1138 12.2923 1120 104.183 1258.43 468.257
231 0 94.1448 11.4611 1079 103.771 1258.39 463.048
232 0 95.1208 10.8283 1030 106.537 1258.33 462.869
233 0 98.278 10.9689 1078 106.076 1258.7 461.416
234 1 48.0365 10.3671 498 106.884 1258.01 489.588
235 0 52.0949 12.1317 632 100.302 1257.65 487.897
236 0 54.2888 13.4098 728 93.4437 1257.93 487.761
237 0 54.113 13.0468 706 97.2975 1258.39 486.04
238 0 54.2039 11.9918 650 99.9369 1258.57 485.848
239 0 57.1224 11.5191 658 100.796 1258.41 484.427
240 0 58.1321 12.5576 730 99.537 1258.42 485.419
241 0 61.0843 13.0803 799 97.9487 1259.34 482.235
242 0 64.0305 13.884 889 95.604 1259.12 482.638
243 0 65.214 13.4174 875 97.8354 1258.89 480.838
244 0 65.0833 13.2138 860 100.648 1258.77 479.415
245 0 66.109 11.5113 761 104.876 1259.07 480.794
246 0 71.1615 14.0525 1000 98.712 1258.77 478.596
247 0 70.0792 12.3146 863 105.593 1258.49 476.867
248 0 74.1577 12.2172 906 105.974 1258.59 476.12
249 0 76.2117 13.0033 991 105.423 1258.56 473.83
250 0 79.0347 12.3363 975 107.181 1258.34 471.643
251 0 83.1511 13.5536 1127 104.628 1258.62 469.39
252 0 86.0843 13.0802 1126 105.243 1257.67 470.408
253 0 88.1627 12.182 1074 107.526 1256.74 471.151
254 0 92.103 12.5512 1156 111.97 1257.14 467.141
255 1 49.1455 11.2726 554 103.09 1257.89 488.605
256 0 50.0278 13.5325 677 100.121 1257.94 486.914
257 0 52.0652 11.4088 594 110.17 1257.87 488.466
258 0 53.0605 12.4575 661 102.791 1258 486.69
259 0 55.1187 12.6273 696 101.704 1257.89 487.507
260 0 56.0431 13.6145 763 101.041 1257.71 485.987
261 0 58.0601 14.2955 830 99.2819 1257.12 485.058
262 0 59.1396 13.4935 798 101.781 1257.29 482.931
263 0 63.1595 14.2496 900 97.99 1258.01 483.334
264 0 63.1523 13.222 835 102.189 1256.91 481.335
265 0 63.1396 12.7495 805 104.304 1256.93 480.041
266 0 67.1077 12.398 832 104.382 1257.36 480.56
267 0 70.1009 12.8529 901 103.437 1257.6 479.314
268 0 71.118 14.3845 1023 100.563 1258.1 477.72
269 0 74.1785 13.5888 1008 102.43 1257.53 476.514
270 0 78.1101 13.865 1083 102.418 1257.08 475.584
271 0 79.179 13.2737 1051 103.745 1257.59 474.537
272 0 82.0665 13.4159 1101 103.692 1257.76 472.693
273 0 85.1522 14.1746 1207 102.341 1257.68 471.519
274 0 87.0673 12.2893 1070 106.573 1257.94 470.839
275 0 91.1407 13.0128 1186 104.589 1257.47 469.799
276 0 94.1491 12.8307 1208 110.587 1257.98 466.71
277 0 95.1403 13.4223 1277 110.823 1258.39 463.761
278 1 54.0251 11.9389 645 107.546 1258.01 488.093
279 0 55.0491 13.0429 718 106.578 1257.18 485.825
280 0 56.1233 12.6685 711 102.533 1259.26 484.591
281 0 59.0224 13.2492 782 106.137 1257.68 484.247
282 0 60.2424 11.9185 718 110.189 1258.95 484.582
283 0 61.1466 12.7235 778 108.776 1258.13 482.451
284 0 63.1108 12.6761 800 109.151 1258.56 482.668
285 0 65.1421 13.4322 875 107.005 1257.95 480.424
286 0 67.2031 11.7703 791 110.235 1258.11 480.109
287 0 70.1224 12.7777 896 107.464 1257.8 477.487
288 0 72.1314 12.9209 932 106.938 1257.7 477.4
289 0 76.1 13.8502 1054 104.337 1258.44 476.362
290 0 78.1665 11.8849 929 108.919 1258.04 473.987
291 0 79.2056 11.7668 932 109.413 1258.13 472.181
292 0 83.1897 13.2348 1101 106.656 1257.8 470.071
293 0 87.1654 12.5853 1097 107.472 1258.22 469.205
294 0 89.1654 14.2432 1270 103.56 1257.82 467.327
295 1 43.0324 9.85304 424 104.356 1257.77 490.361
296 0 47.0143 10.9328 514 101.191 1257.91 488.949
297 0 48.0115 12.9552 622 93.4711 1257.92 490.931
298 0 51.236 11.9642 613 95.3768 1257.51 488.468
299 0 53.2602 13.8565 738 91.1192 1258.05 488.051
300 0 53.0972 12.0157 638 95.9263 1258.56 485.4
301 0 54.1114 12.5297 678 96.1195 1258.58 485.909
302 0 56.117 11.7968 662 97.1027 1258.22 486.42
303 0 58.0989 13.0123 756 93.8069 1257.25 486.489
304 0 61.2957 13.3125 816 93.0196 1257.64 482.87
305 0 61.2045 13.1526 805 94.7416 1257.83 483.799
306 0 64.277 13.753 884 92.9434 1258.77 480.132
307 0 67.2114 13.7774 926 92.6717 1257.71 480.484
308 0 69.2781 13.0922 907 94.2723 1257.63 478.774
309 0 70.1759 12.8962 905 94.937 1258.18 479.164
310 0 73.3277 14.7557 1082 91.7643 1257.48 475.968
311 0 75.1763 13.2223 994 95.169 1257.86 475.492
312 0 79.2717 13.1951 1046 94.6004 1258.36 473.611
313 0 81.2905 14.0115 1139 93.2063 1258.33 471.116
314 0 84.2143 14.9737 1261 92.4044 1258.47 473.191
315 0 86.242 13.8564 1195 95.8586 1258.3 470.478
316 1 46.1099 11.7762 543 95.1234 1256.25 492.331
317 0 48.1072 11.6822 562 96.8932 1256.58 489.265
318 0 48.1889 11.3512 547 97.9378 1257.5 489.068
319 0 50.1749 10.9218 548 96.9635 1257.66 489.723
320 0 51.0328 12.0119 613 93.2643 1257.17 488.667
321 0 52.0455 13.1423 684 91.9474 1257.26 488.231
322 0 55.0236 12.4674 686 92.5977 1257.64 487.265
323 0 55.0695 11.6035 639 94.8529 1257.63 487.1
324 0 58.0697 12.3472 717 92.3612 1256.81 486.289
325 0 59.1135 13.3472 789 91.5032 1257.44 485.421
326 0 59.1303 12.5993 745 94.2255 1257.39 484.079
327 0 62.0972 13.7687 855 91.3906 1257.65 484.041
328 0 63.0833 13.3474 842 92.614 1257.22 482.729
329 0 65.0407 12.8535 836 94.2117 1257.43 481.804
330 0 67.0436 13.2451 888 93.5518 1257.22 479.958
331 0 68.0892 11.3528 773 97.9845 1257.11 479.873
332 0 73.0799 14.2036 1038 91.8401 1257.94 479.458
333 0 72.1128 11.1769 806 98.9615 1257.57 475.536
334 0 76.0726 13.4871 1026 94.7544 1257.97 476.71
335 0 76.0803 12.0399 916 98.1845 1258.15 475.267
336 0 81.1207 13.4121 1088 95.4384 1257.28 473.756
337 0 82.0675 12.4775 1024 97.8076 1257.97 473.851
338 0 86.0835 13.2081 1137 96.4952 1258.1 470.944
339 1 45.143 10.8765 491 100.061 1257.21 490.845
340 0 45.0476 10.9884 495 98.7071 1256.9 491.428
341 0 47.1037 12.2283 576 96.3524 1257.79 490.977
342 0 48.0915 12.0604 580 97.4741 1257.82 488.96
343 0 52.068 12.1188 631 96.0475 1257.72 489.388
344 0 53.0433 12.7066 674 95.3279 1258.09 488.852
345 0 53.0706 12.5682 667 96.7571 1258.25 487.184
346 0 57.1176 12.378 707 96.338 1258.14 486.823
347 0 60.0487 13.8554 832 93.1142 1258.71 485.019
348 0 60.0508 12.3562 742 96.872 1258.15 485.135
349 0 60.0615 12.9034 775 96.9239 1259.1 483.915
350 0 64.2003 13.0685 839 96.1478 1259.17 482.007
351 0 66.1333 14.0776 931 94.1966 1259.1 481.512
352 0 68.1123 12.6996 865 97.5422 1258.88 480.676
353 0 72.0612 12.6559 912 97.5504 1258.86 480.591
354 0 73.0548 13.3325 974 96.1355 1259.75 479.592
355 0 76.0738 12.7376 969 97.3075 1259.67 478.811
356 0 78.0837 12.1152 946 99.593 1259.39 476.383
357 0 83.0987 13.7908 1146 96.0593 1258.6 475.44
358 1 46.0618 12.9174 595 96.9412 1258.09 493.071
359 0 49.1586 11.3713 559 99.7871 1261.61 489.891
360 0 48.2804 13.0281 629 100.545 1258.47 489.722
361 0 48.3009 12.3807 598 102.082 1258.68 490.946
362 0 51.228 13.3911 686 100.988 1258.83 489.242
363 0 53.1926 12.4077 660 103.298 1259.02 489.138
364 0 53.1845 13.1429 699 103.381 1258.71 487.827
365 0 56.2052 13.2728 746 102.079 1258.37 486.517
366 0 57.1356 13.1967 754 103.17 1258.45 484.381
367 0 58.2657 12.4602 726 104.339 1259.23 486.647
368 0 61.1095 14.024 857 101.751 1259.34 483.827
369 0 63.067 14.0327 885 101.654 1258.78 482.698
370 0 64.0581 14.0029 897 103.718 1258.72 481.014
371 0 67.1174 14.2884 959 102.246 1259.57 482.018
372 0 70.1012 15.606 1094 98.9031 1259.28 479.869
373 0 73.1167 13.8546 1013 103.156 1258.64 479.438
374 0 74.0537 15.3267 1135 101.219 1258.42 476.597
375 0 77.1254 14.2884 1102 104.214 1258.6 476.799
376 0 77.2285 14.0233 1083 106.478 1258.5 475.901
377 0 81.2025 13.8789 1127 106.539 1259.08 474.95
378 0 86.1576 16.4002 1413 100.426 1258.46 472.406
379 0 88.2042 14.1036 1244 106.289 1258.22 469.642
380 0 91.2087 13.639 1244 107.936 1258.77 465.9
381 0 95.306 15.6863 1495 102.367 1258.6 465.381
382 1 52.1086 11.3033 589 111.767 1258.71 487.175
383 0 55.0255 12.7032 699 108.305 1258.19 486.973
384 0 56.0584 12.2551 687 109.722 1258.24 487.192
385 0 56.1095 12.03 675 112.067 1257.96 484.705
386 0 59.0279 13.824 816 108.384 1258.2 485.036
387 0 59.0372 11.298 667 114.016 1258.44 483.721
388 0 63.0142 11.5371 727 112.315 1258.69 484.246
389 0 65.041 12.6382 822 110.899 1258.11 480.928
390 0 67.1359 11.9608 803 113.812 1257.94 478.973
391 0 70.1291 14.2594 1000 108.421 1258.69 478.38
392 0 74.1515 14.5513 1079 108.503 1259.53 478.078
393 0 76.1233 13.4913 1027 111.687 1259.12 476.694
394 0 78.1158 13.9408 1089 110.919 1259.6 475.089
395 0 81.1401 13.8279 1122 111.436 1258.92 474.276
396 0 82.0577 13.1005 1075 109.739 1258.54 475.662
397 0 86.1412 14.3137 1233 107.478 1258.66 472.496
398 0 89.0639 13.5521 1207 109.466 1259.35 471.729
399 0 93.1276 14.507 1351 106.456 1258.7 469.889
400 0 94.1882 11.8698 1118 113.547 1258.96 465.905
401 0 98.1378 12.7372 1250 110.542 1258.25 467.583
