time division length width area intensity CMx CMy
0 0 47.0549 16.1513 760 109.413 1339.32 471.233
1 0 46.0457 15.8973 732 112.067 1339.85 470.06
2 0 46.0749 15.8221 729 95.3964 1340.64 468.83
3 0 48.0288 15.3866 739 97.0568 1341.16 468.541
4 0 48.0868 14.8066 712 98.6166 1341.12 466.795
5 0 50.0492 14.1461 708 99.8065 1341.37 467.893
6 0 49.0401 15.6403 767 107.173 1341.49 465.99
7 0 50.0401 14.5483 728 103.261 1340.99 466.262
8 0 54.0291 15.8063 854 99.9356 1340.7 466.882
9 0 52.0893 15.1279 788 110.806 1340.75 464.769
10 0 55.1978 15.4535 853 102.522 1340.21 466.117
11 0 56.0798 15.371 862 111.248 1341.21 467.102
12 0 57.0562 15.4584 882 108.752 1340.33 467.015
13 0 63.0436 18.0827 1140 94.0088 1340.27 463.659
14 0 62.0235 17.1387 1063 102.295 1339.79 465.205
15 0 64.035 16.0381 1027 106.235 1339.7 465.279
16 0 66.0237 15.6762 1035 106.755 1339.26 467.234
17 0 69.0505 17.0165 1175 110.586 1339.68 462.326
18 0 70.0416 16.0904 1127 113.91 1339.88 461.729
19 0 72.0726 15.7064 1132 114.36 1339.94 460.822
20 0 75.0634 16.0664 1206 108.021 1338.55 460.126
21 0 80.0503 15.84 1268 101.602 1338.21 458.114
22 1 44.053 11.5316 508 108.093 1338.65 479.018
23 0 45.065 12.604 568 106.449 1338.77 479.359
24 0 46.097 12.8859 594 111.564 1338.03 477.864
25 0 47.0662 13.9803 658 109.489 1338.2 477.381
26 0 48.0523 13.9431 670 110.734 1338.32 477.372
27 0 50.0161 13.6556 683 110.534 1338 473.205
28 0 51.0154 12.6628 646 114.805 1337.41 473.488
29 0 52.0371 12.4527 648 116.409 1337.51 471.951
30 0 54.059 14.2622 771 110.178 1337.54 472.864
31 0 56.079 14.2656 800 119.672 1336.95 473.034
32 0 59.0853 15.5199 917 115.661 1336.55 471.513
33 0 60.1353 14.9164 897 117.012 1336.92 471.177
34 0 59.1316 14.121 835 114.303 1336.67 472.847
35 0 63.062 13.9545 880 113.118 1337.14 470.728
36 0 64.0585 14.5804 934 111.151 1337.77 471.006
37 0 68.0314 15.1695 1032 110.276 1337.68 468.968
38 0 70.0585 14.8876 1043 116.389 1337.24 466.951
39 0 70.0693 14.5285 1018 119.089 1336.92 465.545
40 0 75.0804 14.8108 1112 117.594 1336.7 464.148
41 0 78.1068 15.7093 1227 113.402 1337.2 462.426
42 0 79.0769 15.9212 1259 114.604 1336.83 461.168
43 0 84.0629 18.3077 1539 106.076 1337.83 457.251
44 0 85.1412 15.7033 1337 114.173 1337.31 460.174
45 0 86.0835 13.8586 1193 119.643 1336.9 459.617
46 0 89.0518 14.8453 1322 117.679 1336.87 458.152
47 0 94.2265 14.1892 1337 117.4 1336.8 456.74
48 0 95.0622 14.8008 1407 117.43 1337.19 455.011
49 0 98.1736 14.3623 1410 119.026 1336.42 451.977
50 0 103.106 15.4793 1596 115.382 1336.36 452.292
51 0 108.081 15.1461 1637 114.45 1336.55 448.74
52 0 111.135 15.2068 1690 113.604 1336.45 447.165
53 1 56.0584 12.9151 724 112.409 1336.35 474.285
54 0 60.0432 13.1905 792 111.182 1336.23 473.846
55 0 62.03 13.6386 846 110.028 1336.12 472.492
56 0 63.1277 14.4786 914 110.156 1336.59 469.729
57 0 65.0888 13.9655 909 114.436 1335.68 469.73
58 0 69.0596 13.5535 936 115.088 1336 469.116
59 0 72.1466 14.4983 1046 112.484 1336.72 466.57
60 0 73.104 13.4876 986 116.074 1335.85 467.093
61 0 76.1057 14.1776 1079 114.357 1335.65 464.824
62 0 80.0739 14.087 1128 114.412 1335.61 462.672
63 0 83.0933 14.4175 1198 113.696 1335.01 463.134
64 0 85.0778 14.2458 1212 114.034 1336.04 460.645
65 0 86.1034 13.7509 1184 115.197 1335.65 459.835
66 0 88.0647 14.0919 1241 114.619 1334.99 459.143
67 0 94.0787 13.8501 1303 113.714 1335.22 457.874
68 0 94.0254 12.9752 1220 117.134 1335.58 453.779
69 0 98.1066 14.4231 1415 113.009 1334.9 453.439
70 0 103.164 14.6078 1507 111.774 1335.53 447.411
71 1 53.0812 10.3992 552 112.438 1334.57 475.674
72 0 56.1687 12.2488 688 108.446 1334.31 475.124
73 0 58.1097 11.6504 677 109.641 1335.48 473.988
74 0 59.0224 13.0628 771 103.412 1335.86 473.501
75 0 60.0486 12.2234 734 104.963 1334.71 474.571
76 0 63.0549 13.8451 873 102.389 1335.28 471.867
77 0 67.0643 12.7042 852 103.427 1335.12 472.417
78 0 69.035 13.906 960 101.707 1335.04 470.065
79 0 69.0769 13.0145 899 105.142 1334.93 468.695
80 0 72.0962 13.371 964 103.852 1335.63 467.659
81 0 75.124 13.0717 982 111.246 1335.45 467.037
82 0 77.1062 13.7213 1058 110.29 1335.83 464.796
83 0 81.1332 13.6072 1104 110.549 1335.35 463.528
84 0 85.0466 14.1452 1203 110.131 1335.48 462.831
85 0 86.0841 13.8934 1196 111.037 1335.3 461.378
86 0 89.0747 14.6282 1303 110.087 1335.01 459.275
87 0 91.0561 13.1677 1199 113.654 1335.81 460.524
88 0 95.1017 14.5949 1388 110.98 1335.11 457.376
89 0 99.1011 14.2884 1416 111.96 1334.7 455.09
90 0 101.063 13.2689 1341 115.369 1334.44 454.157
91 0 103.094 13.4926 1391 115.731 1334.8 451.275
92 1 57.0467 11.2715 643 109.949 1334.72 476.796
93 0 60.0687 11.8531 712 110.169 1335.26 475.823
94 0 62.0994 12.2384 760 107.832 1335.51 475.734
95 0 61.0248 12.5031 763 105.769 1334.77 474.768
96 0 65.0645 12.0188 782 106.492 1335 473.965
97 0 66.0536 12.4747 824 105.749 1335.25 472.833
98 0 70.0901 12.327 864 106.175 1334.44 470.977
99 0 73.0735 12.3985 906 105.696 1334.91 468.98
100 0 76.0202 14.1673 1077 101.582 1335.06 467.104
101 0 78.0491 11.5312 900 107.666 1334.4 465.732
102 0 80.1043 11.1105 890 108.598 1334.89 464.733
103 0 84.1153 13.1248 1104 104.435 1335.11 464.382
104 0 86.0734 13.1864 1135 104.967 1334.61 461.766
105 0 90.1327 12.5593 1132 106.246 1334.75 460.527
106 0 91.1101 12.2818 1119 108.422 1334.28 458.037
107 1 47.1182 10.654 502 107.986 1335.04 479.261
108 0 47.043 10.3522 487 109.047 1335.29 479.318
109 0 51.1204 12.0695 617 103.199 1334.83 479.207
110 0 54.0803 13.0547 706 99.9008 1334.45 478.671
111 0 53.0205 10.2036 541 106.743 1334.44 480.542
112 0 53.0949 11.9974 637 103.703 1334.93 479
113 0 56.0938 11.5343 647 105.909 1334.64 476.134
114 0 58.1231 12.7316 740 102.727 1333.82 475.416
115 0 60.0473 12.0905 726 102.583 1334.32 476.515
116 0 62.1739 12.0951 752 104.743 1333.82 472.582
117 0 65.1258 12.1457 791 103.25 1334.24 473.206
118 0 66.1495 11.6554 771 104.51 1334.08 470.486
119 0 72.1233 13.0887 944 101.524 1334.63 470.257
120 0 73.1512 12.1939 892 105.202 1334.65 463.989
121 0 76.1974 12.4414 948 105.852 1333.78 462.676
122 0 77.1679 12.7773 986 104.733 1333.82 465.377
123 0 83.1027 14.2835 1187 99.9671 1334.44 465.1
124 0 84.1421 12.2887 1034 110.864 1333.95 460.408
125 0 88.1654 12.2951 1084 109.923 1334.82 459.84
126 1 46.0861 11.8474 546 105.698 1333.59 480.824
127 0 45.0121 11.1748 503 108.298 1333.21 481.742
128 0 48.0195 12.37 594 103.141 1333.72 481.057
129 0 51.0831 13.1355 671 100.076 1333.68 480.486
130 0 50.0441 11.39 570 105.168 1333.82 480.077
131 0 51.0655 11.3384 579 106.651 1333.87 478.461
132 0 53.0257 10.957 581 107.126 1333.67 477.94
133 0 53.0957 11.2627 598 106.092 1334.06 475.237
134 0 57.0501 12.3576 705 102.333 1333.78 475.657
135 0 58.0896 11.62 675 103.877 1333.56 474.496
136 0 62.0507 12.7638 792 103.725 1332.92 472.415
137 0 64.1439 10.9286 701 106.649 1333.27 473.131
138 0 68.1855 11.7914 804 103.953 1332.87 472.081
139 0 68.1496 11.7095 798 104.624 1332.33 472.818
140 0 71.0645 11.37 808 106.157 1333.58 470.722
141 0 71.1461 10.8228 770 107.736 1333.71 468.762
142 0 76.16 11.3183 862 106.879 1333.3 468.392
143 1 42.0477 11.7248 493 100.217 1333.31 483.71
144 0 43.042 10.4317 449 102.586 1334.77 483.381
145 0 45.0414 12.655 570 98.4982 1335.35 482.867
146 0 44.1604 11.2544 497 100.958 1333.45 483.479
147 0 44.0834 11.0472 487 102.444 1332.64 483.534
148 0 46.0791 11.6756 538 99.2045 1333.38 483.928
149 0 48.0302 12.2839 590 98.022 1332.94 482.102
150 0 48.0145 11.3091 543 102.184 1333.1 479.838
151 0 50.0839 10.8817 545 100.734 1333.66 481.743
152 0 52.1196 10.898 568 101.53 1333.32 479.164
153 0 52.1122 11.6863 609 101.772 1333.79 476.97
154 0 54.075 10.8923 589 101.136 1332.58 478.448
155 0 56.1548 10.5245 591 102.558 1332.45 477.565
156 0 56.0428 11.4555 642 101.033 1332.92 475.766
157 0 57.1378 11.516 658 101.16 1332.67 474.486
158 0 61.1256 11.0756 677 100.626 1333.37 473.1
159 0 61.1256 11.1574 682 148.77 1334.4 473.147
160 0 66.1864 12.2835 813 96.2288 1333.46 470.79
161 0 68.1649 10.944 746 98.9839 1334.56 469.158
162 0 69.1616 12.3045 851 95.02 1333.84 469.154
163 0 72.1784 11.0282 796 96.6068 1333.97 468.761
164 0 77.1496 11.8601 915 94.5257 1334.47 466.828
165 0 81.0529 12.0909 980 93.3112 1334.39 464.486
166 0 84.1043 13.5546 1140 90.5737 1333.8 462.134
167 0 86.0836 11.7212 1009 94.5005 1334.36 460.711
168 0 89.0547 10.9708 977 97.261 1334.27 458.796
169 0 93.1727 12.289 1145 98.6611 1333.63 458.388
170 1 49.0281 11.5648 567 97.0811 1333.15 478.827
171 0 52.0862 11.9801 624 94.9247 1333.21 477.271
172 0 51.0403 12.0885 617 96.9481 1333.15 475.637
173 0 56.03 13.3857 750 92.3293 1333.7 475.564
174 0 58.0237 12.5638 729 94.1001 1332.7 475.723
175 0 59.0571 14.5791 861 91.9222 1332.97 473.388
176 0 60.1516 13.9481 839 93.6973 1332.81 473.077
177 0 61.0896 12.2116 746 98.0912 1332.62 473.429
178 0 61.2091 11.5832 709 100.63 1332.97 470.566
179 0 64.1224 12.4917 801 98.0075 1333.64 472.483
180 0 67.2826 15.6801 1055 67.3554 1333.43 469.289
181 0 67.0743 12.3445 828 99.6981 1333.22 467.55
182 0 70.1809 13.6077 955 96.8063 1333.24 466.447
183 0 72.1207 13.5051 974 97.4138 1333.12 465.563
184 0 75.1112 13.4867 1013 96.2962 1333.04 465.192
185 1 41.0256 10.5788 434 94.7005 1332.55 482.816
186 0 40.0044 11.1238 445 95.5371 1333.17 481.829
187 0 43.1021 12.0876 521 93.3321 1334.85 481.72
188 0 43.1017 12.4589 537 89.0614 1333.76 483.769
189 0 45.0626 13.6699 616 87.4545 1333.36 481.753
190 0 42.0507 10.5111 442 94.7511 1333.22 483.785
191 0 45.0674 10.6507 480 93.9417 1333.58 483.565
192 0 45.0198 10.9507 493 95.2515 1333.3 481.515
193 0 48.0634 12.5875 605 92.3488 1333.98 479.762
194 0 49.0254 11.7082 574 93.6272 1333.9 480.636
195 0 52.0316 12.3387 642 92.0545 1334.44 479.581
196 0 51.0259 11.7195 598 95.0468 1333.9 480.042
197 0 54.0521 12.1364 656 93.8415 1334.3 477.346
198 0 54.0794 11.5571 625 96.4672 1333.75 475.15
199 0 57.0938 11.9453 682 94.1716 1334.52 476.871
200 0 57.0588 11.9876 684 96.193 1334.14 473.111
201 0 61.0708 11.7896 720 95.0264 1333.97 473.41
202 0 62.099 11.9487 742 96.0121 1333.5 471.577
203 0 63.0506 12.0855 762 96.3648 1334.18 469.281
204 0 68.0724 13.7794 938 90.8582 1333.84 470.67
205 0 69.1486 13.5939 940 91.6032 1333.96 469.161
206 0 71.1753 12.3076 876 93.5457 1333.95 468.037
207 0 73.1032 12.4208 908 95.0903 1334.16 467.357
208 0 79.1337 11.4995 910 95.6066 1333.96 463.327
209 0 80.1992 11.2096 899 95.6908 1334.46 461.973
210 0 83.1249 11.585 963 95.8328 1334.19 462.18
211 1 43.0246 11.3888 490 89.4816 1333.97 483.092
212 0 44.1024 12.5163 552 87.1649 1332.89 481.545
213 0 43.0102 11.6252 500 87.948 1333.76 480.968
214 0 46.0079 11.8893 547 87.1079 1334.2 479.598
215 0 44.0778 9.64203 425 92.5153 1333.2 478.779
216 0 48.104 12.2859 591 86.2267 1334.39 478.115
217 0 50.089 11.1202 557 88.0359 1334.26 477.616
218 0 50.1022 11.0774 555 89.1117 1333.94 477.793
219 0 53.016 11.3551 602 88.1777 1333.34 478.44
220 0 52.0311 10.3208 537 90.406 1333.23 477.466
221 0 53.0625 10.8174 574 90.9286 1334.25 475.901
222 0 55.0283 11.9393 657 89.5677 1333.44 473.755
223 0 57.078 12.4742 712 87.5154 1333.3 475.149
224 0 59.0483 11.3466 670 89.8284 1333.48 473.382
225 0 62.0609 11.4243 709 90.4499 1333.28 471.763
226 0 63.0514 11.7682 742 89.2736 1334.09 472.061
227 0 65.1013 13.5174 880 87.7102 1334.13 471.043
228 0 64.0374 10.6344 681 94.7636 1333.76 466.043
229 0 68.0943 10.6323 724 94.6022 1333.78 465.291
230 0 72.1641 11.4046 823 92.9405 1334 467.589
231 0 74.0284 11.5361 854 93.4309 1333.78 466.398
232 0 75.0598 12.963 973 92.2939 1333.83 463.077
233 0 79.1465 12.2558 970 93.2959 1333.98 464.033
234 0 82.1997 11.3139 930 95.0785 1334.05 461.277
235 0 85.0452 12.0407 1024 93.6201 1334.5 460.726
236 1 49.047 11.0302 541 88.8651 1334.81 478.93
237 0 48.0596 11.1112 534 87.3521 1335.91 478.341
238 0 48.0226 10.4742 503 88.67 1333.65 479.746
239 0 48.0241 10.8279 520 88.8673 1334.77 477.4
240 0 51.018 10.1925 520 89.5154 1333.95 478.231
241 0 52.069 9.94834 518 92.3378 1333.22 474.903
242 0 55.04 10.7377 591 90.4213 1332.91 475.939
243 0 54.069 8.43367 456 95.0855 1332.82 476.167
244 0 57.021 12.0307 686 88.535 1333.83 474.899
245 0 58.0678 11.5555 671 90.8018 1333.72 473.024
246 0 62.0354 11.5418 716 89.8813 1333.74 474.441
247 0 62.0375 11.0901 688 91.6512 1333.88 473.321
248 0 64.1471 11.4269 733 91.5239 1334.76 470.858
249 0 64.1678 10.1141 649 95.4561 1334.89 469.074
250 0 69.1838 12.1849 843 90.9336 1335.44 469.419
251 0 71.257 11.648 830 92.0964 1335.55 467.539
252 0 74.1367 11.6272 862 92.4466 1335.35 467.681
253 0 77.1378 11.6934 902 93.4756 1334.87 465.52
254 0 77.1378 11.7323 905 150.039 1333.85 465.533
255 1 45.0274 12.5035 563 90.071 1335.51 482.343
256 0 44.0181 11.9269 525 91.1257 1334.87 480.343
257 0 46.0923 10.9563 505 92.3545 1333.78 481.905
258 0 47.0612 12.2181 575 90.7913 1334.88 478.29
259 0 50.0157 12.576 629 91.4356 1333.66 479.572
260 0 50.0295 12.4527 623 92.6372 1333.9 478.628
261 0 51.0561 11.5363 589 94.9321 1333.92 479.012
262 0 54.0265 12.4198 671 92.3711 1333.65 478.811
263 0 54.034 11.4002 616 96.5893 1333.56 477.88
264 0 57.03 13.0633 745 92.4859 1333.54 476.318
265 0 58.029 13.4243 779 92.4737 1333.93 476.416
266 0 59.0751 12.8819 761 94.1721 1334.09 475.288
267 0 62.0694 13.5494 841 92.5149 1335.21 473.466
268 0 63.0756 12.6515 798 94.3083 1334.96 474.772
269 0 65.124 14.5415 947 90.4192 1334.71 473.318
270 0 66.0822 12.3483 816 96.3321 1334.79 469.625
271 0 66.0846 11.8787 785 99.256 1334.83 470.45
272 0 69.0895 11.9845 828 99.2826 1335.56 470.105
273 0 71.0699 11.946 849 100.24 1335 468.039
274 0 75.0264 12.8488 964 98.166 1334.54 466.589
275 0 76.0612 12.135 923 100.932 1334.95 464.952
276 0 79.0589 11.776 931 102.574 1335 464.256
277 0 82.1264 12.4442 1022 100.783 1334.63 464.158
278 1 44.0126 11.0196 485 99.5072 1334.85 481.208
279 0 43.0047 10.836 466 95.794 1335.06 483.588
280 0 44.0756 11.9794 528 94.4943 1333.48 480.991
281 0 47.0416 11.9044 560 94.5375 1333.75 481.152
282 0 47.0283 11.6526 548 95.146 1333.3 480.352
283 0 48.0347 12.1579 584 94.4794 1334.33 480.118
284 0 51.0392 12.99 663 92.6772 1333.2 478.374
285 0 51.0239 12.1904 622 94.5032 1333.16 479.526
286 0 52.0333 13.6067 708 92.702 1333.57 477.603
287 0 53.0791 12.6604 672 94.5744 1333.65 476.354
288 0 56.0992 12.1392 681 95.6358 1332.83 475.523
289 0 57.0552 11.3574 648 97.5278 1332.5 474.608
290 0 58.0262 11.6327 675 96.6267 1333.49 474.684
291 0 59.0865 12.3886 732 94.6721 1333.51 472.656
292 0 62.0946 14.0109 870 91.1161 1332.88 472.259
293 0 63.0927 12.6956 801 93.8539 1333.07 472.024
294 0 63.0326 10.7246 676 97.6879 1332.38 474.604
295 0 67.1244 12.678 851 93.5582 1332.42 472.375
296 0 70.0765 12.6719 888 94.2252 1333.28 469.838
297 0 69.0994 11.3604 785 96.7465 1333.37 469.813
298 0 73.114 11.7077 856 96.2126 1334.03 466.637
299 0 73.1144 9.7792 715 99.6084 1333.7 468.778
300 0 78.0738 11.4379 893 96.2049 1333.55 467.366
301 0 83.0554 11.8355 983 95.6714 1333.08 463.126
302 0 82.0654 11.2837 926 96.4557 1333.85 462.879
303 0 86.0801 10.711 922 96.6952 1333.98 461.148
304 0 89.1021 11.1445 993 96.0796 1334.11 459.015
305 1 45.0315 9.61549 433 95.2425 1334.82 481.979
306 0 45.0507 10.2329 461 98.2668 1335.22 479.39
307 0 51.0178 12.4466 635 93.7402 1334.41 476.869
308 0 49.0083 11.6307 570 94.4281 1333.31 478.632
309 0 51.1081 11.192 572 93.5699 1333 477.928
310 0 51.0355 11.4234 583 93.8679 1333.37 478.581
311 0 53.0298 9.57952 508 96.937 1333.55 477.49
312 0 55.0639 12.8578 708 91.8234 1334.11 473.319
313 0 58.0577 10.369 602 94.8056 1334.05 475.553
314 0 59.1742 11.9478 707 93.4639 1333.61 473.233
315 0 60.1278 12.0244 723 94.3278 1333.62 472.946
316 0 63.0481 11.8322 746 94.8311 1334.26 471.991
317 0 67.024 10.8916 730 92.4603 1333.92 471.585
318 0 69.1349 12.7287 880 89.3284 1334.21 468.925
319 0 72.1037 12.6068 909 90.1012 1334.39 465.474
320 0 75.087 12.1725 914 90.3107 1334.69 465.845
321 0 77.1054 11.6594 899 91.4394 1334.81 463.403
322 0 78.1165 10.3435 808 95.4493 1334.37 462.099
323 0 83.0695 11.1232 924 94.0303 1334.13 457.908
324 0 88.2381 11.6956 1032 93.5281 1334.08 459.518
325 1 44.0236 10.8805 479 95.1065 1334.94 480.336
326 0 44.0262 11.1297 490 95.351 1334.61 476.965
327 0 47.037 11.289 531 93.7608 1334.5 477.533
328 0 48.0553 10.1133 486 92.6584 1334.2 480.412
329 0 48.0562 10.238 492 93.6118 1334.41 479.1
330 0 48.0206 11.7866 566 92.0548 1334.47 478.295
331 0 50.0372 11.7912 590 92.2085 1334.16 479.171
332 0 52.0848 11.3469 591 93.3435 1333.95 475.477
333 0 54.0258 10.6801 577 95.9289 1333.35 476.166
334 0 55.0745 11.6751 643 94.7247 1334.07 476.275
335 0 55.062 11.1874 616 96.9286 1332.98 472.992
336 0 58.034 12.4927 725 94.2814 1334.04 472.828
337 0 62.1056 11.8669 737 94.6947 1333.44 471.197
338 0 63.0817 11.4138 720 95.5958 1333.01 472.147
339 0 67.035 12.1877 817 93.4125 1333.62 471.13
340 0 70.1708 13.6666 959 89.5881 1334.17 470.921
341 0 71.0521 12.8779 915 92.6896 1333.96 468.294
342 0 75.0736 12.6276 948 91.7943 1334.49 465.815
343 0 78.1299 12.5816 983 92.002 1334.27 464.4
344 0 80.1886 11.4854 921 94.4093 1334.05 464.877
345 0 82.0537 12.9915 1066 91.4897 1335.02 461.968
346 0 85.0587 12.2974 1046 93.282 1334.39 462.225
347 0 86.1001 12.0906 1041 93.4275 1334.74 461.526
348 0 89.1638 11.305 1008 92.7976 1335.12 462.34
349 0 92.0889 11.0437 1017 94.0767 1335.48 457.672
350 1 48.0317 8.9316 429 93.0956 1335.87 479.604
351 0 47.0495 10.3933 489 94.636 1335.06 475.002
352 0 52.0267 11.4364 595 90.474 1336.94 473.672
353 0 56.0783 10.9311 613 90.7586 1336.74 476.336
354 0 57.0401 10.2209 583 93.2453 1336.02 474.969
355 0 58.0259 11.3742 660 91.95 1335.59 473.315
356 0 61.0236 11.8151 721 90.8155 1335.53 473.906
357 0 58.0472 11.9386 693 92.0029 1335.38 470.797
358 0 61.0418 10.5338 643 94.2535 1335.78 470.726
359 0 63.0918 11.4278 721 93.197 1335.46 467.767
360 0 65.0918 12.3211 802 91.187 1335.76 467.626
361 0 66.0777 11.7891 779 92.3723 1335.31 467.67
362 0 66.0567 10.1125 668 94.9087 1335.62 467.59
363 0 71.0218 12.292 873 90.5475 1335.29 469.781
364 0 73.0642 12.2495 895 91.6659 1335.59 463.155
365 0 74.041 12.3445 914 92.0908 1334.75 463.653
366 0 77.0139 11.0499 851 94.5934 1335.32 461.027
367 0 80.076 12.3757 991 91.2412 1335.15 458.77
368 0 82.2773 12.0203 989 93.7927 1334.45 459.248
369 0 87.0868 12.5162 1090 92.5752 1333.78 459.081
370 0 90.1336 11.8269 1066 93.8799 1334.22 458.97
371 0 93.1351 11.6712 1087 95.1095 1333.94 457.262
372 1 47.0408 10.2677 483 94.6335 1333.62 477.288
373 0 45.0359 9.8366 443 95.7291 1335.41 474.912
374 0 50.0238 11.6545 583 90.1835 1334.4 476.148
375 0 52.0282 10.4751 545 90.2734 1334.7 476.112
376 0 52.0403 10.9915 572 89.5262 1334.41 475.941
377 0 53.019 11.147 591 89.225 1335.86 475.448
378 0 55.0223 10.8138 595 90.5277 1335.87 475.363
379 0 57.0506 11.148 636 90.3318 1335.51 474.671
380 0 60.0171 12.2298 734 88.3597 1334.96 472.259
381 0 62.0853 12.5956 782 87.6432 1335.11 472.128
382 0 65.0517 12.7591 830 88.3566 1334.84 471.106
383 0 68.0392 12.287 836 90.2022 1334.99 470.536
384 0 69.0593 11.5118 795 92.9069 1334.6 468.654
385 0 71.1201 12.5281 891 91.4422 1335.75 466.35
386 0 74.1519 13.4319 996 90.24 1335.5 465.806
387 0 79.1062 13.4882 1067 89.835 1335.86 467.027
388 0 82.0817 13.0723 1073 92.8984 1335.93 465.364
389 0 85.1336 13.6374 1161 93.1404 1335.6 463.722
390 1 42.0208 10.2092 429 97.1375 1335.31 484.252
391 0 43.0623 11.913 513 95.46 1336.55 481.02
392 0 43.0398 10.316 444 96.3153 1335.61 479.527
393 0 45.0202 11.9502 538 91.1561 1334.42 484.022
394 0 46.1303 11.7277 541 93.7357 1333.46 482.168
395 0 45.0207 10.7284 483 95.648 1333.77 482.679
396 0 48.0368 10.9707 527 94.4706 1333.97 483.271
397 0 51.0166 11.8785 606 93.6056 1333.99 480.903
398 0 51.0401 10.0313 512 97.5566 1334.16 479.041
399 0 53.031 11.2576 597 94.6734 1335.88 478.913
400 0 56.064 12.2895 689 92.807 1335.98 478.225
401 0 55.0284 10.5945 583 97.5043 1335.34 478.1
402 0 57.0812 12.491 713 94.2202 1335.47 476.6
403 0 59.0322 11.4006 673 95.5468 1335.22 478.192
404 0 59.0813 11.7296 693 96.316 1334.66 477.078
