time division length width area intensity CMx CMy
0 0 31.0071 12.2875 381 153.205 1263.27 486.48
1 0 31.0057 12.0623 374 155.112 1263.55 486.23
2 0 33.0084 11.2699 372 156.753 1264.38 485.747
3 0 35.0257 11.7057 410 151.485 1264.29 486.173
4 0 35.0221 11.3928 399 154.123 1263.36 485.459
5 0 35.0252 11.4204 400 163.922 1262.35 485.378
6 0 38.0409 12.2763 467 147.418 1263.79 485.55
7 0 37.043 11.4732 425 151.496 1264.14 486.064
8 0 40.0299 12.9903 520 144.663 1263.96 485.177
9 0 39.0103 11.4841 448 152.373 1263.95 484.768
10 0 40.022 12.718 509 146.344 1262.93 484.912
11 0 41.0296 12.5519 515 148.35 1264.03 483.783
12 0 42.0078 12.8547 540 147.552 1263.05 483.393
13 0 43.0198 12.2734 528 148.691 1262.76 483.127
14 0 45.0306 12.3028 554 147.408 1262.49 484.191
15 0 46.011 13.1708 606 144.016 1262.87 483.264
16 0 46.0238 13.0584 601 145.05 1262.3 482.706
17 0 48.0621 12.8584 618 143.448 1262.54 482.586
18 0 49.0151 12.7308 624 144.279 1262 482.521
19 0 51.029 13.3258 680 140.35 1262.37 481.694
20 0 53.0144 13.6944 726 136.397 1261.65 480.828
21 0 54.063 13.0403 705 138.191 1261.73 481.311
22 0 53.0213 13.2588 703 139.245 1261.5 480.846
23 0 58.0849 13.1704 765 135.458 1261.66 481.273
24 0 59.0205 13.741 811 132.952 1260.65 479.763
25 0 62.0698 13.7104 851 132.555 1260.5 478.128
26 0 64.0277 12.4634 798 135.845 1261.1 478.707
27 0 64.1076 12.8066 821 135.132 1261.43 477.42
28 0 68.0416 12.6981 864 134.631 1260.47 475.132
29 0 73.1438 13.7811 1008 129.024 1260.81 475.24
30 1 36.0752 10.783 389 136.183 1260.31 492.72
31 0 37.0187 12.7503 472 132.352 1260.1 490.5
32 0 41.0513 13.9338 572 129.267 1259.74 488.976
33 0 41.0361 13.086 537 134.788 1260.83 488.873
34 0 40.022 12.2932 492 130.36 1259.6 489.386
35 0 42.1105 12.396 522 129.657 1260.27 489.09
36 0 44.0305 12.0598 531 128.834 1259.86 488.377
37 0 46.0167 13.0387 600 125.627 1259.87 487.412
38 0 47.0183 13.08 615 127.203 1259.4 486.553
39 0 49.0414 12.52 614 127.824 1260.05 486.508
40 0 49.0572 12.0675 592 129.698 1259.55 486.191
41 0 51.0306 13.5409 691 125.365 1259.07 484.81
42 0 52.0146 13.6885 712 125.917 1259.12 484.277
43 0 55.064 12.7307 701 126.397 1259.85 484.472
44 0 58.0349 12.458 723 125.939 1259.86 483.358
45 0 58.0278 12.4423 722 128.079 1259.37 481.335
46 0 59.0822 12.7957 756 127.217 1259.4 480.745
47 0 64.1108 13.3051 853 124.134 1259.81 479.884
48 0 66.0727 14.3327 947 122.285 1259.42 478.782
49 0 66.045 12.5975 832 127.109 1258.44 476.814
50 0 70.0389 12.6073 883 125.968 1258.55 477.131
51 0 73.0363 12.1994 891 125.982 1259.27 475.559
52 0 75.073 13.0673 981 123.267 1258.65 472.361
53 0 79.0289 13.1091 1036 120.578 1259.34 471.782
54 0 82.0456 12.5296 1028 121.462 1258.98 471.319
55 1 41.0091 11.6559 478 121.067 1258.87 489.5
56 0 43.0096 11.8113 508 120.173 1258.93 489.197
57 0 45.015 12.9068 581 115.812 1257.46 488.17
58 0 43.0274 11.086 477 122.015 1258.47 488.247
59 0 46.0235 11.5376 531 119.339 1259.27 487.91
60 0 47.0428 11.5639 544 118.463 1259.08 486.164
61 0 49.0114 11.4871 563 116.705 1259.28 487.496
62 0 51.0452 12.4987 638 115.539 1258.63 484.721
63 0 54.0343 11.3632 614 117.114 1258.01 484.878
64 0 53.024 12.9753 688 113.821 1258.61 484.454
65 0 56.0459 11.3835 638 119.516 1258.91 484.024
66 0 57.1324 12.1997 697 117.03 1258.19 483.803
67 0 59.0231 11.8936 702 118.252 1258.43 481.027
68 0 63.1167 13.1344 829 113.788 1258.44 479.368
69 0 64.0345 13.3834 857 114.478 1257.73 477.252
70 0 67.0896 12.6398 848 115.738 1258.03 477.281
71 0 70.0572 12.5326 878 115.753 1258.34 475.449
72 0 72.1026 13.1341 947 115.806 1257.3 472.896
73 0 76.0761 11.9748 911 117.906 1258.21 474.144
74 0 79.1054 12.3885 980 118.341 1258.59 472.312
75 0 82.1121 12.3855 1017 115.923 1258.05 470.187
76 0 84.1224 12.3273 1037 115.277 1257.94 467.839
77 1 46.1296 9.25652 427 109.283 1258.28 485.049
78 0 45.1054 10.2205 461 109.694 1258.12 482.664
79 0 51.1844 12.0544 617 110.707 1258.35 485.321
80 0 51.056 11.4776 586 109.258 1258.66 485.952
81 0 50.0109 11.3175 566 110.39 1258.39 485.555
82 0 53.1083 11.919 633 110.894 1259.66 484.055
83 0 53.0493 12.5355 665 110.955 1259.17 483.636
84 0 58.0509 13.2125 767 107.33 1259.69 484.952
85 0 60.0996 12.9618 779 108.662 1259.37 483.014
86 0 62.0435 13.3294 827 107.724 1258.54 482.042
87 0 63.0943 13.7889 870 107.661 1258.76 480.234
88 0 65.0728 13.1238 854 109.139 1258.28 480.679
89 0 68.0426 12.9625 882 109.514 1258.05 476.954
90 0 71.0647 13.8888 987 107.274 1258.26 477.835
91 0 74.1292 13.8542 1027 107.964 1258.46 477.529
92 0 76.1007 14.4677 1101 106.894 1257.39 475.945
93 0 77.1998 13.8083 1066 109.718 1257.89 472.92
94 0 80.132 13.4528 1078 110.864 1257.88 473.3
95 0 83.075 14.4809 1203 109.277 1257.52 468.505
96 0 87.0741 14.0685 1225 109.975 1257 468.242
97 0 90.1464 15.1531 1366 107.862 1257.39 467.688
98 0 93.0657 15.6771 1459 106.807 1256.85 463.378
99 0 95.099 13.7961 1312 112.12 1257.55 462.646
100 0 99.1274 15.3338 1520 108.666 1256.71 462.662
101 0 100.089 14.1675 1418 110.877 1257.12 459.606
102 0 106.231 14.4025 1530 110.227 1257.44 457.884
103 0 107.221 13.5794 1456 111.858 1257.45 454.536
104 1 55.0542 11.1163 612 112.142 1257.75 483.301
105 0 57.0973 11.927 681 110.869 1257.82 482.815
106 0 60.0698 11.8529 712 102.902 1256.68 485.449
107 0 62.0223 12.1085 751 102.875 1256.81 483.855
108 0 62.0509 11.4261 709 105.601 1256.84 482.495
109 0 67.0517 12.4978 838 101.928 1256.26 483.458
110 0 67.086 12.5212 840 103.643 1256.14 479.456
111 0 71.0367 14.0632 999 99.7417 1256.87 479.102
112 0 72.0706 12.9873 936 110.338 1256.8 478.403
113 0 76.0843 11.6055 883 113.422 1256.71 477.788
114 0 78.0465 13.2485 1034 109.78 1256.65 475.078
115 0 82.0969 12.8385 1054 111.038 1256.58 474.144
116 0 85.0484 12.7104 1081 110.821 1257.05 471.152
117 0 86.0861 12.4875 1075 112.159 1257.31 471.652
118 0 89.0826 13.437 1197 111.302 1257.6 468.058
119 0 95.0371 13.4474 1278 109.617 1257.04 469.117
120 0 98.1218 11.924 1170 111.901 1257.22 468.182
121 0 99.0484 12.0143 1190 113.167 1256.95 464.719
122 0 102.21 13.1004 1339 110.016 1256.75 462.049
123 1 55.0208 10.7777 593 109.02 1257.7 486.723
124 0 56.0153 10.2294 573 109.668 1257.57 487.817
125 0 58.0711 11.5376 670 108.681 1257.48 482.364
126 0 60.0567 12.5548 754 106.141 1255.27 484.355
127 0 63.1725 13.6452 862 103.037 1255.41 483.335
128 0 66.1027 12.2537 810 107.517 1255.76 482.19
129 0 65.0846 12.9063 840 107.758 1256.05 480.226
130 0 70.0694 14.1288 990 109.584 1255.87 478.415
131 0 68.0491 11.8738 808 116.332 1256.37 477.334
132 0 73.1181 13.5261 989 112.399 1256.3 475.088
133 0 76.182 12.9164 984 113.482 1256.76 475.75
134 0 77.1706 12.3493 953 116.107 1255.76 473.687
135 0 80.113 13.2688 1063 114.377 1256.3 471.404
136 0 86.3368 14.9531 1291 77.3695 1256.31 471.182
137 0 86.1461 13.0708 1126 113.207 1256.75 467.835
138 0 89.1287 12.5998 1123 112.695 1257.12 468.934
139 0 94.18 13.7609 1296 111.268 1256.16 465.482
140 0 96.1897 12.1531 1169 110.293 1256.64 467.474
141 1 52.105 10.4788 546 113.789 1256.95 486.786
142 0 53.1259 11.3504 603 112.308 1255.98 485.353
143 0 55.0513 11.789 649 104.014 1257.06 485.364
144 0 58.0713 11.0209 640 114.327 1256.01 484.612
145 0 59.0707 11.2408 664 113.586 1256.62 484.797
146 0 61.1297 12.5307 766 112.098 1257.9 481.866
147 0 62.1571 11.9214 741 113.56 1256.71 482.318
148 0 66.159 13.4827 892 109.102 1257.4 480.109
149 0 65.1721 11.3699 741 113.872 1257.71 480.092
150 0 68.2337 12.3839 845 111.644 1256.97 477.698
151 0 70.1395 12.0046 842 111.267 1257.14 477.257
152 0 72.1718 11.3895 822 112.164 1257.08 477.69
153 0 72.1718 11.3341 818 150.967 1256.08 477.708
154 0 75.1367 11.8318 889 110.108 1257.55 474.827
155 0 80.1684 12.7107 1019 108.012 1256.9 472.598
156 0 81.2213 11.2901 917 110.656 1257.62 472.565
157 0 85.2502 10.8621 926 110.613 1256.93 470.902
158 0 86.1336 10.1935 878 112.767 1257.03 470.679
159 0 90.2295 11.1715 1008 111.578 1256.63 466.331
160 0 92.2738 11.5309 1064 111.072 1256.58 464.627
161 1 49.1702 10.5145 517 106.259 1257.92 487.65
162 0 51.0949 10.4511 534 108.852 1256.09 487.073
163 0 51.0912 10.8238 553 100.458 1257.16 486.465
164 0 55.1606 11.4937 634 97.9953 1257.2 485.5
165 0 56.0628 11.4514 642 98.9782 1257.02 484.173
166 0 59.1127 11.8756 702 97.302 1256.58 483.58
167 0 58.1393 11.1285 647 100.037 1256.72 482.807
168 0 61.1053 10.3919 635 101.28 1256.69 480.299
169 0 62.0983 10.9343 679 100.518 1256.67 478.664
170 0 65.1756 11.9677 780 105.603 1256.33 477.974
171 0 67.1294 13.2282 888 103.259 1256.23 476.991
172 0 69.161 12.3769 856 104.311 1256.54 477.564
173 0 72.1984 12.341 891 105.189 1257.23 475.021
174 0 74.262 12.604 936 103.458 1256.8 476.299
175 0 74.1971 12.7229 944 100.858 1256.98 475.531
176 0 77.1224 12.1365 936 102.921 1256.57 474.81
177 0 80.099 11.9852 960 105.715 1256.49 468.904
178 0 83.1197 12.1993 1014 105.984 1256.41 470.257
179 0 86.1808 12.8915 1111 106.401 1256.84 465.797
180 0 90.2555 12.0547 1088 108.498 1256.2 468.808
181 0 93.1812 12.3952 1155 109.22 1255.9 463.142
182 0 96.3389 12.8089 1234 108.622 1255.55 461.752
183 0 98.4457 11.3159 1114 112.639 1255.6 458.2
184 0 102.255 12.0483 1232 112.12 1255.05 454.64
185 1 55.2412 10.0106 553 107.448 1255.3 482.412
186 0 56.1143 9.83707 552 107.321 1256.24 483.739
187 0 57.1366 11.0087 629 104.742 1257.92 483.394
188 0 61.027 12.7321 777 108.366 1258.09 483.181
189 0 61.0728 12.4278 759 102.776 1255.45 482.132
190 0 62.0714 10.8585 674 106.424 1255.57 480.552
191 0 65.0936 11.9828 780 102.468 1255.53 481.782
192 0 67.0703 11.5401 774 103.425 1255.61 478.864
193 0 69.0486 11.9771 827 102.511 1255.87 477.443
194 0 71.1551 11.3836 810 103.544 1256.18 476.933
195 0 75.0917 11.8788 892 101.74 1256.66 476.828
196 0 76.0695 11.713 891 102.75 1256.6 474.605
197 0 78.1183 12.5835 983 101.367 1256.89 473.262
198 0 80.0956 11.8234 947 102.883 1256.72 474.212
199 0 83.1362 11.427 950 102.936 1256.55 473.568
200 0 86.0795 11.4081 982 104.302 1256.36 471.138
201 0 86.0622 10.3065 887 106.875 1256.37 469.894
202 0 93.1015 12.1265 1129 102.911 1256.02 468.05
203 0 96.1314 12.098 1163 103.042 1256.84 464.871
204 1 48.0215 10.2662 493 106.093 1255.7 488.347
205 0 50.0218 11.2351 562 106.037 1256.31 487.057
206 0 56.0297 12.6362 708 104.667 1257.1 485.295
207 0 52.0703 11.1388 580 104.493 1255.43 486.784
208 0 54.0284 10.439 564 105.34 1255.98 484.291
209 0 59.071 11.3592 671 100.264 1255.69 485.879
210 0 60.0651 13.0359 783 97.7854 1255.15 482.789
211 0 59.0976 12.2171 722 101.391 1255.93 482.048
212 0 63.1055 13.8974 877 96.4595 1255.81 480.615
213 0 63.0403 11.6909 737 102.685 1255.86 480.825
214 0 65.0468 11.5917 754 101.552 1256.48 482.752
215 0 68.0567 12.7688 869 100.029 1255.72 478.724
216 0 69.0814 12.7675 882 101.402 1256.3 477.001
217 0 69.0335 11.3713 785 105.144 1256.1 478.176
218 0 72.0882 11.7217 845 104.222 1256.58 476.073
219 0 77.0727 12.339 951 102.394 1255.57 475.662
220 0 81.087 14.4289 1170 97.4957 1255.96 474.776
221 0 81.1054 12.9708 1052 102.494 1256.92 473.088
222 0 85.2203 14.1281 1204 100.399 1256.62 470.897
223 0 87.1094 13.7643 1199 101.687 1256.6 469.834
224 0 90.1547 14.2089 1281 102.706 1256.97 468.126
225 0 92.0923 13.367 1231 104.593 1257.09 466.777
226 0 95.1126 13.9414 1326 102.818 1257.12 467.216
227 0 98.0432 14.0958 1382 104.233 1256.99 464.105
228 0 101.104 13.7582 1391 104.848 1256.91 463.477
229 0 102.105 12.4871 1275 108.672 1257.11 463.364
230 0 107.108 14.4526 1548 103.307 1257.52 460.152
231 0 111.196 14.2901 1589 103.087 1257.05 458.383
232 0 115.123 14.3325 1650 103.084 1256.64 455.786
233 0 120.118 14.2693 1714 104.577 1256.99 453.944
234 0 125.117 13.3874 1675 108.121 1257.81 453.096
235 0 125.217 13.5045 1691 108.193 1257.6 449.327
236 1 65.1193 11.4098 743 101.32 1256.43 479.536
237 0 65.1018 11.0135 717 103.767 1256.91 480.464
238 0 70.1193 12.9066 905 101.472 1256.84 478.285
239 0 73.1209 13.6486 998 99.3627 1256.27 478.279
240 0 71.0738 12.9584 921 103.339 1256.08 476.333
241 0 77.1048 13.8513 1068 100.253 1256.11 475.655
242 0 78.2005 14.6035 1142 99.6086 1255.76 475.398
243 0 80.149 14.9596 1199 99.9224 1256.09 473.696
244 0 82.1057 14.0063 1150 102.384 1256.28 472.037
245 0 85.1302 13.0271 1109 110.298 1255.8 471.286
246 0 87.1844 12.4219 1083 111.147 1256.11 470.263
247 0 92.1226 13.4929 1243 105.558 1256.72 469.821
248 0 92.215 12.9046 1190 108.677 1256.07 467.486
249 0 97.2276 13.2678 1290 108.106 1256.48 464.442
250 0 101.116 13.0444 1319 106.875 1256.44 462.94
251 0 103.141 11.8382 1221 110.563 1256.61 462.786
252 1 55.025 11.8673 653 105.874 1256.4 484.332
253 0 58.0504 12.403 720 104.168 1255.98 482.443
254 0 56.1641 11.9827 673 104.421 1256.93 482.404
255 0 60.1228 12.541 754 102.048 1257.66 480.577
256 0 62.0675 12.422 771 101.59 1257.28 482.04
257 0 64.1614 12.1257 778 102.392 1257.16 480.467
258 0 68.124 13.6222 928 98.5366 1257.05 476.874
259 0 69.0239 13.2853 917 99.5376 1257.11 476.074
260 0 73.076 13.4381 982 99.0611 1257.06 475.292
261 0 75.0854 11.9464 897 102.275 1257.22 475.101
262 0 77.0273 12.7617 983 101.261 1257.23 473.482
263 0 80.0732 12.7383 1020 102.444 1257.1 472.294
264 0 82.129 12.2369 1005 100.296 1256.66 469.806
265 0 83.1754 12.2993 1023 102.253 1256.68 464.94
266 0 88.0933 13.7808 1214 99.3534 1256.46 467.743
267 0 90.1517 11.8245 1066 103.588 1257.36 467.228
268 0 94.2645 12.7195 1199 103.794 1256.59 462.645
269 1 51.0831 10.7863 551 103.16 1256.39 485.347
270 0 51.1225 11.58 592 104.889 1255.96 480.644
271 0 54.2798 12.2882 667 103.234 1256.35 478.838
272 0 56.0957 12.0865 678 99.8791 1257.97 483.164
273 0 58.0588 12.2462 711 99.0267 1257.74 483.335
274 0 57.113 11.2759 644 102.284 1257.24 482.107
275 0 61.0695 11.8881 726 100.262 1257.6 481.285
276 0 61.0695 11.839 723 133.373 1257.59 481.369
277 0 63.163 11.5732 731 101.632 1257.33 480.847
278 0 69.146 14.1874 981 76.5719 1256.92 477.295
279 0 70.0976 13.5383 949 98.7787 1256.95 475.453
280 0 71.2365 12.6059 898 100.405 1256.9 474.816
281 0 73.2563 11.7396 860 102.384 1256.59 475.401
282 0 77.13 12.6929 979 100.696 1256.29 471.791
283 0 80.2021 13.7902 1106 98.9774 1257.21 471.722
284 0 80.2265 11.2182 900 108.313 1256.67 469.77
285 0 85.2113 12.6744 1080 104.986 1257.06 468.118
286 0 87.3142 12.9418 1130 105.121 1256.35 466.019
287 0 88.119 13.2548 1168 105.914 1256.97 463.295
288 0 93.1983 12.4573 1161 106.067 1256.64 464.269
289 0 97.2766 12.3051 1197 106.591 1255.84 461.884
290 1 51.27 10.8836 558 103.228 1256.62 484.14
291 0 53.1728 10.8138 575 104.002 1255.86 482.683
292 0 53.0956 10.9802 583 106.257 1256.35 484.729
293 0 54.1678 12.0736 654 104.786 1256.89 484.209
294 0 54.0836 11.4452 619 107.672 1256.56 483.59
295 0 55.1413 11.9511 659 107.41 1256.52 481.604
296 0 59.1741 12.1168 717 107.234 1256.39 482.4
297 0 60.1657 12.798 770 106.734 1256.53 480.505
298 0 63.1445 12.2893 776 106.78 1256.73 479.811
299 0 65.1026 11.8275 770 108.638 1256.41 479.083
300 0 66.2179 13.0629 865 108.955 1255.85 476.087
301 0 72.1432 14.2494 1028 104.846 1255.86 475.394
302 0 75.1667 13.8226 1039 105.316 1256.39 475.84
303 0 74.1912 13.6404 1012 107.579 1256.12 474.301
304 0 76.2143 13.2783 1012 109.342 1256.34 473.095
305 0 78.3419 12.7773 1001 111.321 1256.68 471.484
306 0 80.3188 13.3593 1073 110.349 1256.88 470.154
307 0 83.3279 11.9288 994 108.362 1256.93 467.424
308 0 86.2358 12.9992 1121 107.258 1256.82 467.013
309 0 89.2736 13.8003 1232 107.616 1256.85 464.232
310 0 92.296 12.7741 1179 110.381 1256.36 465.397
311 0 95.2464 12.6199 1202 109.993 1256.91 463.695
312 1 51.2164 11.0902 568 108.639 1256.18 483.921
313 0 53.3245 12.4896 666 104.982 1255.99 484.737
314 0 53.2755 12.0318 641 108.81 1255.97 483.404
315 0 55.0538 12.4242 684 105.142 1256.12 484.651
316 0 57.1887 12.3976 709 105.714 1257.08 483.072
317 0 57.1148 11.7132 669 108.801 1256.72 483.454
318 0 61.0834 12.6385 772 106.351 1256.37 482.92
319 0 63.1324 13.3529 843 105.565 1257.29 480.432
320 0 67.1444 13.955 937 104.176 1257.19 478.894
321 0 66.0777 12.0313 795 110.18 1256.24 479.345
322 0 71.1502 14.5326 1034 104.022 1256.92 477.803
323 0 71.1502 14.4764 1030 149.858 1256.9 477.82
324 0 74.1069 13.9933 1037 106.83 1256.5 475.096
325 0 76.1166 14.1888 1080 106.597 1257.22 474.349
326 0 79.1177 12.829 1015 110.097 1256.8 473.563
327 0 82.084 13.1938 1083 109.868 1257.13 472.162
328 0 86.0872 14.4969 1248 106.664 1256.95 472.09
329 0 87.173 14.5802 1271 108.523 1257.28 468.17
330 0 89.1286 14.1593 1262 109.41 1257.4 467.995
331 0 93.1158 13.8752 1292 110.306 1257.13 466.083
332 0 96.2596 13.7441 1323 110.312 1256.2 462.813
333 1 52.3868 11.0333 578 109.277 1255.43 483.471
334 0 52.0588 11.487 598 101.288 1256 487.689
335 0 53.0307 10.8616 576 102.632 1255.53 489.102
336 0 53.0307 10.9559 581 149.138 1254.56 489.219
337 0 53.0331 10.9366 580 148.781 1253.55 489.186
338 0 56.061 11.8442 664 101.381 1256.49 484.027
339 0 59.0701 12.6629 748 98.8262 1256.95 483.906
340 0 62.0873 11.5966 720 100.7 1256.78 482.764
341 0 63.0693 10.8928 687 101.485 1256.58 482.39
342 0 66.1504 11.8669 785 96.9172 1257.05 479.233
343 0 66.0685 11.8967 786 99.0534 1257.15 480.426
344 0 69.0206 12.7788 882 97.6463 1256.83 478.901
345 0 72.0678 13.4596 970 95.2144 1258.01 477.45
346 0 73.0962 10.5614 772 100.421 1257.58 478.073
347 0 76.1154 13.243 1008 95.9127 1256.62 474.118
348 0 80.186 12.259 983 96.9674 1258.03 475.79
349 0 81.1203 10.5646 857 101.133 1257.09 472.218
350 0 85.1372 12.1216 1032 97.8895 1257.47 470.978
351 0 86.1048 11.277 971 100.939 1256.96 469.124
352 1 43.068 10.6344 458 96.9716 1257.52 489.862
353 0 43.068 10.6808 460 121.211 1257.5 489.852
354 0 45.0876 11.0895 500 97.644 1255.98 490.044
355 0 48.074 12.8552 618 97.5437 1256.9 487.285
356 0 50.1105 12.1132 607 98.8517 1257.58 487.476
357 0 51.085 12.5869 643 98.7932 1257.37 486.641
358 0 52.1068 12.34 643 99.2068 1257.16 486.241
359 0 53.0774 11.0593 587 107.063 1256.96 484.322
360 0 58.0603 10.713 622 106.797 1257.18 484.839
361 0 59.0708 12.6289 746 102.8 1256.67 484.286
362 0 59.0838 11.6106 686 106.504 1256.37 480.697
363 0 63.1166 11.5184 727 105.294 1256.88 482.128
364 0 63.0858 12.3641 780 105.686 1256.62 480.38
365 0 68.1585 13.1165 894 103.66 1256.27 478.695
366 0 69.1514 12.1906 843 106.502 1256.88 479.015
367 0 70.0953 11.6984 820 108.879 1256.73 476.822
368 0 74.1027 12.9955 963 105.589 1257.08 477.409
369 0 75.1016 12.583 945 108.741 1256.94 475.888
370 0 79.095 12.0994 957 109.774 1256.76 474.346
371 1 41.0578 10.4487 429 108.678 1256.85 492.459
372 0 45.0473 10.6111 478 104.628 1257.8 493.331
373 0 43.0162 11.3911 490 101.922 1257.71 492.043
374 0 44.0728 11.3675 501 102.319 1257.49 491.186
375 0 46.0792 11.8275 545 101.081 1257.65 491.062
376 0 47.0214 11.5267 542 102.996 1257.13 489.594
377 0 49.0359 11.8077 579 103.064 1258.41 490.135
378 0 50.0725 11.1838 560 105.468 1258.02 487.223
379 0 55.0888 11.6358 641 102.735 1257.57 487.314
380 0 54.1078 10.3867 562 106.959 1257.85 488.002
381 0 54.0328 10.4011 562 108.797 1257.87 485.794
382 0 59.0804 11.8313 699 103.954 1257.92 485.415
383 0 59.0747 12.0187 710 103.604 1258.13 484.876
384 0 64.1446 12.3315 791 110.372 1257.81 482.645
385 0 63.1354 12.0693 762 112.466 1257.42 481.807
386 0 67.1318 11.6189 780 113.451 1257.64 478.567
387 0 69.0896 10.3923 718 113.95 1257.69 481.545
388 0 73.1703 11.0701 810 113.804 1257.47 479.84
389 1 39.0135 10.4323 407 108 1257.79 494.393
390 0 40.0462 10.388 416 105.099 1257.1 495.413
391 0 37.0464 10.6353 394 104.741 1256.16 493.589
392 0 40.0422 10.6388 426 104.54 1255.81 495.291
393 0 43.0243 11.784 507 100.371 1257.59 494.391
394 0 44.0677 11.8681 523 100.836 1257.63 492.459
395 0 44.038 12.6028 555 103.804 1258.17 490.78
396 0 45.0203 11.7058 527 106.911 1258.04 491.317
397 0 48.1101 12.0349 579 106.159 1257.68 490.269
398 0 50.0753 12.5012 626 104.078 1257.1 491.331
399 0 50.1007 12.0158 602 106.638 1258.16 487.522
400 0 53.0634 13.7194 728 102.758 1258.56 487.639
401 0 54.0366 12.9542 700 105.224 1258.02 486.711
402 0 55.0627 12.8036 705 106.834 1258.3 486.549
