time division length width area intensity CMx CMy
0 0 35.0175 11.8798 416 137.01 1339.11 485.582
1 0 34.0319 11.4011 388 139.593 1339.38 484.595
2 0 36.0275 12.2129 440 135.609 1340.27 483.895
3 0 38.0569 13.1119 499 134.591 1340.76 484.044
4 0 39.0879 12.8428 502 139.064 1338.81 482.347
5 0 39.0879 12.8428 502 164.183 1337.81 482.347
6 0 39.0635 12.8253 501 138.002 1339.31 483.004
7 0 43.1243 12.9625 559 134.415 1339.46 482.331
8 0 41.1136 12.7209 523 136.585 1339.32 482.675
9 0 43.121 12.7084 548 135.106 1339.38 481.693
10 0 45.0664 12.1376 547 135.704 1338.6 481.051
11 0 46.1125 12.7948 590 132.186 1339.4 481.958
12 0 48.1785 12.8273 618 131.259 1338.75 481.476
13 0 49.0842 13.5889 667 127.783 1338.14 480.852
14 0 51.0333 12.7368 650 130.432 1338.79 480.538
15 0 51.0278 12.7578 651 129.995 1339.11 479.522
16 0 53.1128 14.4221 766 124.547 1338.52 479.346
17 0 55.1034 13.7741 759 125.739 1338.32 478.804
18 0 56.0399 12.7231 713 127.712 1337.89 480.196
19 0 55.0517 12.9333 712 127.414 1338.52 477.889
20 0 59.0881 14.013 828 121.758 1337.78 478.22
21 0 58.0635 13.1408 763 126.102 1337.78 476.723
22 0 63.095 14.9457 943 117.532 1337.62 478.135
23 0 65.0802 13.9674 909 119.038 1337.69 476.912
24 0 66.0621 14.7891 977 116.965 1336.58 475.146
25 0 68.0458 13.8142 940 118.69 1336.54 474.74
26 0 70.0589 14.3023 1002 115.285 1337.18 474.909
27 0 73.1061 13.7335 1004 115.345 1337.33 472.394
28 0 75.0959 12.8902 968 117.378 1336.31 470.228
29 0 78.0696 12.2455 956 117.543 1336.57 470.594
30 0 82.0515 13.0528 1071 114.939 1335.87 468.788
31 0 82.0858 12.7184 1044 115.817 1335.7 466.245
32 0 85.1099 12.7952 1089 114.904 1335.37 465.117
33 0 89.1136 12.0969 1078 114.977 1336.32 466.335
34 0 92.1185 11.7023 1078 116.272 1335.68 463.882
35 1 50.0853 11.8598 594 111.949 1335.88 485.259
36 0 50.0903 12.3577 619 113.553 1335.2 481.766
37 0 52.0288 11.5513 601 112.003 1335.21 480.859
38 0 51.1018 12.2892 628 110.311 1335.54 481.994
39 0 52.0561 12.1984 635 113.14 1335.85 482.694
40 0 56.0622 12.8607 721 110.111 1335.35 480.699
41 0 58.0636 13.6058 790 109.835 1334.79 479.525
42 0 61.1114 14.1054 862 108.444 1334.77 479.437
43 0 64.0398 13.7102 878 108.448 1335.43 477.475
44 0 64.0372 13.8982 890 107.958 1335.53 477.738
45 0 65.1415 12.281 800 112.324 1335.02 476.882
46 0 68.0524 12.6373 860 111.838 1335.05 474.471
47 0 70.0471 13.1483 921 111.127 1335.58 471.899
48 0 74.0716 15.647 1159 105.855 1334.99 473.136
49 0 77.0414 14.317 1103 109.192 1334.33 469.47
50 0 80.1162 13.9423 1117 109.691 1334.32 469.893
51 0 82.0534 14.844 1218 107.782 1335.02 468.466
52 0 87.0378 13.5918 1183 109.793 1334.32 468.911
53 0 88.0388 14.0506 1237 108.711 1335.02 464.194
54 0 91.0624 14.5834 1328 108.363 1334.57 461.892
55 0 94.1458 13.7978 1299 109.163 1334.54 462.722
56 0 95.1109 12.8482 1222 108.939 1334.98 456.693
57 0 100.096 12.5979 1261 110.038 1333.6 455.435
58 0 101.135 14.0802 1424 107.034 1334.35 451.544
59 0 106.156 13.1411 1395 108.599 1335.06 452.616
60 0 111.136 12.4712 1386 108.854 1334.71 451.006
61 1 57.0498 10.6573 608 104.207 1335.02 474.91
62 0 59.0376 10.9083 644 103.188 1334.41 475.601
63 0 63.0474 12.0386 759 103.066 1333.69 474.415
64 0 68.1074 13.743 936 101.822 1334.65 477.511
65 0 69.0405 13.3545 922 103.037 1334.97 476.694
66 0 73.0923 13.996 1023 101.422 1334.23 475.393
67 0 76.1021 13.9418 1061 101.845 1334.4 473.651
68 0 77.0454 13.6932 1055 103.009 1334.45 471.355
69 0 80.0944 12.9098 1034 104.937 1333.76 469.346
70 0 86.0513 13.7476 1183 101.686 1334.3 469.922
71 0 89.0654 14.6858 1308 101.239 1334.18 466.914
72 0 90.3081 14.1626 1279 102.982 1333.85 464.917
73 0 93.171 13.0405 1215 106.091 1334.22 464.278
74 0 98.1414 14.3568 1409 102.894 1334.41 461.133
75 0 103.146 14.7655 1523 100.599 1333.84 460.128
76 1 47.0594 10.0086 471 97.172 1334.04 480.333
77 0 50.041 11.031 552 94.4185 1334.16 481.446
78 0 54.1046 12.9194 699 94.3476 1334.26 485.72
79 0 55.0992 12.2688 676 96.4719 1334.16 485.25
80 0 59.1571 13.1514 778 93.8509 1334.19 482.856
81 0 59.0948 12.5561 742 94.903 1333.99 483.887
82 0 62.069 13.3239 827 93.5441 1334.69 481.21
83 0 65.0653 13.3097 866 93.0185 1333.98 481.299
84 0 67.1106 13.5746 911 92.2602 1334.63 479.62
85 0 67.1288 12.9155 867 94.5536 1334.3 478.539
86 0 68.1219 12.9914 885 95.3062 1333.59 478.606
87 0 72.1296 12.6855 915 95.7454 1333.81 477.29
88 0 75.1127 12.4346 934 95.0557 1333.33 477.332
89 0 77.1387 11.9784 924 95.105 1332.9 475.201
90 0 80.1412 12.7026 1018 94.6189 1333.54 473.615
91 0 82.1454 11.5405 948 97.8122 1333.66 473.017
92 0 86.227 11.864 1023 97.2004 1332.41 470.841
93 1 44.0794 10.9121 481 92.1788 1332.22 492.665
94 0 47.109 13.1822 621 87.9243 1332.4 489.567
95 0 48.0989 11.019 530 94.0358 1332.47 490.042
96 0 47.0865 11.447 539 92.7328 1332.13 490.212
97 0 49.048 11.2951 554 93.4657 1332.51 489.845
98 0 51.074 11.9043 608 92.403 1332.2 486.574
99 0 52.0574 11.1608 581 94.4492 1332.51 486.759
100 0 53.0274 10.3154 547 94.7678 1331.77 488.205
101 0 56.0607 10.3281 579 95.095 1332.21 485.304
102 0 59.0347 12.6197 745 91.1839 1332.52 484.824
103 0 60.1081 10.8305 651 94.9309 1332.53 483.969
104 0 61.0604 10.7598 657 95.6408 1332.22 482.781
105 0 65.0565 12.2663 798 92.1717 1332.08 482.926
106 0 67.0841 11.6272 780 93.6577 1331.94 480.426
107 0 70.1097 13.6215 955 89.8722 1332.07 478.159
108 0 73.0958 12.9419 946 91.686 1332.15 477.586
109 0 73.0765 12.5622 918 93.0708 1331.67 478.842
110 0 77.0987 12.8537 991 92.774 1331.39 476.462
111 0 77.0444 11.8633 914 96.0667 1332.04 475.124
112 0 80.086 11.6999 937 96.047 1332.36 473.159
113 0 83.069 10.8103 898 98.2116 1332.09 473.982
114 0 87.0557 13.5431 1179 94.0857 1332.09 467.689
115 1 46.0259 10.6679 491 95.4603 1332.87 490.037
116 0 48.0486 12.1752 585 94.6171 1333.2 489.448
117 0 49.0282 11.5852 568 94.5246 1333.11 487.613
118 0 53.061 12.3631 656 90.6662 1333.36 488.912
119 0 52.0853 12.1531 633 93.0284 1331.77 488.242
120 0 54.0803 12.7403 689 91.6996 1332.04 486.601
121 0 56.067 12.3424 692 92.4436 1331.96 484.513
122 0 58.0949 13.2542 770 90.8247 1331.92 483.949
123 0 57.0704 11.1792 638 96.036 1332.48 484.235
124 0 61.0373 12.091 738 93.3144 1332.39 481.791
125 0 63.0566 12.4174 783 93.3167 1331.98 479.94
126 0 67.097 12.4745 837 92.9343 1331.27 479.888
127 0 67.0862 12.6404 848 94.1981 1331.52 476.476
128 0 70.0902 13.7252 962 91.9938 1331.87 477.274
129 0 72.0699 11.9329 860 95.2465 1332.09 475.295
130 0 76.0369 13.0858 995 92.5709 1332.06 473.875
131 0 76.0906 10.8686 827 97.6602 1331.77 473.751
132 0 81.2109 13.8528 1125 92.1289 1331.46 470.881
133 0 84.1082 12.2818 1033 93.4182 1331.84 471.356
134 1 43.0292 11.3179 487 92.7947 1330.39 489.667
135 0 45.0274 10.3715 467 94.0514 1330.95 491.672
136 0 49.1045 17.7784 873 58.1913 1331.16 490.365
137 0 47.0204 11.3568 534 90.867 1331.57 487.318
138 0 47.055 10.0946 475 94.2042 1331.71 488.512
139 0 50.072 10.6447 533 93.015 1330.89 489.062
140 0 52.0225 11.7641 612 91.2386 1331.67 487.807
141 0 52.0223 11.5912 603 92.3997 1331.79 486.245
142 0 55.0467 12.5348 690 90.7 1331.37 484.332
143 0 57.044 10.8162 617 92.457 1331.6 484.629
144 0 58.0398 11.0614 642 92.3645 1331.84 483.302
145 0 60.0643 12.2369 735 89.849 1332.32 481.884
146 0 60.0759 10.6033 637 92.8744 1332.44 481.29
147 0 63.0758 11.6526 735 91.8095 1331.39 478.965
148 0 67.1352 12.9291 868 88.5564 1332.22 479.145
149 0 68.0522 11.741 799 90.2979 1332.47 476.681
150 0 70.0392 11.4507 802 91.0025 1331.95 477.981
151 0 74.1357 11.6813 866 89.9492 1332.43 475.74
152 0 76.0469 11.2431 855 92.124 1331.94 474.227
153 0 79.1156 11.6159 919 91.654 1332.1 472.146
154 0 81.0595 10.9549 888 93.8559 1332.5 471.654
155 0 82.1116 9.69413 796 98.3279 1331.93 466.394
156 0 89.1787 11.718 1045 91.7665 1333.19 469.425
157 0 91.2611 11.3192 1033 101.664 1332.29 465.129
158 0 94.2194 11.9614 1127 96.3949 1332.72 463.649
159 1 47.1225 10.0164 472 91.7479 1333.03 487.011
160 0 52.1605 11.8672 619 86.5832 1332.93 485.703
161 0 54.1469 10.7116 580 88.5759 1333.88 485.352
162 0 53.1148 10.3549 550 90.0364 1333.03 482.607
163 0 55.144 10.1552 560 90.575 1332.75 484.275
164 0 58.0583 10.2139 593 89.4874 1332.73 482.395
165 0 60.099 10.6158 638 89.3135 1332.45 481.064
166 0 58.0664 10.488 609 90.4746 1332.04 480.146
167 0 62.1521 11.8258 735 88.5986 1332.2 478.076
168 0 67.0643 12.2122 819 86.0733 1332.23 478.74
169 0 67.1289 11.9323 801 87.6592 1332.15 475.944
170 0 69.078 10.2493 708 90.4068 1332.04 476.477
171 0 72.1026 11.5946 836 88.4773 1331.8 472.433
172 0 75.0789 11.8142 887 88.1736 1332.01 473.129
173 0 76.1367 12.3856 943 90.9046 1332.54 469.286
174 0 80.1083 10.5108 842 92.595 1332.3 472.268
175 0 84.0937 11.3683 956 89.9383 1332.35 472.246
176 1 45.0131 9.7305 438 86.3813 1332.57 491.71
177 0 44.1029 11.3371 500 87.05 1332.68 488.096
178 0 46.085 9.54758 440 90.3523 1332.54 488.677
179 0 46.1293 9.62513 444 93.259 1333.02 488.671
180 0 48.0872 11.5207 554 88.2365 1332.54 488.352
181 0 49.0419 12.7034 623 87.0144 1332.46 485.84
182 0 51.0261 11.5627 590 90.0746 1332.37 485.208
183 0 53.1697 11.7548 625 89.7184 1332.39 485.131
184 0 54.1057 12.0505 652 90.7699 1331.9 483.167
185 0 57.0545 11.9535 682 90.3035 1331.89 483.031
186 0 58.0694 12.3473 717 90.6402 1332.34 481.69
187 0 59.0804 11.0358 652 95.3374 1332.36 482.167
188 0 60.0533 10.4074 625 96.7872 1332.51 481.557
189 0 61.0708 11.9533 730 95.4082 1331.92 480.567
190 0 64.088 11.9523 766 95.0339 1331.98 481.719
191 0 65.09 11.3382 738 97.4715 1332.21 478.121
192 0 68.0957 11.5426 786 96.4707 1332.26 478.281
193 0 70.0478 11.535 808 96.6621 1332.41 476.797
194 0 74.0874 13.7 1015 92.6847 1332.56 475.628
195 0 76.2517 11.9866 914 96.3982 1332.83 473.92
196 0 78.0619 11.6062 906 97.6424 1332.86 471.012
197 0 82.0732 12.1355 996 96.6054 1333.03 470.145
198 0 85.0676 11.7318 998 98.7365 1332.93 468.752
199 0 88.0996 12.781 1126 97.0497 1332.34 465.698
200 0 91.0934 13.0745 1191 96.429 1332.5 466.492
201 0 91.1148 12.0507 1098 100.795 1332.38 465.002
202 0 95.0908 12.588 1197 100.098 1331.96 461.745
203 1 53.0524 10.5556 560 97.5964 1333.99 482.761
204 0 54.0563 11.377 615 96.4455 1333.32 480.844
205 0 55.1048 12.0861 666 97.2703 1332.55 481.114
206 0 58.0614 12.8312 745 94.6295 1331.77 480.799
207 0 62.0709 11.7607 730 98.737 1331.25 480.566
208 0 62.0334 11.9129 739 98.8944 1331.48 478.457
209 0 64.0542 11.6932 749 99.2523 1331.44 478.256
210 0 67.0798 12.3137 826 98.2288 1330.73 475.621
211 0 71.0408 13.64 969 95.2116 1331.48 474.385
212 0 71.0714 13.001 924 96.908 1331.3 474.948
213 0 74.1426 13.6898 1015 96.5202 1331.23 472.41
214 0 74.1016 11.6597 864 102.174 1331.85 470.935
215 0 79.0494 12.9666 1025 99.7249 1330.73 470.054
216 0 80.1638 12.1127 971 102.617 1331.59 468.684
217 0 87.1122 14.0049 1220 97.6688 1331.52 468.43
218 0 87.0613 12.9909 1131 100.195 1331.85 469.371
219 0 90.082 12.3221 1110 104.825 1330.8 465.312
220 0 95.1126 13.7311 1306 100.09 1330.96 464.992
221 0 98.0863 12.907 1266 100.468 1331.59 462.446
222 0 100.085 13.5684 1358 102.479 1331.45 460.507
223 1 54.0323 12.2149 660 100.205 1331.35 483.956
224 0 55.0245 11.6675 642 100.202 1332.57 484.109
225 0 55.0206 11.3412 624 99.9535 1331.75 482.894
226 0 58.1169 13.0771 760 93.9987 1331.68 481.172
227 0 58.0701 12.4849 725 96.7531 1332.3 481.052
228 0 61.0583 12.5781 768 96.0039 1332.23 480.499
229 0 61.0963 12.243 748 98.3783 1331.42 480.174
230 0 64.0882 13.2474 849 95.6726 1332.01 478.498
231 0 67.1461 13.7015 920 94.275 1331.54 477.076
232 0 67.1008 12.9805 871 97.1516 1331.2 477.059
233 0 69.1102 12.6609 875 98.6229 1331.81 475.011
234 0 72.1374 11.9217 860 99.1919 1332.5 474.394
235 0 73.0723 12.2345 894 100.823 1332.53 472.149
236 0 77.0777 12.7663 984 99.3364 1331.62 472.421
237 0 78.121 13.3255 1041 99.0576 1332.12 472.296
238 0 80.093 12.6103 1010 101.854 1332.16 469.625
239 0 84.1087 12.7811 1075 103.645 1331.62 468.127
240 0 86.1955 13.5042 1164 104.794 1331.36 466.167
241 0 89.1838 13.0517 1164 106.824 1331.56 465.508
242 0 91.086 12.7133 1158 108.566 1331.78 464.287
243 0 94.1073 12.1245 1141 109.55 1332.47 462.205
244 0 99.2067 13.3156 1321 106.058 1332.78 462.761
245 0 100.3 13.3599 1340 107.495 1332.09 461.298
246 0 104.14 13.6258 1419 107.398 1332.69 456.266
247 1 59.0687 11.749 694 104.843 1333.31 480.643
248 0 60.0501 11.2573 676 104.547 1332.97 480.595
249 0 62.1146 11.3017 702 99.1439 1333.54 479.083
250 0 65.1142 12.839 836 96.9725 1333.44 478.057
251 0 65.0668 11.9108 775 99.1884 1333.09 477.614
252 0 67.0697 10.9886 737 101.077 1332.94 477.951
253 0 70.129 11.65 817 99.8886 1333.38 476.797
254 0 72.1027 12.4267 896 98.7846 1332.65 472.683
255 0 74.1276 11.5207 854 100.451 1333.39 472.717
256 0 77.0567 10.6156 818 103.099 1333.28 471.094
257 0 79.0799 11.5706 915 100.728 1333.13 473.833
258 0 82.0596 12.1132 994 100.915 1332.81 469.154
259 0 85.2347 11.9552 1019 101.219 1332.95 469.67
260 0 88.1113 11.6444 1026 101.424 1332.96 469.314
261 0 89.0701 10.1269 902 104.195 1332.91 467.191
262 0 95.1018 11.3668 1081 100.655 1333 465.619
263 0 96.0838 12.0312 1156 102.037 1333.09 461.889
264 1 51.0208 9.97633 509 102.454 1332.21 486.613
265 0 52.0614 11.4672 597 99.9682 1333.27 483.368
266 0 54.0768 11.6131 628 96.6513 1331.51 482.497
267 0 54.0488 11.3786 615 98.4228 1334.23 483.228
268 0 55.1333 10.6106 585 100.368 1332.91 482.537
269 0 59.1238 11.4336 676 97.2101 1333.64 481.327
270 0 60.0736 11.5026 691 98.4038 1333.49 480.285
271 0 59.0381 9.65479 570 102.568 1333.1 479.311
272 0 63.0902 11.333 715 98.9399 1333.88 478.456
273 0 65.0981 12.5042 814 96.1683 1333.86 477.947
274 0 67.1028 11.4004 765 97.5176 1333.37 478.503
275 0 68.0905 10.912 743 100.198 1333.56 474.747
276 0 68.0916 10.9118 743 129.754 1333.58 474.774
277 0 74.0924 12.8218 950 97.1463 1333.02 472.908
278 0 78.0407 12.6216 985 75.2558 1332.82 471.775
279 0 78.062 12.362 965 99.7586 1332.71 468.54
280 0 81.0542 11.7082 949 101.101 1332.67 469.269
281 0 83.0581 11.5341 958 102.164 1332.31 467.875
282 0 86.125 11.6691 1005 102.416 1331.84 466.216
283 0 86.1193 11.3447 977 103.267 1332.99 467.192
284 0 91.2171 11.2589 1027 103.283 1332.38 466.608
285 0 95.0826 11.4953 1093 103.295 1332.8 463.012
286 0 97.1914 11.4722 1115 104.302 1332.06 461.175
287 0 100.192 12.6957 1272 100.819 1332.55 460.891
288 0 105.112 11.5686 1216 103.141 1332.21 458.113
289 0 108.154 11.5576 1250 103.495 1331.25 457.518
290 1 59.1221 10.842 641 102.095 1332.5 481.128
291 0 59.1221 11.5016 680 143.156 1333.46 481.874
292 0 64.1218 12.9909 833 96.5858 1332.25 479.527
293 0 66.0608 12.1403 802 95.3217 1332.99 479.081
294 0 67.0727 11.2863 757 96.9564 1332.6 477.933
295 0 68.0902 11.8226 805 97.7466 1332.36 475.283
296 0 73.0498 12.5668 918 95.2516 1332.4 475.72
297 0 71.0546 11.9204 847 98.686 1332.53 474.205
298 0 78.1453 12.6559 989 95.5632 1332.86 473.112
299 0 79.0456 12.7015 1004 96.6733 1332.45 472.186
300 0 81.1767 12.6514 1027 97.742 1332.18 470.619
301 0 84.0986 13.6506 1148 97.1098 1332.22 469.051
302 0 87.1999 12.8899 1124 100.446 1332.85 468.381
303 0 91.1386 13.474 1228 98.5049 1332.73 467.604
304 0 94.2115 13.0133 1226 101.954 1332.79 464.963
305 0 97.2109 13.2495 1288 101.558 1333.15 463.875
306 0 100.365 12.8232 1287 103.676 1332.72 459.651
307 0 102.363 12.1039 1239 105.504 1332.6 458.118
308 1 57.3463 12.1019 694 99.4222 1332.08 480.924
309 0 55.1988 11.1234 614 103.344 1332.47 481.073
310 0 58.1463 12.6061 733 100.321 1332.17 479.13
311 0 61.0506 13.6772 835 90.9617 1333.95 481.023
312 0 63.0449 12.9432 816 93.0417 1333.58 479.985
313 0 63.0807 11.953 754 96.7546 1333.69 480.261
314 0 64.0723 12.0489 772 97.0181 1333.44 480.014
315 0 66.0964 12.2851 812 97.5665 1332.63 478.43
316 0 68.0805 11.8683 808 98.5631 1333.08 477.64
317 0 70.1248 12.3637 867 97.4994 1332.75 475.836
318 0 72.0499 11.1312 802 100.98 1332.24 473.338
319 0 78.0899 12.1911 952 97.9223 1332.95 474.137
320 0 78.0876 12.8702 1005 97.9612 1332.7 471.136
321 0 82.0725 13.415 1101 96.5976 1332.48 469.817
322 0 85.1367 14.1889 1208 95.7417 1332.68 469.803
323 0 85.127 13.5562 1154 139.352 1332.7 469.059
324 0 89.0509 13.0712 1164 98.5979 1332.48 468.096
325 0 91.1237 11.2265 1023 103.038 1332.99 464.561
326 1 50.0404 12.2501 613 97.0587 1332.95 486.511
327 0 50.0568 11.6867 585 98.2256 1333.65 485.335
328 0 53.0377 11.4447 607 96.3031 1332.63 487.109
329 0 54.0631 12.9663 701 93.0114 1332.3 486.538
330 0 53.0618 11.9483 634 97.2713 1332.14 487.172
331 0 54.1067 11.4773 621 99.5346 1332.15 483.855
332 0 58.0664 12.1929 708 97.0565 1331.48 484.756
333 0 60.1272 13.3051 800 94.98 1331.61 481.558
334 0 61.0536 12.7757 780 94.9885 1331.94 483.549
335 0 61.0381 12.3202 752 98.1383 1331.44 480.908
336 0 61.0381 12.271 749 140.214 1330.45 480.844
337 0 61.0381 12.2219 746 139.92 1329.44 480.874
338 0 69.1576 13.6644 945 95.2529 1332.38 477.22
339 0 71.1105 14.4564 1028 94.1031 1332.69 478.15
340 0 74.0858 14.0648 1042 95.7466 1332.52 475.441
341 0 74.0438 13.1544 974 99.7669 1332.22 473.385
342 0 78.1609 15.1866 1187 94.888 1332.67 473.037
343 0 80.0888 13.8097 1106 98.2197 1332.42 472.216
344 0 82.0782 13.5115 1109 99.0622 1332.12 472.608
345 0 86.1585 14.4617 1246 95.76 1333.38 471.059
346 0 87.1378 13.5532 1181 98.359 1333.54 468.362
347 1 47.191 11.4005 538 97.8792 1333.14 489.658
348 0 51.1698 12.7224 651 87.8249 1335.02 488.734
349 0 51.0154 12.2708 626 90.393 1333.21 487.657
350 0 50.0169 12.6757 634 91.489 1333.36 485.465
351 0 51.1044 9.86217 504 97.7659 1332.17 486.53
352 0 54.0668 11.4858 621 92.8792 1333.25 486.784
353 0 54.0668 11.5598 625 127.376 1334.27 486.84
354 0 55.1511 11.6407 642 94.5654 1331.89 483.389
355 0 58.0636 12.2969 714 92.5266 1331.69 482.574
356 0 62.0671 12.7282 790 89.4342 1332.45 483.351
357 0 64.2137 12.7076 816 89.462 1332.15 482.838
358 0 65.096 11.291 735 93.2272 1332.15 480.478
359 0 67.1274 12.3794 831 90.7798 1332.77 479.569
360 0 70.0478 11.3066 792 92.7614 1332.98 476.923
361 0 72.1023 12.3852 893 90.9048 1332.66 476.975
362 0 73.0498 13.0459 953 89.6852 1331.93 478.277
363 0 78.0965 12.3949 968 91.5486 1332.24 473.524
364 0 80.1192 12.0945 969 93.2766 1332.15 471.735
365 0 83.1308 12.5224 1041 93.4861 1331.53 470.643
366 0 86.0708 12.6524 1089 93.4582 1332.14 471.005
367 1 49.0172 11.139 546 94.1429 1331.9 488.509
368 0 49.0732 12.8176 629 91.0556 1332.03 487.134
369 0 51.0264 11.6214 593 92.7336 1333.14 487.941
370 0 50.0274 9.43483 472 97.0953 1333.11 489.71
371 0 51.0285 11.5426 589 94.7453 1332.69 487.98
372 0 55.0733 12.0022 661 93.0817 1331.86 485.817
373 0 57.1306 10.5898 605 95.076 1333.04 485.924
374 0 58.0304 11.5112 668 93.3443 1333.02 485.265
375 0 60.0812 11.5677 695 94.2878 1333.3 482.957
376 0 60.044 11.6581 700 94.4429 1333.06 483.784
377 0 60.0672 11.5038 691 93.5904 1333.45 483.191
378 0 63.0944 12.1564 767 92.1812 1333.17 479.949
379 0 66.0697 12.9257 854 90.0386 1332.54 481.589
380 0 69.0581 11.9609 826 92.7942 1331.88 477.892
381 0 71.1339 12.5538 893 91.4513 1332.13 477.384
382 0 74.1022 12.9686 961 90.3611 1332.24 477.085
383 0 75.101 12.6363 949 92.334 1333.23 473.558
384 0 78.0558 11.2099 875 94.5154 1333.09 474
385 0 82.1724 11.8166 971 93.9217 1331.89 473.043
386 0 83.0804 10.0385 834 97.5468 1332.91 470.793
387 0 86.0929 12.382 1066 93.6482 1332.77 470.385
388 0 89.1323 11.5671 1031 95.0165 1332.81 469.396
389 0 91.0489 10.7964 983 97.6216 1332.3 465.355
390 1 53.0442 10.5572 560 95.8357 1331.79 485.204
391 0 56.0601 12.5579 704 91.9205 1332.3 485.874
392 0 56.069 10.7011 600 94.7667 1331.95 485.403
393 0 55.0192 10.9416 602 94.4967 1333.25 485.698
394 0 58.0318 10.6838 620 94.7645 1333.22 484.056
395 0 62.13 11.3633 706 93.1445 1333.07 482.262
396 0 65.0548 11.2059 729 92.9684 1333.11 481.679
397 0 65.0194 10.4738 681 94.3686 1332.71 480.562
398 0 68.0398 11.7725 801 92.7166 1332.29 476.742
399 0 72.0364 12.2299 881 90.63 1333.56 477.578
400 0 73.0666 12.2628 896 91.2444 1333.96 477.171
401 0 77.0366 11.488 885 92.9763 1333.33 474.481
402 0 79.1065 11.7057 926 94.1156 1333.43 473.734
