time division length width area intensity CMx CMy
0 0 51.0243 11.5827 591 148.276 1264.64 474.047
1 0 54.0614 12.4858 675 145.286 1265.24 471.751
2 0 54.0182 12.5884 680 146.094 1265.18 471.526
3 0 56.0466 12.5075 701 145.67 1266.01 471.068
4 0 58.035 12.4235 721 144.592 1265.66 470.616
5 0 59.0233 12.8593 759 143.538 1265.43 470.574
6 0 60.0136 13.9135 835 140.077 1264.51 469.558
7 0 60.0113 13.9474 837 152.214 1263.51 469.527
8 0 60.0176 13.9626 838 151.624 1262.48 469.564
9 0 63.0775 12.9999 820 142.751 1264.88 467.157
10 0 66.0465 13.3542 882 140.619 1265.2 466.861
11 0 69.0524 12.4398 859 139.651 1265.11 468.467
12 0 70.0507 12.391 868 139.69 1264.45 466.219
13 0 73.0452 13.0741 955 138.723 1264 464.791
14 0 75.1178 12.7932 961 138.086 1263.86 464.585
15 0 81.1525 12.877 1045 135.176 1263.4 464.298
16 1 42.0369 12.0608 507 137.012 1263.84 480.892
17 0 44.0383 12.7389 561 134.444 1263.5 480.344
18 0 45.0404 13.832 623 131.435 1262.1 479.682
19 0 45.0802 13.8198 623 132.305 1263.03 479.825
20 0 46.0757 14.563 671 132.148 1263.01 478.492
21 0 49.0269 13.2988 652 97.8098 1263.52 478.98
22 0 50.0399 14.3086 716 131.559 1262.51 478.013
23 0 51.0313 13.286 678 134.426 1262.74 478.181
24 0 52.0467 13.4687 701 133.862 1262.93 477.161
25 0 55.0249 14.9569 823 128.625 1262.65 476.676
26 0 56.0709 13.6256 764 132.194 1262.39 475.755
27 0 56.1033 13.0474 732 127.324 1261.45 477.43
28 0 58.0494 13.0062 755 129.416 1262.49 475.779
29 0 59.0393 12.6695 748 131.242 1261.52 476.404
30 0 63.0533 15.3045 965 122.328 1260.92 474.553
31 0 64.0352 12.9616 830 130.249 1261.98 473.949
32 0 68.0465 13.77 937 126.57 1262.31 472.825
33 0 69.0344 13.9641 964 124.282 1261.58 470.828
34 0 72.1072 13.3135 960 124.945 1261.7 469.962
35 0 73.0522 14.4691 1057 125.387 1261.86 468.718
36 0 76.051 13.8723 1055 126.178 1261.28 468.883
37 0 78.1237 13.2354 1034 128.496 1261.61 468.159
38 0 80.1135 13.5433 1085 127.925 1260.91 465.76
39 0 84.0826 13.2965 1118 128.463 1261.61 463.92
40 0 88.1142 14.345 1264 124.587 1262.28 462.29
41 0 91.1393 14.8015 1349 122.636 1261.42 460.974
42 0 94.0645 14.3093 1346 124.085 1260.92 458.567
43 0 95.1327 13.0975 1246 127.01 1261.47 457.878
44 0 101.14 13.7433 1390 123.643 1261.37 456.294
45 1 52.0469 13.411 698 125.533 1260.94 479.042
46 0 54.0507 14.2089 768 123.124 1260.6 479.126
47 0 56.053 13.184 739 122.958 1260.98 480.188
48 0 55.1146 13.4447 741 126.811 1261.52 477.211
49 0 59.0345 14.4322 852 122.184 1260.33 478.373
50 0 59.0591 12.9531 765 129.778 1259.77 477.067
51 0 63.0808 14.4576 912 125.138 1259.66 475.026
52 0 64.0304 13.3218 853 129.13 1259.78 474.583
53 0 66.0277 13.4792 890 127.38 1260.28 475.13
54 0 68.0537 13.7245 934 126.132 1260 474.96
55 0 71.052 13.4268 954 126.938 1259.51 473.322
56 0 75.0492 14.7637 1108 126.384 1259.24 471.021
57 0 77.0365 14.266 1099 127.672 1259.77 471.263
58 0 82.0365 15.0908 1238 125.651 1259.83 468.725
59 0 82.1739 14.0677 1156 129.917 1259.06 467.267
60 0 88.1847 15.9892 1410 122.447 1258.96 466.767
61 1 45.0539 12.2298 551 127.423 1259.55 488.336
62 0 47.1071 12.8218 604 126.752 1260.45 486.891
63 0 46.0402 12.4022 571 122.45 1260.27 483.35
64 0 46.0174 12.517 576 127.408 1259.57 485.061
65 0 49.032 13.1343 644 122.793 1259.2 487.079
66 0 49.0169 13.0567 640 125.827 1260.2 485.027
67 0 51.0277 13.9728 713 123.898 1259.57 482.199
68 0 53.1712 13.2967 707 125.296 1258.61 482.001
69 0 57.0208 13.5214 771 123.542 1259.17 481.003
70 0 59.0886 15.5022 916 118.606 1259 480.658
71 0 61.0274 14.1904 866 122.583 1259.41 479.792
72 0 62.0292 13.945 865 124.431 1259.15 478.303
73 0 63.0755 13.5235 853 127.63 1259.04 477.284
74 0 65.0536 14.0807 916 127.944 1259.89 475.848
75 0 67.0287 14.6654 983 125.648 1259.58 474.715
76 0 71.0436 13.5691 964 128.327 1259.81 475.067
77 0 73.0717 14.6979 1074 125.044 1259.52 473.41
78 0 76.0716 14.6704 1116 125.629 1259.29 471.863
79 0 77.0744 13.3767 1031 129.619 1259.41 471.518
80 0 81.0886 14.9343 1211 123.336 1259.56 470.144
81 0 83.1189 14.4612 1202 127.296 1259.39 467.78
82 0 86.0723 13.9185 1198 128.919 1258.53 466.489
83 0 89.0516 15.0587 1341 124.098 1259.04 464.746
84 0 90.2014 13.237 1194 127.611 1259.38 461.74
85 0 97.0685 14.2889 1387 124.609 1258.97 460.652
86 1 50.011 12.4972 625 124.621 1258.35 483.478
87 0 53.0382 12.3496 655 123.609 1258.37 483.198
88 0 56.0325 14.2239 797 116.024 1258.5 483.848
89 0 54.0342 12.0849 653 117.084 1258.61 483.662
90 0 56.0273 12.6902 711 115.316 1258.53 483.215
91 0 58.1405 13.8974 808 113.119 1257.97 481.15
92 0 59.0732 12.1036 715 116.968 1258.18 480.28
93 0 61.0482 13.1208 801 114.447 1258.56 477.885
94 0 63.0521 13.1003 826 113.057 1258.01 479.424
95 0 68.0283 13.8766 944 110.324 1258.39 478.028
96 0 68.0262 12.4364 846 114.797 1258.58 475.935
97 0 71.0429 13.9916 994 110.716 1257.76 474.552
98 0 75.0718 14.7592 1108 108.542 1257.41 474.335
99 0 76.0323 12.6657 963 114.477 1257.74 473.355
100 0 75.0969 12.0511 905 117.548 1258.11 471.636
101 0 79.107 12.1734 963 116.771 1258.14 471.588
102 0 82.1621 13.2056 1085 115.517 1258.34 469.74
103 0 84.1098 12.5669 1057 116.624 1258.14 468.595
104 0 88.0873 12.9076 1137 115.529 1257.88 465.406
105 0 91.0446 13.1035 1193 114.685 1258.29 466.308
106 0 95.1517 13.1474 1251 116.203 1257.85 461.122
107 0 100.076 13.8195 1383 113.207 1257.49 462.364
108 1 51.0221 11.5636 590 117.102 1257.62 484.636
109 0 55.0788 12.3641 681 115.186 1257.06 483.724
110 0 55.0636 12.7852 704 115.21 1257.59 481.683
111 0 58.098 13.1674 765 111.43 1256.96 481.708
112 0 62.0373 13.9593 866 108.487 1256.82 479.711
113 0 63.05 12.7835 806 111.236 1257.61 479.329
114 0 64.0574 12.6293 809 111.23 1258.03 479.167
115 0 67.0927 13.7422 922 108.551 1257.67 477.937
116 0 70.0703 13.9003 974 107.974 1257.88 473.179
117 0 72.0785 13.083 943 110.898 1258 474.935
118 0 75.0374 11.9274 895 114.965 1258.24 474.01
119 0 76.1176 12.5858 958 115.843 1259.12 471.504
120 0 79.0578 13.332 1054 114.919 1259.01 471.356
121 0 81.1859 13.2658 1077 116.233 1258.39 468.334
122 0 86.0853 13.0104 1120 114.33 1257.92 468.731
123 0 88.2541 12.7699 1127 115.385 1258.59 467.309
124 0 91.076 12.4072 1130 115.768 1258.71 466.734
125 0 95.0744 12.7269 1210 114.299 1258.44 464.389
126 1 49.067 11.4945 564 114.009 1259.02 485.784
127 0 52.0502 12.3919 645 117.025 1258.36 483.91
128 0 52.066 12.2921 640 118.614 1259.16 483.377
129 0 52.0848 11.3853 593 112.428 1258.48 484.094
130 0 54.0426 11.565 625 113.218 1257.89 483.104
131 0 56.0221 11.6204 651 112.948 1258.38 480.624
132 0 58.0907 11.7747 684 113.314 1257.46 479.306
133 0 61.0868 13.0634 798 110.028 1256.83 478.05
134 0 62.0631 12.729 790 111.222 1256.85 476.67
135 0 65.1382 12.4811 813 110.677 1257.24 477.681
136 0 67.0479 12.6328 847 111.858 1257.19 474.737
137 0 69.0575 12.6706 875 112.275 1257.27 473.482
138 0 72.069 13.4316 968 109.848 1257.54 473.814
139 0 75.0404 13.9125 1044 109.237 1257.92 472.104
140 0 79.0936 13.7938 1091 109.83 1256.84 472.252
141 0 80.0796 13.2993 1065 109.996 1257.34 469.657
142 0 84.1047 13.4713 1133 109.645 1257.23 468.359
143 0 84.0943 13.3541 1123 111.678 1257.82 466.933
144 0 87.1285 13.9449 1215 109.733 1257.67 466.378
145 0 91.0649 12.9139 1176 112.477 1257.78 463.75
146 0 93.1641 13.4494 1253 112.919 1258.1 462.382
147 0 97.0923 13.7704 1337 112.625 1258.17 459.125
148 0 102.249 12.851 1314 112.604 1258.2 461.006
149 0 104.136 12.8294 1336 113.293 1257.66 458.177
150 1 54.15 12.2807 665 107.036 1256.89 481.922
151 0 55.1176 12.7908 705 104.704 1257.41 480.488
152 0 57.0478 12.6736 723 112.618 1257.08 480.866
153 0 60.0264 12.4279 746 113.757 1257.09 478.001
154 0 62.0418 12.7172 789 113.246 1257.31 477.989
155 0 64.0844 12.3899 794 107.131 1257.87 478.106
156 0 66.0591 12.4131 820 105.394 1258.61 476.499
157 0 67.1085 11.7422 788 108.282 1258.01 475.973
158 0 68.0679 11.5914 789 107.904 1258.41 475.131
159 0 70.048 12.7912 896 106.436 1258.07 472.415
160 0 74.1052 11.7401 870 107.694 1257.02 472.829
161 0 77.0415 12.331 950 106.22 1256.97 470.387
162 0 77.0852 12.0386 928 106.188 1256.83 472.084
163 0 78.0605 10.8377 846 109.2 1256.85 469.565
164 0 82.0891 11.6459 956 107.597 1257.52 467.162
165 0 84.0641 12.0622 1014 107.093 1257.58 466.658
166 0 88.067 12.0476 1061 106.246 1257.69 464.611
167 0 91.1502 11.9912 1093 105.457 1257.58 464.4
168 0 93.1779 11.3332 1056 107.232 1257.24 461.185
169 0 95.0456 10.4897 997 107.721 1257.12 461.88
170 0 99.1191 12.7725 1266 104.607 1257.17 457.904
171 0 103.119 12.0637 1244 104.847 1257.18 458.272
172 0 105.1 10.999 1156 104.772 1257.71 454.942
173 0 109.137 12.2141 1333 104.739 1257.06 451.47
174 0 112.074 11.9653 1341 105.664 1257.62 450.448
175 0 117.106 12.8004 1499 103.737 1257.73 449.918
176 0 118.203 11.5479 1365 108.041 1257.8 445.4
177 0 122.154 11.6574 1424 107.02 1258.09 445.425
178 0 127.127 11.9408 1518 106.569 1258.29 441.784
179 0 133.075 12.0007 1597 107.244 1257.9 439.422
180 0 136.081 13.0584 1777 106.819 1257.24 439.589
181 0 139.152 11.2898 1571 112.625 1257.94 436.315
182 0 144.347 12.0127 1734 114.923 1257.68 432.762
183 0 151.185 13.123 1984 111.874 1257.83 428.789
184 0 154.278 12.996 2005 113.487 1257.96 428.56
185 0 159.222 12.1843 1940 116.604 1258.11 422.245
186 0 165.37 13.0133 2152 116.499 1258.57 418.069
187 0 171.413 13.7212 2352 115.52 1258.4 417.767
188 0 177.341 13.319 2362 116.619 1257.83 416.189
189 0 179.363 12.5723 2255 121.263 1258.23 409.538
190 0 189.355 14.6075 2766 116.033 1258.31 411.95
191 0 194.435 13.8658 2696 118.84 1257.71 406.29
192 0 203.431 13.3608 2718 118.912 1257.85 404.752
193 0 209.503 13.4843 2825 118.154 1258.54 397.457
194 0 215.46 12.8284 2764 121.214 1257.58 392.058
195 1 163.356 11.5454 1886 119.687 1258.12 421.536
196 0 165.413 11.3957 1885 126.721 1258.18 416.449
197 0 175.292 13.0981 2296 121.612 1258.96 413.592
198 0 181.511 12.732 2311 121.026 1257.81 415.712
199 0 187.422 13.2802 2489 122.622 1257.02 405.207
200 0 194.446 12.929 2514 123.305 1256.65 402.541
201 0 203.423 12.796 2603 123.168 1256.98 398.796
202 0 210.421 13.1118 2759 123.133 1257.15 394.821
203 1 52.1213 10.0151 522 101.937 1256 478.534
204 0 53.0728 10.7588 571 102.299 1258.39 479.643
205 0 54.0452 10.2877 556 98.536 1259.02 477.617
206 0 56.0253 11.0843 621 98.1498 1257.17 481.755
207 0 57.0532 10.832 618 99.2023 1257.76 480.752
208 0 55.0166 8.32476 458 104.574 1257.7 478.461
209 0 60.0707 11.1868 672 98.3036 1257.41 477.548
210 0 60.0932 8.65323 520 102.61 1257.11 479.16
211 0 62.0868 9.47061 588 103.427 1256.5 476.243
212 0 65.0497 10.2844 669 101.312 1256.44 473.81
213 0 66.084 10.986 726 100.818 1255.99 472.591
214 0 69.0846 11.4932 794 96.8413 1257.32 473.688
215 0 68.1136 9.93927 677 101.112 1257.87 469.753
216 0 70.1192 8.88487 623 102.942 1256.74 470.494
217 0 75.1105 10.2116 767 98.4785 1256.8 471.665
218 0 75.0931 10.6534 800 97.7875 1256.64 470.005
219 0 80.1083 9.7493 781 99.4814 1257.45 468.595
220 0 81.2111 9.99863 812 100.725 1257.37 466.15
221 0 80.204 10.0244 804 73.7027 1257.19 467.918
222 0 84.0925 10.5122 884 102.156 1257.59 459.403
223 0 86.1893 9.87362 851 103.179 1257.33 460.412
224 0 90.0863 8.51406 767 103.39 1257.54 462.43
225 0 94.164 11.0446 1040 100.487 1256.9 460.777
226 0 95.1079 10.4933 998 100.821 1256.63 460.88
227 0 99.1672 10.1041 1002 102.181 1256.4 455.619
228 0 99.0677 9.36734 928 103.431 1256.96 454.211
229 0 104.177 11.634 1212 99.0668 1257.15 450.857
230 0 105.2 8.92584 939 102.939 1257.39 454.457
231 0 109.221 10.6939 1168 99.8382 1257.82 450.082
232 0 111.214 10.1426 1128 99.3528 1257.94 445.777
233 0 118.182 10.7461 1270 97.4291 1257.98 441.525
234 0 119.119 10.3846 1237 97.2959 1258.51 440.265
235 0 126.127 11.4488 1444 94.4363 1258.67 436.801
236 0 128.274 10.7427 1378 96.0029 1258.76 434.693
237 1 75.0519 10.3129 774 91.2662 1258.46 469.585
238 0 75.1014 10.0264 753 90.7264 1257.56 466.939
239 0 80.1357 11.206 898 88.7283 1258.33 467.569
240 0 79.1272 10.7801 853 90.8019 1258.66 462.628
241 0 84.2465 12.226 1030 90.3262 1257.97 462.393
242 0 86.1936 11.4278 985 91.3574 1258 464.002
243 0 90.1622 11.7566 1060 89.6632 1258.05 460.724
244 0 93.2142 13.0452 1216 86.0732 1258.41 461.481
245 0 95.2327 11.0046 1048 89.9561 1258.84 459.102
246 0 99.1554 12.2837 1218 88.5 1258.59 454.821
247 0 104.125 12.2065 1271 89.0543 1258.57 454.083
248 0 107.265 11.7746 1263 98.0507 1257.95 453.922
249 1 57.1344 9.85396 563 95.4529 1258.31 476.504
250 0 60.0469 9.89227 594 96.3586 1258.83 476.707
251 0 62.0523 11.3775 706 88.6742 1258.57 477.194
252 0 62.1156 12.1064 752 86.141 1258.51 473.827
253 0 62.0738 10.0203 622 90.7379 1258.56 473.997
254 0 65.1563 11.5568 753 88.4993 1258.13 473.226
255 0 67.1677 11.2852 758 90.3997 1257.66 473.214
256 0 69.078 11.5087 795 90.3774 1258.36 470.409
257 0 72.0982 12.2333 882 89.3231 1258.43 472.075
258 0 74.1766 12.2141 906 88.926 1257.94 468.89
259 0 79.1304 13.9517 1104 85.0525 1258.33 468.635
260 0 80.2246 13.0509 1047 88.638 1258.43 467.818
261 0 87.3229 11.3029 987 97.078 1258.57 466.052
262 0 87.2934 12.1659 1062 96.8239 1258.3 463.853
263 1 46.0496 10.7493 495 92.0768 1259.45 486.038
264 0 45.1466 10.4327 471 94.2335 1258.43 483.749
265 0 49.0584 11.0684 543 90.8545 1259.63 484.497
266 0 48.1031 11.9119 573 90.3089 1259.64 482.637
267 0 49.0527 12.2725 602 90.5349 1258 482.369
268 0 51.0686 12.5322 640 89.9672 1257.25 481.175
269 0 53.0847 10.8506 576 93.4601 1258 479.955
270 0 54.0632 11.69 632 93.4161 1257.7 481.269
271 0 55.0811 12.2365 674 92.7433 1257.5 479.733
272 0 57.0625 13.1435 750 91.3173 1257.83 478.499
273 0 59.0658 14.2722 843 89.7367 1257.87 477.177
274 0 60.0687 12.6189 758 93.7968 1256.67 477.959
275 0 59.1721 11.5933 686 97.3411 1256.76 476.596
276 0 63.0904 14.4872 914 90.988 1256.88 474.387
277 0 63.2229 13.5078 854 93.8115 1257.56 474.543
278 0 66.1057 13.8415 915 93.3049 1257.24 474.296
279 0 66.2154 11.6287 770 98.3623 1256.89 473.171
280 0 71.228 13.5621 966 93.3375 1256.56 471.141
281 0 71.2154 12.7781 910 96.1945 1256.73 471.384
282 0 71.1012 12.222 869 99.9298 1256.94 467.415
283 0 78.1471 9.76364 763 101.904 1256.35 471.304
284 0 78.1394 11.4667 896 100.895 1256.85 467.141
285 0 80.1906 11.3106 907 101.696 1256.47 465.579
286 0 84.2222 12.0752 1017 100.266 1257.33 465.217
287 0 86.1334 11.4938 990 102.18 1256.99 461.457
288 0 90.275 12.761 1152 99.5278 1256.65 461.039
289 1 47.1135 11.1433 525 99.68 1257.19 483.051
290 0 48.1634 11.1703 538 99.5112 1256.88 480.402
291 0 47.0363 9.58834 451 98.4146 1258.66 484.317
292 0 51.1133 11.0147 563 93.9982 1258.23 484.597
293 0 52.1483 9.85651 514 97.5623 1258.32 482.412
294 0 54.1281 9.44057 511 96.8024 1258.3 482.885
295 0 56.0781 9.71859 545 96.3982 1258.87 482.301
296 0 55.1667 11.7281 647 95.8717 1258.29 478.533
297 0 58.1266 11.9566 695 94.9885 1258.57 479.515
298 0 62.1358 11.6519 724 94.2431 1258.99 479.073
299 0 62.1578 12.42 772 93.5259 1258.84 475.904
300 0 66.2011 13.2173 875 91.3097 1258.88 475.627
301 0 67.0606 11.3181 759 95.1107 1259.13 474.601
302 0 68.1034 12.0552 821 94.9026 1257.85 473.843
303 0 72.1368 14.5418 1049 89.9571 1258.2 471.75
304 0 73.0537 12.0733 882 96.2268 1258.65 469.46
305 0 75.0968 12.1576 913 97.9737 1258.84 467.228
306 0 80.314 12.9243 1038 95.4143 1259.21 469.22
307 0 81.2436 11.6194 944 98.571 1258.9 467.255
308 0 82.167 12.0486 990 99.2768 1258.98 465.085
309 0 86.2762 11.0575 954 101.065 1259.58 461.654
310 0 91.1522 11.5521 1053 99.925 1259.26 463.329
311 1 45.0818 10.8691 490 96.249 1260.11 483.857
312 0 48.0522 11.4875 552 94.2591 1259.01 484.353
313 0 50.0879 12.2984 616 94.289 1258.73 483.14
314 0 51.0696 11.3375 579 98.7219 1258.42 481.834
315 0 52.043 11.7979 614 95.9902 1258.24 481.699
316 0 54.0467 13.5623 733 91.4106 1257.67 480.846
317 0 56.1067 12.8862 723 91.5297 1258.06 478.082
318 0 57.0777 12.8422 733 91.9154 1259.14 479.375
319 0 57.0647 11.1628 637 95.6217 1258.9 477.984
320 0 62.0568 12.2468 760 92.129 1257.94 477.189
321 0 62.2029 11.575 720 92.5167 1257.57 472.717
322 0 63.1384 10.675 674 95.0074 1257.65 472.368
323 0 65.2336 11.0066 718 94.0111 1257.67 472.036
324 0 68.0827 11.3098 770 94.5935 1257.8 468.777
325 0 69.2417 10.745 744 95.8562 1257.93 468.538
326 0 73.2185 10.4618 766 96.1449 1258.29 467.162
327 0 77.166 11.5336 890 94.3371 1258.41 467.197
328 0 80.0908 12.5732 1007 92.7786 1258.43 465.726
329 0 81.0951 11.7146 950 95.0568 1258.68 463.457
330 0 87.107 11.9853 1044 94.9033 1258.17 464.532
331 0 88.1506 12.524 1104 102.887 1257.74 464.011
332 0 90.1823 12.0977 1091 104.635 1258.07 462.05
333 0 94.3001 13.6373 1286 101.384 1256.88 459.953
334 0 97.1597 11.7024 1137 104.79 1257.06 460.643
335 1 49.0368 11.889 583 91.6964 1258.49 482.106
336 0 51.1416 10.8522 555 97.0504 1257.78 483.483
337 0 55.1141 13.2452 730 90.2712 1258.5 482.801
338 0 54.1812 11.4984 623 93.8652 1257.28 480.812
339 0 57.1396 13.6683 781 89.8233 1256.66 478.985
340 0 57.1524 13.1753 753 92.1846 1257.21 477.635
341 0 58.1441 11.7467 683 94.7262 1257.26 479.035
342 0 62.0779 12.4521 773 92.9056 1257.29 476.273
343 0 65.1095 13.1624 857 90.7853 1257.34 476.59
344 0 65.1308 12.9125 841 92.8514 1257.91 473.853
345 0 67.159 11.778 791 94.9406 1258.41 474.721
346 0 72.1427 12.7664 921 93.1379 1258.56 472.945
347 0 72.115 12.7297 918 94.8355 1258.41 472.743
348 0 76.0905 12.7348 969 95.259 1257.79 471.408
349 0 78.1436 13.5136 1056 94.6496 1258.23 471.048
350 0 80.1614 12.2129 979 98.1685 1257.65 470.224
351 0 83.1025 12.0935 1005 98.8736 1257.72 467.615
352 1 43.1123 10.6002 457 101.118 1258.7 487.096
353 0 46.087 11.4566 528 100.08 1257.94 486.004
354 0 46.0862 11.1313 513 102.702 1258.33 484.246
355 0 49.0449 12.6211 619 100.782 1259.04 483.132
356 0 51.017 12.4664 636 100.717 1259.06 483.52
357 0 52.0284 12.128 631 102.477 1258.47 482.331
358 0 54.0233 12.1244 655 102.235 1258.98 480.69
359 0 54.0767 13.2405 716 100.451 1260.03 480.906
360 0 56.1292 12.7206 714 102.011 1259.22 479.758
361 0 57.0631 11.0054 628 105.126 1259.46 479.083
362 0 60.0606 12.5373 753 101.479 1259.27 478.373
363 0 63.0418 12.8486 810 100.764 1258.47 476.663
364 0 62.0816 13.0151 808 101.769 1258.65 476.688
365 0 65.0803 11.9237 776 103.228 1258.56 473.25
366 0 67.0768 11.9415 801 103.312 1259.09 474.386
367 0 70.1066 12.6807 889 101.69 1258.43 472.538
368 0 68.1799 11.587 790 105.635 1258.6 471.69
369 0 76.1401 12.6609 964 102.643 1258.52 469.019
370 0 77.1863 12.4245 959 103.861 1257.59 468.511
371 0 78.1331 11.4548 895 106.232 1257.65 465.665
372 1 44.0563 10.6682 470 100.068 1257.94 486.838
373 0 44.08 11.706 516 97.6938 1258.12 488.083
374 0 46.0674 12.829 591 95.3316 1257.76 485.091
375 0 47.0572 11.4117 537 95.6685 1257.3 486.898
376 0 49.0441 11.7649 577 101.149 1256.33 483.426
377 0 49.0183 13.2808 651 100.003 1257.05 480.869
378 0 50.0225 11.5548 578 104.458 1256.75 480.503
379 0 53.0831 12.1508 645 101.54 1257.19 481.758
380 0 57.0486 11.832 675 101.948 1256.59 480.627
381 0 56.1096 12.4934 701 103.288 1256.79 478.499
382 0 58.0688 11.8652 689 104.681 1257.36 477.588
383 0 59.1057 10.9803 649 106.442 1257.54 477.419
384 0 61.1372 11.5478 706 105.21 1257.87 478.653
385 0 64.1108 12.4628 799 103.816 1258.13 475.154
386 0 65.0467 12.6832 825 103.739 1257.59 475.674
387 0 65.0495 12.0062 781 102.128 1258.15 475.987
388 0 68.1266 11.8896 810 101.512 1257.59 477.195
389 0 70.0795 11.2444 788 105.322 1257.09 473.756
390 0 72.1007 11.692 843 104.67 1257.64 471.898
391 0 74.1505 10.8024 801 104.995 1257.46 472.765
392 0 78.0614 10.274 802 106.833 1257.63 470.8
393 0 82.2788 11.8621 976 102.061 1258.51 471.332
394 1 44.0856 10.3662 457 100.591 1258.86 487.368
395 0 43.0655 10.635 458 99.8319 1259.32 486.943
396 0 46.1478 11.3548 524 98.2557 1259.19 485.49
397 0 47.0612 10.7732 507 97.7219 1259.14 484.98
398 0 47.0659 11.9619 563 96.5311 1258.35 484.213
399 0 50.1267 11.6305 583 96.6021 1257.74 485.34
400 0 52.0457 11.4707 597 97.2714 1257.57 483.652
401 0 53.0567 11.8929 631 96.8685 1258.97 481.407
402 0 55.1304 12.933 713 94.7153 1259.12 480.752
