time division length width area intensity CMx CMy
0 0 34.0248 12.9611 441 126.138 1340.48 481.302
1 0 36.0323 13.0161 469 123.829 1341.16 479.955
2 0 38.0491 14.0871 536 119.483 1341.21 480.644
3 0 37.0272 12.5853 466 125.865 1341.91 480.165
4 0 36.0066 12.2755 442 130.579 1341.82 480.55
5 0 38.0132 12.1274 461 129.987 1341.07 481.271
6 0 41.0088 13.6312 559 122.991 1340.21 480.585
7 0 41.0206 13.6517 560 147.821 1340.18 480.525
8 0 41.019 13.6278 559 147.404 1339.2 480.528
9 0 43.0539 13.0999 564 124.929 1340.6 480.399
10 0 44.0527 12.8937 568 127.428 1340.65 479.213
11 0 44.0611 13.1181 578 126.118 1340.49 479.483
12 0 46.0189 12.4297 572 127.138 1340.17 479.385
13 0 48.0604 13.3374 641 124.752 1339.93 477.802
14 0 49.0614 12.9633 636 125.645 1339.98 477.533
15 0 49.0726 13.0419 640 127.22 1339.66 477.694
16 0 51.037 13.5392 691 124.042 1339.65 479.221
17 0 52.0365 13.0101 677 127.306 1339.48 477.886
18 0 53.0631 13.4745 715 125.429 1338.2 477.594
19 0 55.0525 13.478 742 123.666 1339.3 475.747
20 0 56.0617 12.9857 728 125.139 1339.04 475.023
21 0 60.0748 13.3667 803 85.8008 1338.65 473.725
22 0 61.0369 13.6966 836 119.834 1337.88 475.118
23 0 63.0253 13.7564 867 119.454 1337.99 473.476
24 0 66.0607 13.2605 876 118.815 1338.13 473.292
25 0 68.0869 12.9834 884 120.769 1338.13 469.816
26 0 71.1021 12.7282 905 119.012 1337.88 470.155
27 0 74.1073 13.0486 967 119.401 1337.32 467.999
28 1 37.0456 11.1484 413 127.908 1338.61 484.38
29 0 41.0564 13.2988 546 120.231 1337.67 484.333
30 0 41.0475 12.4733 512 120.992 1337.05 484.934
31 0 42.0496 12.4615 524 125.179 1337.88 483.664
32 0 44.0099 11.9064 524 118.555 1338.39 484.46
33 0 44.0524 12.3489 544 119.733 1337.31 483.748
34 0 47.0312 12.2259 575 117.565 1337.54 483.838
35 0 48.1077 13.5321 651 115.187 1337.61 481.656
36 0 51.0757 13.2548 677 114.412 1337.06 482.449
37 0 50.0583 12.2257 612 118.827 1337.59 481.809
38 0 54.0457 13.3591 722 114.737 1337.09 480.008
39 0 55.0869 12.3804 682 117.685 1337.39 479.166
40 0 58.0256 12.9943 754 115.529 1338.18 478.916
41 0 59.0979 13.8584 819 115.503 1337.4 477.719
42 0 59.0979 13.8414 818 148.979 1336.41 477.702
43 0 63.1334 13.3844 845 116.277 1337.66 474.886
44 0 65.0837 13.644 888 116.775 1337.52 473.6
45 0 67.0764 13.2088 886 117.579 1336.46 475.389
46 0 69.0296 13.5015 932 120.279 1336.12 473.241
47 0 71.0508 13.4129 953 121.581 1336.53 470.241
48 0 73.0948 14.2144 1039 119.734 1336.99 467.316
49 0 75.0321 14.2339 1068 118.878 1336.66 467.502
50 0 79.0619 14.495 1146 118.937 1336.1 465.176
51 0 82.0447 13.4926 1107 120.517 1335.97 465.532
52 0 85.1004 13.819 1176 119.637 1336.1 463.711
53 0 87.0914 13.9623 1216 119.084 1336.53 464.257
54 0 92.1889 14.4377 1331 117.916 1336.3 460.95
55 0 94.0604 14.2781 1343 118.637 1335.76 461.494
56 0 96.1926 14.6061 1405 118.668 1335.65 459.629
57 0 101.5 15.5764 1581 117.278 1335.52 454.638
58 0 104.324 14.9822 1563 120.495 1335.65 450.122
59 0 106.183 14.588 1549 120.931 1334.93 451.334
60 0 113.193 14.9303 1690 118.527 1335.31 450.462
61 1 58.0441 13.4036 778 115.482 1335.67 477.688
62 0 62.1556 13.4662 837 116.609 1336.27 476.303
63 0 62.1022 13.2684 824 113.087 1336.07 474.042
64 0 61.1048 12.1594 743 115.655 1335.03 476.747
65 0 64.0531 13.161 843 112.983 1334.94 475.86
66 0 68.0801 12.6909 864 113.214 1335.91 474.104
67 0 71.1188 13.4282 955 114.04 1335.17 472.679
68 0 74.0686 14.095 1044 112.823 1334.55 471.741
69 0 79.107 14.0443 1111 111.275 1334.94 471.735
70 0 79.0641 13.293 1051 116.593 1334.83 469.432
71 0 83.0708 14.0001 1163 114.666 1335.07 468.107
72 0 86.0489 14.9566 1287 112.556 1334.77 465.915
73 0 87.1663 13.7209 1196 115.874 1334.82 464.591
74 0 89.1217 14.0258 1250 115.538 1335.38 462.556
75 0 92.1119 13.6899 1261 114.001 1335.19 464.3
76 0 96.1011 13.7043 1317 114.663 1335.34 460.291
77 0 101.108 14.9642 1513 111.314 1335.22 459.393
78 0 104.134 15.701 1635 111.741 1335.15 455.558
79 1 55.0554 12.5873 693 110.411 1335.02 480.69
80 0 58.0726 14.0169 814 103.92 1335.65 480.168
81 0 57.0882 11.7888 673 103.067 1335.67 479.984
82 0 61.1193 11.6657 713 101.872 1335.5 480.496
83 0 61.1125 12.1252 741 101.8 1335.85 478.004
84 0 63.1121 11.3607 717 102.798 1336.1 476.413
85 0 67.0802 11.4192 766 101.556 1335.95 476.783
86 0 67.1313 11.4701 770 103.816 1335.07 474.631
87 0 72.1688 12.5123 903 103.313 1334.92 472.146
88 0 77.2907 13.0934 1012 104.303 1335.04 471.434
89 0 79.2315 12.0785 957 106.34 1335.08 470.575
90 0 81.0805 12.4568 1010 106.704 1335 468.838
91 0 85.1331 12.1574 1035 106.713 1334.4 467.69
92 1 42.0332 10.9675 461 99.0347 1335.06 489.473
93 0 43.0301 11.9451 514 98.2451 1335.53 488.712
94 0 45.0529 12.0969 545 99.2294 1335.24 487.565
95 0 43.0305 11.1549 480 102.058 1335.23 487.965
96 0 46.025 11.7545 541 99.9372 1334.78 487.786
97 0 45.0188 12.4837 562 100.16 1334 487.674
98 0 47.0363 11.5018 541 102.54 1333.54 486.087
99 0 48.015 10.8508 521 103.929 1333.69 486.388
100 0 50.0204 13.0947 655 99.5374 1333.79 483.931
101 0 51.0298 13.11 669 99.4111 1333.93 485.211
102 0 52.0375 11.2035 583 103.362 1334.08 484.269
103 0 56.033 12.1535 681 100.883 1333.99 482.562
104 0 56.0633 11.6654 654 103.468 1333.72 481.78
105 0 58.0452 11.7667 683 101.488 1334.43 479.966
106 0 60.119 11.8764 714 101.19 1333.96 479.409
107 0 62.0335 12.2998 763 99.6212 1333.58 477.68
108 0 63.0451 12.3721 780 99.4769 1334.08 476.858
109 0 66.1057 11.6631 771 100.678 1333.47 476.879
110 0 67.0398 12.3956 831 100.32 1334.03 475.377
111 0 71.0643 12.6224 897 101.223 1333.57 473.88
112 0 75.0569 14.0294 1053 99.5688 1333.4 472.155
113 0 79.1125 13.6135 1077 100.244 1334.37 471.907
114 0 80.0967 12.4475 997 106.655 1334.83 469.348
115 0 82.0678 12.7212 1044 107.118 1334.22 467.096
116 0 85.0925 13.0329 1109 105.905 1334.26 465.652
117 0 88.1326 12.9464 1141 106.076 1334.24 462.947
118 0 93.0811 13.3217 1240 105.26 1334.43 461.046
119 0 95.0722 12.5694 1195 105.192 1335.09 464.485
120 1 48.0953 11.0614 532 101.731 1335.34 484.466
121 0 52.0829 12.7489 664 95.7952 1335.03 483.443
122 0 52.0706 12.8287 668 99.265 1332.77 483.397
123 0 51.0571 12.3979 633 95.1675 1334.53 484.084
124 0 53.0476 12.9695 688 94.343 1334.64 481.988
125 0 52.0851 11.2508 586 97.9573 1334.71 481.012
126 0 54.0658 11.8374 640 97.0891 1334.72 479.683
127 0 58.0724 11.6579 677 96.7873 1334.44 479.501
128 0 60.0685 12.3359 741 95.2969 1334.9 478.835
129 0 62.0594 12.7458 791 95.7257 1333.9 476.93
130 0 63.0283 11.1696 704 99.9162 1332.85 475.392
131 0 67.1461 12.927 868 96.735 1333.68 474.499
132 0 67.0878 10.3745 696 98.8247 1333.6 475.009
133 0 71.0926 12.5611 893 96.7772 1332.81 470.327
134 0 76.083 12.8675 979 95.5026 1332.75 472.916
135 0 77.0621 13.1582 1014 99.644 1333.15 469.479
136 0 78.0956 11.9725 935 101.788 1333.01 467.298
137 0 81.1136 10.9106 885 105.053 1333.15 464.686
138 0 87.2437 14.3965 1256 97.2731 1333.64 462.56
139 0 90.197 13.1712 1188 98.8721 1333.91 463.737
140 1 47.083 10.216 481 99.4241 1332.96 484.553
141 0 49.1761 11.5097 566 94.4982 1334.21 483.042
142 0 45.0547 9.76591 440 93.6977 1334.28 478.907
143 0 47.0259 9.54794 449 93.5724 1334.97 477.595
144 0 49.0313 9.56531 469 93.3945 1334.66 477.026
145 0 51.0501 10.7933 551 92.3702 1334.83 475.501
146 0 53.044 10.972 582 92.3986 1335.12 474.594
147 0 56.0768 10.3608 581 92.494 1335.25 475.654
148 0 54.038 10.1225 547 96.415 1335.18 477.477
149 0 59.0524 11.5829 684 93.5161 1334.61 478.99
150 0 61.0393 12.6148 770 91.4143 1334.11 479.54
151 0 63.1464 12.2889 776 93.2461 1333.98 476.774
152 0 66.0502 12.0666 797 94.1016 1334.56 475.578
153 0 68.0328 12.6704 862 93.732 1334.73 475.461
154 0 71.0752 13.6757 972 92.3261 1334.8 475.73
155 0 73.0921 11.7249 857 98.783 1335.21 470.867
156 0 76.0704 12.9091 982 96.8758 1335.38 467.556
157 0 79.0974 12.4783 987 97.5775 1335.42 466.888
158 0 82.0863 12.9011 1059 97.1822 1335.42 466.178
159 1 39.0098 10.8691 424 97.6792 1335.47 487.333
160 0 42.0271 10.7074 450 97.7556 1333.74 487.273
161 0 43.0359 13.175 567 92.0335 1332.92 486.406
162 0 40.0392 10.4148 417 96.1319 1332.76 487.827
163 0 43.1034 11.4376 493 93.3002 1333.8 486.828
164 0 44.0201 11.7901 519 93.3545 1334.57 485.202
165 0 45.0558 11.5634 521 93.4914 1334.61 486.292
166 0 48.0127 11.8094 567 92.3951 1334.8 485.115
167 0 50.0276 11.1938 560 94.4518 1334.48 483.395
168 0 51.0543 11.9872 612 94.1977 1334.16 482.724
169 0 52.0236 12.3213 641 94.0343 1334 481.93
170 0 53.0957 11.677 620 96.3419 1333.87 480.782
171 0 57.0911 13.7149 783 92.2376 1333.92 479.12
172 0 58.0489 13.3508 775 94.3458 1333.75 478.142
173 0 59.1489 12.6122 746 95.933 1332.78 480.692
174 0 61.0265 11.962 730 98.9712 1333.1 478.727
175 0 63.0952 12.3623 780 98.7987 1333.49 476.877
176 0 65.0675 13.2939 865 99.2566 1333.28 474.955
177 0 70.0382 13.7354 962 97.6289 1333.69 474.115
178 0 71.1327 12.5681 894 101.772 1334.11 474.185
179 0 74.0629 13.313 986 102.027 1333.78 471.828
180 0 78.1393 13.9239 1088 102.568 1333.07 471.88
181 0 79.0832 13.7956 1091 105.192 1333.75 467.456
182 0 82.0774 15.6072 1281 102.693 1333.11 467.517
183 0 85.2138 14.4225 1229 105.965 1333.41 464.659
184 0 90.0907 13.7639 1240 107.515 1333.37 465.381
185 1 45.1547 12.136 548 105.796 1333.4 484.635
186 0 47.0142 12.9323 608 104.584 1333.61 484.058
187 0 50.1108 12.3925 621 106.694 1334.31 483.119
188 0 47.0557 12.7721 601 103.443 1333.37 484.356
189 0 51.0729 12.6486 646 101.173 1334.54 482.22
190 0 52.0755 12.6355 658 101.881 1334.83 481.498
191 0 52.0762 11.8672 618 103.804 1334.39 482.251
192 0 55.0782 12.3461 680 101.496 1334.42 480.76
193 0 58.0718 13.3111 773 100.133 1335.08 479.419
194 0 59.0612 12.3431 729 101.926 1334.79 480.13
195 0 61.1687 13.144 804 100.597 1335.08 477.823
196 0 63.1103 13.6269 860 99.7791 1335.07 476.73
197 0 64.0577 12.4575 798 102.843 1335.95 474.868
198 0 68.1042 13.1857 898 100.011 1334.84 475.638
199 0 71.0374 14.8373 1054 97.3359 1333.34 472.721
200 0 74.0503 13.0317 965 102.918 1333.28 472.127
201 0 77.0527 13.7179 1057 103.029 1333.94 469.181
202 0 83.1213 13.6788 1137 102.642 1333.91 469.724
203 0 83.1125 13.1749 1095 106.176 1333.84 465.358
204 1 42.1116 9.85477 415 109.612 1333.91 486.031
205 0 46.2081 13.0064 601 101.937 1332.82 483.83
206 0 44.0042 10.2263 450 99.6844 1333.81 480.904
207 0 42.0617 9.46228 398 103.543 1334.22 480.339
208 0 45.02 10.3287 465 99.9505 1334.06 479.832
209 0 47.0148 11.3369 533 99.4634 1332.73 479.231
210 0 48.0369 12.9276 621 96.3494 1332.74 478.407
211 0 49.0565 11.13 546 101.489 1333.07 477.694
212 0 51.0809 11.0413 564 100.613 1333.07 478.082
213 0 53.0413 11.1045 589 103.295 1332.67 475.9
214 0 55.0267 11.2127 617 102.047 1333.11 476.011
215 0 56.0277 11.2266 629 104.533 1333.68 472.901
216 0 59.0341 11.7559 694 97.2853 1332.84 475.563
217 0 61.0396 12.2871 750 103.792 1332.7 476.072
218 0 63.0707 11.5902 731 104.784 1332.35 478.534
219 0 65.0919 12.5822 819 103.713 1333.2 474.48
220 0 70.0535 13.0472 914 100.941 1333.02 474.453
221 0 78.2476 15.1187 1183 66.6433 1332.93 476.762
222 0 75.059 12.6301 948 104.403 1333.37 471.834
223 0 78.2255 13.4739 1054 104.263 1333.32 470.907
224 1 43.0225 10.6456 458 103.269 1333.22 488.448
225 0 42.0404 10.8229 455 103.69 1332.29 486.787
226 0 44.0759 13.7944 608 96.0576 1332.03 487.245
227 0 46.0267 13.4922 621 96.1642 1332.3 485.359
228 0 47.0368 12.267 577 100.586 1332.71 484.908
229 0 47.0976 10.8286 510 102.853 1332.66 486.073
230 0 48.0453 10.8855 523 104.27 1332.96 484.18
231 0 51.0274 12.8558 656 99.3399 1333.29 482.322
232 0 53.1134 11.9556 635 100.587 1333.39 483.368
233 0 52.0356 10.4159 542 105.574 1333.39 483.094
234 0 54.0459 11.2682 609 104.532 1333.89 481.305
235 0 57.0588 12.0928 690 101.767 1334.1 481.171
236 0 58.108 11.6163 675 104.794 1333.74 479.692
237 0 62.029 12.736 790 101.814 1333.16 478.856
238 0 60.0494 9.65872 580 105.022 1333.98 479.398
239 0 64.0651 11.8317 758 100.574 1334.64 477.967
240 0 69.0822 13.1582 909 97.1452 1335.22 475.393
241 0 71.089 11.7177 833 99.8559 1334.68 474.827
242 0 72.0732 12.1682 877 101.925 1334.12 471.986
243 0 75.0905 12.9977 976 100.602 1334.3 471.34
244 0 79.0454 13.954 1103 97.874 1334.34 469.321
245 0 79.0977 12.6299 999 101.641 1334.79 467.508
246 0 82.0952 11.9374 980 104.415 1334.74 464.462
247 0 88.1878 13.029 1149 101.627 1334.74 464.386
248 1 45.0142 10.2634 462 101.994 1335.21 484.364
249 0 48.0493 11.1552 536 99.1698 1335.21 484.595
250 0 48.0508 10.8427 521 101.426 1335.28 482.739
251 0 50.0665 10.9255 547 98.1901 1334.16 484.728
252 0 49.0782 9.29129 456 100.987 1334.89 484.989
253 0 53.0391 10.6337 564 98.8014 1334.81 482.692
254 0 52.0552 10.2391 533 99.9456 1334.45 481.383
255 0 55.0633 10.5152 579 97.6839 1334.23 482.409
256 0 57.0788 12.1586 694 94.9625 1334.77 481.424
257 0 58.0447 11.3189 657 96.9817 1334.74 478.297
258 0 60.0612 11.6215 698 96.2364 1333.76 477.554
259 0 59.0445 11.1272 657 97.9467 1333.96 477.726
260 0 61.0168 10.6364 649 98.6487 1334.1 477.19
261 0 64.031 12.2909 787 95.1296 1333.8 475.086
262 0 66.1142 10.9507 724 100.67 1333.24 472.939
263 0 71.0866 12.3652 879 99.2014 1333.79 472.345
264 0 73.232 11.9347 874 101.106 1332.84 471.659
265 0 78.0476 11.8774 927 101.864 1333.95 469.638
266 0 80.1278 12.6173 1011 100.989 1334.56 468.697
267 0 82.0476 14.0894 1156 100.561 1335.53 466.703
268 1 45.0385 11.8787 535 102.08 1335.33 484.047
269 0 47.0444 12.2863 578 100.874 1335.81 484.946
270 0 47.0397 12.33 580 102.603 1335.03 483.993
271 0 49.1198 11.6857 574 103.974 1334.64 482.636
272 0 47.021 11.9308 561 96.9144 1335.24 484.353
273 0 48.0246 9.80748 471 100.673 1335.28 484.119
274 0 49.0339 9.74836 478 100.787 1334.13 485.159
275 0 52.0822 11.405 594 98.3131 1334.13 481.992
276 0 53.0218 11.3916 604 99.1358 1333.97 480.25
277 0 56.0992 11.1053 623 99.0225 1334.44 481.31
278 0 56.0322 13.6886 767 95.1447 1334 480.056
279 0 58.1248 12.2667 713 97.216 1333.87 480.328
280 0 61.034 12.3046 751 97.2091 1333.41 476.794
281 0 61.042 10.7139 654 100.679 1333.54 475.954
282 0 64.0852 11.8124 757 98.5773 1333.75 475.301
283 0 68.0417 13.2713 903 95.2802 1333.28 475.495
284 0 69.0967 11.6214 803 99.0934 1333.68 473.971
285 0 73.0956 12.9009 943 96.6734 1333.56 471.768
286 0 75.0854 12.9586 973 97.8366 1334.13 470.767
287 0 77.0621 12.73 981 99.8287 1333.91 468.128
288 0 80.0461 14.0794 1127 98.4312 1333.6 466.503
289 0 83.0868 13.865 1152 97.8168 1334.2 465.441
290 0 84.121 14.0036 1178 100.525 1333.75 465.832
291 0 88.1358 15.3286 1351 98.4626 1333.92 463.756
292 0 90.0788 14.3874 1296 101.66 1333.35 461.562
293 0 92.1126 13.896 1280 103.879 1333.76 461.983
294 0 94.1077 13.814 1300 105.458 1333.74 458.968
295 0 97.2688 12.8201 1247 107.65 1334.29 458.019
296 0 100.259 13.1758 1321 109.46 1333.94 453.413
297 0 103.264 14.3903 1486 106.666 1334.06 451.62
298 0 105.197 13.9548 1468 107.779 1334.36 450.495
299 1 56.3343 12.5146 705 104.304 1333.99 476.6
300 0 57.3878 12.9121 741 103.899 1334.37 476.057
301 0 60.1866 13.2255 796 102.352 1334.54 475.416
302 0 61.0457 13.4981 824 103.302 1333.84 474.292
303 0 64.0488 14.2079 910 101.351 1333.47 475.108
304 0 64.031 13.0249 834 104.596 1333.81 474.04
305 0 66.0427 12.1588 803 107.527 1334.16 470.844
306 0 70.0539 14.0321 983 101.412 1334.08 466.724
307 0 69.1454 12.7991 885 106.536 1333.71 465.644
308 0 73.0562 13.209 965 106.342 1333.81 464.009
309 0 76.0962 13.2727 1010 105.64 1334.66 462.833
310 0 78.077 13.2818 1037 106.967 1334.46 459.124
311 0 81.0976 13.6626 1108 105.902 1334.45 459.602
312 0 83.1208 13.0774 1087 107.46 1334.1 459.108
313 0 88.0766 13.4315 1183 106.788 1333.96 455.785
314 0 89.0461 14.1163 1257 105.609 1333.72 453.989
315 0 93.0891 15.3187 1426 103.594 1333.01 454.037
316 0 97.0812 13.978 1357 105.893 1332.32 453.671
317 1 51.0599 10.8892 556 101.077 1332.83 477.255
318 0 54.0658 10.9866 594 101.059 1333.68 476.306
319 0 58.0773 12.9827 754 102.716 1333.69 477.853
320 0 60.1578 14.0464 845 100.143 1333.39 477.118
321 0 61.0424 12.5814 768 102.905 1333.44 477.956
322 0 62.1019 13.0592 811 103.369 1333.55 473.547
323 0 67.0835 13.4608 903 101.251 1333.59 473.38
324 0 68.0329 14.0373 955 100.506 1333.78 473.315
325 0 72.081 14.2895 1030 99.6058 1334.04 471.577
326 0 74.1457 13.433 996 101.468 1334.37 471.523
327 0 75.1184 12.0743 907 103.869 1334.56 470.712
328 0 78.1801 12.8549 1005 103.124 1334.69 468.513
329 0 82.1696 13.5086 1110 101.523 1334.86 466.499
330 0 84.1453 13.0013 1094 102.773 1334.2 465.903
331 0 87.1288 12.6824 1105 104.149 1333.78 464.419
332 0 91.2593 14.4972 1323 100.738 1334.12 462.698
333 0 92.1951 14.35 1323 101.346 1333.54 462.593
334 0 95.3112 13.8913 1324 103.078 1333.44 458.476
335 0 99.2428 13.4115 1331 103.174 1334.46 458.988
336 0 101.227 12.4868 1264 106.388 1333.61 457.267
337 1 54.1172 12.0479 652 99.5997 1334.92 480.739
338 0 58.0779 12.5349 728 96.6593 1334.24 481.801
339 0 56.0776 11.0561 620 95.5548 1332.47 480.166
340 0 58.0604 12.3664 718 94.1866 1333.21 478.162
341 0 59.0953 10.7792 637 96.8823 1333.46 478.223
342 0 60.046 10.9416 657 97.0898 1333.39 478.269
343 0 64.0978 11.8413 759 95.1331 1333.33 478.038
344 0 67.1107 12.606 846 94.4634 1333.86 475.896
345 0 70.0574 11.2479 788 96.5203 1334 476.294
346 0 71.0663 11.2993 803 97.3474 1334.81 475.722
347 0 71.0332 11.7973 838 100.444 1334.06 471.173
348 0 76.0681 13.2776 1010 98.8901 1333.36 470.135
349 0 79.1622 12.0891 957 103.136 1333.8 470.123
350 0 81.2027 12.9676 1053 106.762 1332.85 468.547
351 0 84.0433 12.8148 1077 108.224 1332.9 467.153
352 0 85.1431 12.5671 1070 109.469 1333.81 465.683
353 0 90.0894 14.1193 1272 105.87 1333.54 465.065
354 0 94.0633 13.7992 1298 107.992 1333.93 463.699
355 0 95.0368 12.7214 1209 111.666 1333.98 461.615
356 0 99.08 13.9584 1383 109.309 1334.55 460.519
357 0 100.107 13.096 1311 113.119 1333.87 459.631
358 0 105.134 13.2022 1388 113.202 1334.37 456.721
359 0 106.144 13.9622 1482 112.557 1334.95 456.954
360 0 110.067 13.6917 1507 114.349 1334.41 454.672
361 0 115.134 14.2877 1645 111.694 1334.44 452.716
362 0 117.126 14.5996 1710 111.034 1333.96 450.373
363 0 121.188 14.7456 1787 111.384 1333.4 449.184
364 0 125.199 15.2558 1910 111.572 1333.43 444.919
365 0 129.179 14.4219 1863 113.537 1333.63 442.068
366 0 135.211 14.8213 2004 111.937 1334.52 440.146
367 0 139.268 15.2799 2128 110.068 1334.19 437.514
368 0 143.11 13.4512 1925 113.684 1334.56 436.237
369 1 77.061 11.7959 909 108.024 1335.12 469.99
370 0 80.0568 12.3537 989 110.234 1334.91 469.454
371 0 83.0676 12.7366 1058 105.572 1334.71 468.771
372 0 86.1079 13.9476 1201 107.436 1335.27 465.077
373 0 88.3167 12.8628 1136 109.113 1335.48 464.717
374 0 92.1087 12.8978 1188 108.363 1334.86 462.944
375 0 94.1063 13.3466 1256 107.518 1334.02 461.667
376 0 97.0478 13.1997 1281 106.978 1334.07 460.65
377 0 99.0856 12.2924 1218 105.894 1333.35 458.609
378 0 104.139 14.4903 1509 99.8469 1333.37 459.916
379 0 104.073 12.4336 1294 104.464 1333.52 455.835
380 0 110.058 13.4475 1480 101.924 1333.03 453.808
381 0 113.177 13.7307 1554 101.592 1332.7 450.263
382 1 57.1035 10.1745 581 100.503 1334.64 481.833
383 0 59.1586 11.7988 698 97.8324 1333.94 476.676
384 0 60.0882 11.6828 702 94.9003 1333.82 474.066
385 0 61.0312 10.9452 668 101.795 1336.15 476.25
386 0 65.2087 11.4862 749 101.166 1334.99 473.263
387 0 66.0793 11.7889 779 100.304 1334.75 473.422
388 0 68.0413 10.6553 725 104.16 1332.84 473.949
389 0 72.1157 12.9098 931 99.7583 1332.34 471.87
390 0 75.0644 13.7215 1030 97.5398 1332.9 470.043
391 0 76.1002 10.4205 793 104.673 1332.78 469.235
392 0 81.0397 10.9699 889 102.679 1332.93 468.876
393 0 83.0901 11.5778 962 102.067 1333.67 466.886
394 0 87.0452 11.5572 1006 102.439 1333.48 463.793
395 0 88.2018 12.2446 1080 101.403 1333.16 463.434
396 1 46.0273 10.472 482 97.9357 1333.28 483.749
397 0 49.0722 10.617 521 94.0461 1332.95 484.1
398 0 49.0708 10.1282 497 92.8169 1333.53 483.767
399 0 49.0554 9.15292 449 91.6236 1335.18 484.63
400 0 51.0236 10.3874 530 90.7151 1334.9 482.181
401 0 54.0236 11.2729 609 87.9655 1335.13 483.087
402 0 54.0846 11.3341 613 89.4829 1335.26 479.943
