time division length width area intensity CMx CMy
0 0 76.0402 14.1767 1078 125.605 731.109 373.825
1 0 77.0873 13.9452 1075 127.979 731.41 375.49
2 0 80.083 15.7212 1259 122.828 731.614 372.329
3 0 82.1105 14.785 1214 127.038 730.61 372.172
4 0 86.1288 15.1866 1308 125.099 731.854 373.644
5 0 89.1177 14.9129 1329 126.822 731.614 372.81
6 0 92.1614 15.1799 1399 125.99 731.35 373.457
7 0 94.1291 14.1189 1329 129.103 732.103 375.614
8 0 98.1172 15.6751 1538 123.059 732.557 376.27
9 0 100.164 13.4679 1349 129.403 731.904 374.821
10 1 48.0799 11.1273 535 125.68 731.553 400.647
11 0 51.0601 13.0826 668 120.817 731.503 400.576
12 0 51.0476 12.5961 643 123.463 732.922 395.226
13 0 52.0402 13.0476 679 159.532 735 396.077
14 0 55.08 13.09 721 129.026 732.488 399.895
15 0 58.0197 13.3403 774 128.267 732.705 402.154
16 0 60.0625 14.102 847 125.823 732.936 404.346
17 0 60.0696 14.0504 844 127.838 733.175 404.998
18 0 63.0709 14.0318 885 126.793 733.096 404.871
19 0 67.0243 13.8756 930 125.462 733.461 404.224
20 0 68.0681 14.5883 993 123.23 732.448 403.912
21 0 69.0501 14.3664 992 125.035 732.384 402.452
22 0 69.0265 14.0816 972 126.654 732.579 403.13
23 0 73.1444 14.6013 1068 124.131 732.691 403.396
24 0 75.0737 14.0662 1056 125.826 732.42 404.455
25 0 80.08 15.1099 1210 121.306 732.943 404.566
26 0 80.045 15.0415 1204 122.287 733.493 405.641
27 0 83.0347 14.4277 1198 124.145 732.35 404.027
28 0 85.0382 14.3582 1221 124.383 732.837 399.682
29 0 89.1674 15.1849 1354 121.528 733.369 400.117
30 0 91.1636 14.282 1302 124.244 732.967 401.901
31 0 94.1539 14.7524 1389 123.917 733.274 400.078
32 0 96.0858 13.6649 1313 125.543 733.9 399.206
33 0 99.1331 13.9711 1385 124.57 733.637 399.973
34 0 103.369 14.5789 1507 122.303 733.463 394.849
35 1 54.0639 12.3927 670 121.566 733.518 419.197
36 0 54.0241 12.7721 690 121.935 733.399 417.516
37 0 59.0648 13.4259 793 118.497 733.77 418.127
38 0 61.0602 14.1336 863 115.879 733.86 418.568
39 0 62.0542 14.3907 893 115.401 733.961 416.134
40 0 63.0516 13.6713 862 117.796 733.959 416.679
41 0 66.1089 13.5231 894 117.965 733.282 418.148
42 0 67.0936 14.368 964 117.436 733.957 417.216
43 0 68.0745 13.779 938 120.199 733.528 416.527
44 0 73.1184 14.2645 1043 118.364 734.216 415.432
45 0 74.0607 13.7725 1020 119.67 733.629 410.824
46 0 77.0817 14.4262 1112 117.292 734.284 406.763
47 0 80.0945 13.5964 1089 119.224 733.672 406.917
48 0 84.0727 15.213 1279 114.109 732.989 408.526
49 0 86.1386 13.5247 1165 120.059 732.929 409.658
50 1 44.0874 11.3865 502 121.002 733.922 430.57
51 0 45.0705 12.0478 543 119.648 733.302 431.344
52 0 48.0218 12.7234 611 117.025 733.661 434.079
53 0 46.0184 12.1908 561 117.415 733.323 436.15
54 0 49.0763 14.345 704 115.608 733.987 426.193
55 0 51.1156 14.027 717 116.527 733.738 426.252
56 0 53.1409 14.0005 744 116.782 734.035 428.083
57 0 54.129 13.2277 716 118.622 733.858 430.105
58 0 54.1185 13.4889 730 120.563 733.703 430.436
59 0 58.1605 14.3396 834 116.209 733.374 430.963
60 0 60.0775 13.8821 834 118.457 733.53 430.452
61 0 61.0397 14.7281 899 117.375 733.427 426.655
62 0 64.07 14.8587 952 115.811 733.222 427.524
63 0 66.0666 13.774 910 119.511 732.96 427.426
64 0 68.1483 14.4244 983 117.992 732.763 426.046
65 0 69.1383 13.7116 948 119.719 733.05 429.156
66 0 72.1411 13.9587 1007 118.975 733.704 427.889
67 0 74.1169 13.2089 979 121.581 733.869 429.609
68 0 76.1623 13.8126 1052 120.729 733.818 429.865
69 0 80.1523 15.1462 1214 116.054 733.268 431.146
70 0 81.1286 14.175 1150 119.112 733.968 433.163
71 0 86.0917 14.7053 1266 116.655 733.66 434.4
72 0 89.1638 13.6603 1218 119.42 734.147 435.143
73 0 91.0979 13.5129 1231 120.307 733.946 434.776
74 0 94.1281 14.4059 1356 117.816 734.023 432.38
75 0 98.1263 14.7157 1444 116.014 733.62 432.081
76 0 100.161 13.7578 1378 119.948 733.287 429.822
77 0 103.111 14.8481 1531 116.28 733.771 425.407
78 0 108.161 13.7203 1484 117.941 733.489 428.53
79 0 113.096 14.7043 1663 116.21 733.331 423.441
80 1 51.0886 12.1945 623 114.088 734.143 455.345
81 0 56.1079 13.4206 753 108.448 734.628 456.491
82 0 56.0498 12.3997 695 113.653 734.568 451.555
83 0 57.072 11.8272 675 112.787 733.742 448.401
84 0 60.0562 13.3042 799 108.567 734.483 446.885
85 0 62.1285 12.3776 769 110.732 733.222 448.031
86 0 67.132 13.5405 909 106.967 733.642 449.771
87 0 67.1553 13.4762 905 109.013 734.182 447.761
88 0 71.0863 13.0546 928 107.628 733.567 447.762
89 0 71.1734 13.2212 941 108.783 734.497 444.815
90 0 75.046 13.2452 994 107.696 733.944 446.122
91 0 78.0867 13.4466 1050 107.702 734.422 443.183
92 0 83.198 13.4378 1118 105.635 733.156 443.138
93 0 83.0478 12.2219 1015 108.346 733.843 443.757
94 0 88.1484 12.6151 1112 108.23 733.138 440.182
95 1 52.0278 12.9931 676 106.286 733.849 459.271
96 0 52.054 13.2939 692 106.22 733.84 459.146
97 0 52.0461 12.3736 644 110.042 733.884 456.53
98 0 53.0407 12.3302 654 108.969 733.899 456.431
99 0 54.0747 12.3348 667 100.696 733.559 454.192
100 0 56.032 11.6362 652 98.4908 733.905 454.328
101 0 59.036 12.7888 755 95.9934 733.641 451.058
102 0 59.0405 12.4321 734 97.8079 733.865 451.001
103 0 63.0934 12.6796 800 96.9912 734.114 450.853
104 0 64.108 11.5118 738 99.7425 733.9 450.752
105 0 68.0602 13.253 902 96.0554 733.399 450.11
106 0 68.0831 12.5435 854 99.3583 732.91 437.892
107 0 73.0378 13.2397 967 97.2885 732.361 439.494
108 0 75.0808 12.0404 904 100.624 732.646 439.875
109 0 79.2496 12.9212 1024 99.2402 732.729 439.959
110 1 40.1094 11.3938 457 102.46 733.066 457.19
111 0 43.0551 10.9627 472 99.8475 733.494 454.629
112 0 45.096 11.5309 520 101.333 733.702 454.927
113 0 47.0528 12.7091 598 98.7124 733.179 454.095
114 0 47.0842 13.4865 635 100.178 733.131 454.857
115 0 50.1088 12.413 622 102.723 733.495 457.375
116 0 53.0978 13.2397 703 100.432 733.293 459.77
117 0 53.1576 12.5852 669 103.614 733.46 458.877
118 0 55.1239 12.6805 699 103.153 733.167 451.276
119 0 56.1197 12.5981 707 104.936 733.218 452.04
120 0 56.0796 12.7854 717 105.586 733.173 455.311
121 0 60.1214 13.2399 796 103.279 731.994 456.124
122 0 59.1108 11.9944 709 109.334 732.973 454.237
123 0 61.1885 12.1265 742 108.635 733.02 452.737
124 0 63.047 11.7373 740 107.042 732.777 444.636
125 0 64.1261 10.8848 698 110.205 732.543 447.994
126 0 66.096 12.618 834 106.523 732.493 447.679
127 0 68.0797 12.7351 867 106.69 731.928 446.437
128 0 73.113 13.486 986 104.163 732.474 437.971
129 0 74.0567 12.99 962 106.625 731.927 440.451
130 0 78.1361 13.1693 1029 106.332 732.93 439.53
131 0 81.1067 12.8719 1044 106.646 732.741 438.947
132 1 42.0737 11.361 478 107.933 732.038 458.824
133 0 41.0157 10.6545 437 109.334 733.096 458.632
134 0 43.0661 11.3546 489 108.843 733.675 457.033
135 0 45.2145 11.6777 528 109.638 732.909 456.987
136 0 45.0651 12.7149 573 108.958 732.983 453.749
137 0 48.0925 12.9334 622 107.056 732.047 454.68
138 0 48.0505 12.0706 580 111.736 732.622 455.653
139 0 50.0986 11.4973 576 113.321 731.929 454.84
140 0 54.1067 12.6602 685 108.366 733.069 456.835
141 0 53.0618 11.9106 632 111.516 732.519 454.801
142 0 53.1648 11.643 619 113.46 732.624 453.62
143 0 58.1154 12.5096 727 109.535 732.832 454.345
144 0 59.0935 12.5394 741 110.277 732.684 452.663
145 0 61.1441 12.6913 776 109.103 732.209 455.479
146 0 63.0517 12.2915 775 110.768 732.872 453.759
147 0 63.082 12.5709 793 111.392 732.277 450.701
148 0 66.1673 12.5742 832 111.168 731.871 446.32
149 0 68.1146 12.1413 827 111.647 732.01 445.235
150 0 67.1538 12.1512 816 108.719 731.5 444.506
151 0 72.1169 11.5784 835 109.087 732.782 440.019
152 0 75.1103 12.2353 919 107.081 732.961 443.309
153 0 74.0578 12.6388 936 108.657 732.858 437.81
154 0 78.1966 11.9826 937 110.426 732.751 434.058
155 0 82.1372 12.6739 1041 106.737 732.827 437.546
156 0 85.3022 12.4733 1064 107.271 732.572 436.573
157 1 45.0421 11.4115 514 108.854 731.8 451.198
158 0 47.1377 11.4134 538 108.467 733.346 449.299
159 0 47.1039 11.2093 528 111.36 733.314 444.125
160 0 50.1362 11.2693 565 110.765 732.566 445.267
161 0 50.1656 10.6447 534 113.835 732.29 445.38
162 0 54.123 12.8781 697 107.007 731.587 443.677
163 0 55.1125 12.0844 666 108.872 732.285 445.416
164 0 55.0986 11.5067 634 112.137 731.114 442.691
165 0 57.2408 12.6308 723 109.16 731.214 444.545
166 0 61.0295 13.2395 808 107.321 731.776 442.421
167 0 60.0619 12.1541 730 112.607 730.786 443.301
168 0 64.0735 12.5637 805 111.078 730.949 438.729
169 0 65.0895 13.1511 856 109.961 731.228 438.439
170 0 66.1403 12.912 854 111.594 731.306 438.028
171 0 68.2198 12.9581 884 112.881 731.308 439.149
172 0 70.2173 13.0879 919 114.408 731.606 439.783
173 0 73.2118 13.7 1003 114.211 731.486 438.296
174 0 73.2503 12.8054 938 118.055 731.178 438.581
175 0 76.2196 13.8153 1053 117.252 731.132 433.65
176 0 79.1569 13.4038 1061 118.831 731.145 436.172
177 0 84.2813 13.4549 1134 117.293 731.07 436.222
178 0 86.1482 13.9179 1199 116.753 731.063 435.27
179 0 87.1775 13.6159 1187 118.631 730.708 437.036
180 1 48.227 12.7315 614 114.414 731.055 454.293
181 0 49.1759 13.4619 662 112.882 731.662 454.379
182 0 50.2679 12.513 629 117.049 732.321 453.617
183 0 49.0335 11.6451 571 123.131 732.177 451.844
184 0 51.073 11.4933 587 122.07 732.322 452.516
185 0 55.0897 12.2709 676 119.763 731.429 450.246
186 0 55.086 12.3443 680 119.985 732.074 449.493
187 0 58.0904 13.6167 791 115.814 731.145 450.047
188 0 58.3913 11.9367 697 120.968 731.56 447.026
189 0 61.1474 12.7561 780 118.094 732.296 447.965
190 0 63.2278 12.3522 781 117.69 732.294 445.416
191 0 65.1535 12.2787 800 117.757 732.121 443.774
192 0 65.2129 12.1295 791 119.459 731.643 443.449
193 0 69.2577 12.6629 877 115.823 731.511 444.698
194 0 71.1054 12.3197 876 117.187 731.275 441.853
195 0 73.3021 12.9191 947 116.615 730.811 439.109
196 0 76.4238 13.0326 996 114.908 731.21 441.649
197 0 78.2091 12.7479 997 116.029 731.022 436.187
198 0 82.3197 14.3222 1179 110.902 731.243 437.492
199 0 82.2422 12.6334 1039 116.785 730.714 436.982
200 0 83.2009 12.7763 1063 116.582 730.953 434.943
201 1 45.2566 9.67814 438 116.363 731.107 458.279
202 0 48.2205 11.1778 539 111.141 731.521 457.716
203 0 46.2867 11.4288 529 115.045 732.068 455.554
204 0 50.0828 12.2397 613 111.62 730.762 454.494
205 0 50.0473 11.629 582 114.794 730.854 453.57
206 0 51.1534 11.5339 590 115.239 731.066 453.812
207 0 55.0988 12.3233 679 112.577 730.85 451.909
208 0 54.0831 12.111 655 112.646 732.108 452.638
209 0 56.1258 11.7059 657 112.318 731.411 451.851
210 0 55.0518 11.0441 608 114.416 732.444 452.737
211 0 55.0322 10.612 584 117.14 731.906 453.238
212 0 58.0726 11.1757 649 115.265 732.151 447.388
213 0 59.0677 11.3768 672 116.086 732.04 443.576
214 0 62.2106 12.4095 772 114.838 731.297 441.237
215 0 63.0525 12.2596 773 115.787 733.819 442.712
216 0 65.0651 12.1724 792 116.534 733.587 443.162
217 0 67.0359 12.7842 857 115.688 733.789 441.958
218 0 70.1256 11.5222 808 118.698 732.532 437.923
219 0 73.051 11.622 849 119.813 732.865 434.706
220 0 75.195 11.7827 886 119.387 732.668 435.362
221 0 78.1256 12.1215 947 118.129 732.314 437.278
222 0 81.1598 11.9394 969 118.777 731.951 434.047
223 0 84.0881 12.3918 1042 116.759 732.439 434.138
224 1 45.0892 11.1113 501 119.242 733.064 452.934
225 0 48.092 11.7691 566 116.537 732.007 453
226 0 48.0852 11.9371 574 117.274 732.054 453.594
227 0 49.1128 10.5064 516 116.659 731.874 450.134
228 0 49.0435 10.8679 533 115.358 732.561 449.503
229 0 50.0686 11.7838 590 114.831 732.051 446.964
230 0 51.0337 10.4441 533 117.193 732.814 447.381
231 0 53.0666 11.1935 594 116.355 732.359 447.852
232 0 55.0631 11.1145 612 115.802 732.712 449.418
233 0 56.0577 10.7389 602 115.859 732.867 452.37
234 0 57.1062 11.8726 678 115.926 732.499 447.428
235 0 59.1391 11.3123 669 116.384 732.324 447.656
236 0 61.1338 11.5812 708 115.082 732.181 447.935
237 0 63.0971 11.5853 731 114.826 731.927 444.423
238 0 63.0862 12.2214 771 115.79 731.974 441.73
239 0 66.0956 12.3609 817 113.695 732.312 446.237
240 0 67.1301 11.798 792 115.957 732.609 444.336
241 0 70.0615 12.3891 868 115.141 732.789 436.439
242 0 74.0631 12.4353 921 113.6 732.466 438.484
243 0 77.0805 12.7918 986 116.994 732.111 434.199
244 0 80.108 13.7315 1100 116.436 731.964 431.478
245 0 84.0828 12.4639 1048 118.762 731.733 428.812
246 0 85.1656 12.4698 1062 119.77 732.138 429.642
247 0 89.1008 13.5465 1207 115.786 732.342 433.326
248 0 92.0963 13.1927 1215 115.616 732.28 433.189
249 1 49.0774 11.7977 579 114.746 733.15 456.01
250 0 49.0543 11.0082 540 117.507 731.928 448.556
251 0 52.1682 11.1946 584 116.795 731.69 448.594
252 0 54.2474 12.2218 663 112.715 732.078 450.327
253 0 57.0895 12.1388 693 111.095 732.359 446.126
254 0 57.0571 12.4612 711 111.714 731.547 444.745
255 0 57.0863 11.2637 643 112.872 731.664 444.902
256 0 61.0543 12.3333 753 106 731.879 444.918
257 0 62.0695 11.7932 732 104.656 731.954 445.361
258 0 64.1274 12.2257 784 103.573 731.758 439.631
259 0 66.0645 12.1245 801 104.517 732.529 439.009
260 0 68.0934 11.6751 795 106 732.453 438.415
261 0 73.0713 12.0567 881 104.102 732.263 438.65
262 0 74.1517 11.9755 888 104.837 732.491 437.89
263 0 76.1222 13.3207 1014 101.679 731.969 437.446
264 0 79.1108 11.7936 933 104.788 733.175 437.766
265 0 81.0998 11.9112 966 104.046 732.042 439.026
266 0 84.1921 12.1508 1023 104.76 732.741 435.076
267 0 87.0316 13.2481 1153 101.203 732.475 431.959
268 0 88.1511 11.2761 994 106.104 732.872 433.271
269 0 94.0941 13.6565 1285 101.311 732.24 426.351
270 0 98.1106 11.9253 1170 104.332 733.092 428.525
271 1 49.0467 11.1322 546 108.005 732.24 451.984
272 0 51.1048 11.5058 588 105.413 732.974 452.199
273 0 54.0948 13.1621 712 100.132 733.833 451.257
274 0 57.1527 13.1052 749 99.9092 733.581 448.79
275 0 56.0541 12.1668 682 102.718 733.361 449.956
276 0 59.0285 12.638 746 100.749 733.058 446.997
277 0 60.0931 13.0131 782 101.148 732.197 445.611
278 0 63.0443 12.4516 785 101.055 732.572 446.997
279 0 63.1384 11.9895 757 103.021 732.918 442.815
280 0 64.0595 12.5821 806 102.301 732.782 441.45
281 0 69.088 13.5479 936 98.5331 732.419 438.781
282 0 71.1611 11.9166 848 102.48 733.013 437.735
283 0 72.2357 14.0512 1015 98.866 732.796 435.418
284 0 73.2239 13.329 976 100.95 733.048 436.746
285 0 77.29 13.3135 1029 100.173 732.456 439.53
286 0 80.2407 13.2352 1062 101.419 732.188 436.714
287 0 81.1807 13.7717 1118 100.393 732.147 433.366
288 0 84.2631 12.7814 1077 103.017 732.677 435.467
289 0 86.2329 12.9881 1120 102.125 732.21 437.609
290 0 87.1693 13.0551 1138 103.875 732.076 432.58
291 0 89.1173 12.2535 1092 105.425 732.007 432.769
292 0 93.1632 11.775 1097 105.556 732.38 432.235
293 1 49.1689 11.7351 577 105.768 733.409 448.929
294 0 52.1452 12.9446 675 102.92 732.071 448.861
295 0 52.1505 11.812 616 105.006 731.706 449.419
296 0 51.1803 10.7268 549 106.23 732.339 449.182
297 0 53.1433 11.3467 603 104.015 732.308 450.101
298 0 55.0563 10.3894 572 105.318 732.642 451.229
299 0 56.1068 12.1732 683 103.461 732.997 446.921
300 0 59.1627 10.4627 619 105.851 733.679 446.616
301 0 63.1585 11.7166 740 101.858 733.245 445.658
302 0 62.1195 11.3169 703 104.344 733.252 444.343
303 0 65.0558 11.5901 754 103.224 732.525 445.546
304 0 67.0488 11.7079 785 103.354 732.589 442.902
305 0 67.1244 11.5308 774 104.66 732.911 436.965
306 0 72.0571 10.8803 784 103.393 732.832 437.3
307 0 75.0798 12.0272 903 101.668 732.26 434.332
308 0 78.1268 11.5581 903 102.071 732.772 432.315
309 0 80.14 11.6671 935 102.566 732.55 429.081
310 0 80.1546 11.2158 899 102.43 731.648 428.28
311 0 86.2023 12.7839 1102 100.815 731.868 424.105
312 0 89.298 11.68 1043 103.523 732.759 425.758
313 0 92.2565 14.2646 1316 99.0053 731.834 420.093
314 0 95.1944 12.5848 1198 102.856 732.544 417.098
315 1 48.1417 11.0092 530 106.962 733.009 438.145
316 0 54.1802 11.351 615 103.958 732.319 440.807
317 0 54.1479 11.1731 605 106.795 732.428 439.516
318 0 55.1023 12.3407 680 104.222 732.21 438.818
319 0 59.1761 12.4206 735 103.714 732.788 437.963
320 0 59.1699 12.2528 725 104.996 732.883 438.088
321 0 60.1334 11.5576 695 107.665 732.671 436.86
322 0 62.1532 11.2303 698 108.95 732.239 436.325
323 0 65.1533 12.4476 811 105.055 732.551 435.535
324 0 67.2565 13.4262 903 103.368 732.883 433.878
325 0 70.1981 14.1172 991 101.903 732.34 431.094
326 0 68.2067 13.0046 887 106.709 732.609 431.435
327 0 72.1591 12.0151 867 109.09 732.976 432.116
328 0 73.3231 12.8609 943 108.071 732.702 430.241
329 0 76.2799 13.1096 1000 107.116 733.086 433.011
330 0 77.346 12.2825 950 111.326 732.429 434.278
331 0 81.1961 13.4859 1095 106.811 732.993 438.545
332 0 84.2256 13.6894 1153 107.933 732.72 437.535
333 0 85.2432 13.045 1112 108.353 732.756 431.138
334 0 85.2911 13.0143 1110 110.546 732.37 430.549
335 0 89.2039 12.4882 1114 111.26 731.727 427.257
336 0 94.279 13.2267 1247 109.648 732.436 432.051
337 0 94.362 12.3355 1164 113.92 732.296 434.576
338 0 98.312 13.5487 1332 110.535 732.581 426.675
339 0 101.144 13.1396 1329 107.42 732.558 423.609
340 0 105.324 13.7006 1443 109.593 732.067 425.808
341 0 107.187 14.3301 1536 110.426 732.676 426.729
342 0 111.273 14.5857 1623 109.539 732.591 424.259
343 1 59.1982 12.0612 714 110.216 732.665 451.018
344 0 63.2599 11.9981 759 108.668 732.099 452.775
345 0 66.0988 12.5116 827 110.889 732.693 440.778
346 0 67.1137 12.7247 854 111.308 732.933 436.837
347 0 72.1176 12.3409 890 109.782 732.651 439.955
348 0 73.1239 11.9386 873 111.899 731.984 437.661
349 0 76.2288 12.8692 981 108.305 732.368 438.655
350 0 78.211 12.1594 951 109.774 732.285 439.857
351 0 82.1039 13.6291 1119 106.5 732.37 439.412
352 0 82.3831 13.0124 1072 109.535 731.515 436.312
353 0 84.1373 11.8021 993 109.384 731.637 430.325
354 0 89.0645 11.7218 1044 105.789 731.735 433.198
355 0 91.1211 12.7413 1161 107.451 732.07 429.817
356 1 48.0916 10.1889 490 104.998 731.486 450.363
357 0 50.13 10.9914 551 103.452 732.41 449.893
358 0 52.2378 12.0219 628 102.631 732.271 447.373
359 0 54.0378 12.6948 686 100.99 733.229 448.058
360 0 54.0652 12.7809 691 103.101 733.475 442.356
361 0 57.1249 12.0088 686 102.678 733.286 445.571
362 0 59.0684 11.8337 699 104.755 733.299 445.893
363 0 60.1085 12.3776 744 105.906 733.392 444.001
364 0 62.0806 11.7428 729 107.893 733.048 444.354
365 0 65.0711 13.1241 854 103.662 733.884 441.078
366 0 65.0933 12.797 833 104.95 732.636 439.218
367 0 70.0693 13.0014 911 102.922 732.82 434.247
368 0 68.1295 11.5075 784 108.432 732.302 434.902
369 0 74.1178 12.6825 940 103.579 732.971 432.349
370 0 74.1925 12.0363 893 105.091 733.875 432.13
371 0 76.1835 12.1286 924 106.313 731.761 429.852
372 0 79.1898 12.1733 964 106.577 732.742 430.154
373 0 81.0999 12.7497 1034 104.983 732.662 434.184
374 0 87.1184 12.9479 1128 102.889 732.739 428.712
375 0 87.143 13.1164 1143 102.451 733.186 430.152
376 0 91.1 11.5587 1053 104.942 732.545 426.926
377 0 93.1233 12.1881 1135 103.391 732.699 424.574
378 1 48.017 10.6837 513 98.7602 733.534 446.821
379 0 52.1799 9.6014 501 99.4112 734.042 448.008
380 0 51.056 10.6158 542 96.417 733.196 449.271
381 0 55.09 11.4721 632 92.557 733.997 444.989
382 0 58.0691 10.763 625 99.1568 734.04 447.309
383 0 61.0774 12.4105 758 95.3047 733.296 445.325
384 0 60.0465 12.407 745 97.0295 733.521 443.122
385 0 61.0356 12.0913 738 98.8157 732.822 444.73
386 0 63.0996 11.3471 716 102.124 733.48 444.996
387 0 66.2265 11.2644 746 100.761 732.343 443.883
388 0 67.1843 13.0536 877 96.7161 732.918 440.295
389 0 70.2993 12.4752 877 98.4173 733.099 436.09
390 0 71.1222 11.3748 809 103.099 731.879 432.816
391 0 74.1924 12.2519 909 100.651 732.414 431.288
392 0 75.1477 12.3091 925 102.255 732.166 429.619
393 0 77.1342 12.1347 936 103.387 731.69 429.616
394 0 78.1093 11.2919 882 105.026 731.888 429.833
395 0 82.2098 11.568 951 105.016 732.168 425.809
396 0 87.213 12.6472 1103 102.18 732.057 425.5
397 0 87.172 10.7145 934 107.213 731.883 425.908
398 1 47.11 10.5073 495 98.8909 732.671 447.267
399 0 48.1598 10.5275 507 97.7771 732.391 445.836
400 0 49.0736 12.4099 609 92.4877 732.404 448.034
401 0 51.0779 12.8823 658 96.5729 733.178 446.065
402 0 51.064 11.2996 577 102.752 732.57 444.475
403 0 55.1908 12.647 698 103.447 732.777 441.312
