time division length width area intensity CMx CMy
0 0 44.1316 11.5337 509 162.806 738.758 470.033
1 0 47.1535 12.6608 597 154.843 739.003 468.779
2 0 47.1972 12.4372 587 156.668 738.901 468.702
3 0 46.0946 12.496 576 158.148 738.785 468.278
4 0 48.1119 12.2839 591 157.408 738.964 467.687
5 0 49.1773 11.5704 569 159.337 739.404 467.745
6 0 51.1455 12.8066 655 153.197 739.281 465.498
7 0 52.1587 12.0402 628 155.914 738.779 465.618
8 0 54.1186 13.0454 706 149.84 738.388 466.697
9 0 56.2118 12.7375 716 150.719 738.089 464.115
10 0 58.1053 12.0471 700 151.79 737.949 465.286
11 0 58.1909 11.6513 678 153.058 738.055 464.724
12 0 61.148 11.8565 725 150.793 737.45 463.458
13 0 62.181 11.3057 703 152.583 737.831 463.676
14 1 30.0685 11.108 334 148.353 738.455 479.006
15 0 32.0418 12.234 392 143.393 738.102 478.467
16 0 32.0176 11.9934 384 145.229 738.643 478.021
17 0 32.0414 10.424 334 147.937 738.737 478.883
18 0 35.0091 12.1111 424 137.717 738.347 479.335
19 0 35.05 12.2111 428 138.217 737.736 477.507
20 0 34.014 12.1127 412 133.34 737.262 478.337
21 0 36.0235 11.7979 425 133.421 737.666 481.108
22 0 36.0204 10.7994 389 137.928 737.275 478.686
23 0 38.0226 11.8351 450 132.96 737.198 478.824
24 0 40.03 11.966 479 131.035 736.695 478.806
25 0 42.0285 12.2536 515 129.75 737.237 477.897
26 0 43.0572 11.2409 484 132.996 736.915 476.901
27 0 43.0447 12.4289 535 129.987 736.94 476.705
28 0 44.0709 12.7068 560 128.784 737.007 476.77
29 0 45.0584 12.051 543 131.683 736.079 476.416
30 0 45.0845 12.0219 542 132.098 736.214 475.806
31 0 46.0266 10.255 472 137.091 735.714 476.157
32 0 48.0559 11.2993 543 135.604 736.072 474.773
33 0 49.0803 10.982 539 136.853 736.083 474.477
34 0 52.0448 11.4901 598 132.426 737.109 474.09
35 0 54.1019 11.9404 646 130.189 737.056 472.401
36 0 56.1652 12.5879 707 128.078 736.863 472.212
37 0 59.2547 12.9947 770 126.569 736.27 470.331
38 0 60.1277 13.0223 783 127.462 736.174 468.968
39 0 63.0738 13.1116 827 126.977 735.683 468.197
40 0 64.0665 12.7524 817 129.446 736.066 466.624
41 0 69.1408 14.0583 972 124.435 736.425 466.29
42 0 69.0703 13.2763 917 129.779 736.106 464.528
43 0 73.1573 13.5051 988 127.997 736.191 463.872
44 0 76.086 14.6807 1117 124.707 735.819 463.397
45 0 79.0719 14.139 1118 126.03 735.44 462.324
46 0 81.0889 12.6035 1022 130.973 735.472 459.965
47 0 84.1162 13.3981 1127 129.683 735.46 458.265
48 0 86.0949 13.5084 1163 129.739 735.483 457.324
49 0 89.0951 12.4698 1111 131.703 735.057 457.059
50 0 93.125 13.8846 1293 128.84 734.442 453.346
51 0 98.1894 14.2989 1404 129.531 734.368 452.781
52 0 101.066 14.5251 1468 128.963 734.569 450.373
53 1 50.0549 11.9469 598 130.321 735.356 476.577
54 0 52.0315 12.5309 652 126.986 734.821 477.005
55 0 53.0782 12.4722 662 127.855 734.956 474.926
56 0 54.0575 13.1712 712 126.947 735.034 473.244
57 0 57.0449 13.1651 751 128.104 734.674 472.866
58 0 58.1513 12.9834 755 128.454 734.777 473.628
59 0 59.0917 13.5721 802 128.155 735.041 472.761
60 0 63.1016 13.4862 851 125.992 734.931 472.565
61 0 66.1889 13.25 877 128.335 734.106 469.529
62 0 67.077 13.2534 889 130.404 733.714 470.065
63 0 68.0818 12.7347 867 133.855 734.361 469.277
64 0 70.148 12.6732 889 133.577 733.598 469.598
65 0 74.1058 13.2243 980 132.669 734.207 465.906
66 0 75.058 12.9899 975 135.086 734.719 465.854
67 0 75.058 12.9633 973 159 735.713 465.776
68 0 81.0826 13.6034 1103 133.812 734.477 463.047
69 0 82.0435 14.0657 1154 133.686 734.009 461.601
70 0 84.0821 13.5463 1139 135.955 734.185 462.405
71 0 86.139 13.2809 1144 138.339 734.09 460.906
72 0 90.1121 13.6719 1232 139.339 733.931 457.653
73 0 93.1478 13.8919 1294 138.546 734.315 457.59
74 0 97.1632 13.7809 1339 139.147 734.273 455.757
75 0 99.108 13.0968 1298 138.451 734.192 452.485
76 0 103.057 14.3803 1482 134.27 734.55 450.904
77 1 56.0603 11.5768 649 129.732 734.618 472.505
78 0 58.0748 11.9501 694 136.122 734.71 474.738
79 0 60.0863 13.8135 830 125.128 734.163 473.44
80 0 61.1059 13.1575 804 127.75 733.872 472.373
81 0 63.1056 12.3761 781 128.334 734.195 472.659
82 0 65.058 12.6195 821 127.788 733.872 470.815
83 0 67.092 13.6827 918 124.407 734.16 468.798
84 0 69.0465 13.0781 903 125.749 734.658 470.3
85 0 71.1039 12.8404 913 127.118 734.131 465.391
86 0 76.1096 12.5871 958 127.1 733.427 465.368
87 0 79.1279 13.2191 1046 124.806 733.278 465.684
88 0 81.1121 14.2765 1158 123.875 733.212 462.041
89 0 84.176 13.9945 1178 125.723 733.351 461.278
90 0 88.1511 13.8626 1222 127.109 732.907 461.505
91 0 90.1219 13.3042 1199 128.642 733.023 459.284
92 0 93.1147 13.7894 1284 129.153 733.073 456.579
93 0 97.1628 13.9971 1360 128.504 733.094 456.545
94 0 100.22 13.9692 1400 130.446 733.347 454.261
95 0 99.2239 14.0188 1391 151.214 734.356 454.302
96 1 52.0732 10.8117 563 125.375 732.773 470.455
97 0 56.1065 13.7952 774 112.242 733.363 472.913
98 0 55.0248 12.0673 664 122.982 733.006 476.211
99 0 59.1084 12.604 745 122.005 732.949 474.573
100 0 59.051 12.7856 755 122.334 732.566 473.275
101 0 62.0617 11.972 743 121.773 732.735 471.132
102 0 66.1161 12.9923 859 118.943 732.937 469.735
103 0 68.0661 12.6348 860 123.465 732.321 469.016
104 0 71.1454 13.6903 974 120.876 732.762 468.259
105 0 71.0779 13.2109 939 124.152 733.469 466.16
106 0 74.0958 12.9022 956 124.062 732.986 467.744
107 0 74.1147 12.0489 893 129.221 732.969 464
108 0 79.1161 11.679 924 129.907 732.593 463.017
109 0 81.1758 12.5037 1015 128.502 732.9 462.28
110 0 84.0782 13.7491 1156 125.814 732.661 461.882
111 0 84.0974 11.4153 960 132.648 732.433 461.407
112 0 88.0831 13.1013 1154 126.97 732.511 458.288
113 0 89.2385 11.4412 1021 131.546 732.728 456.41
114 0 94.096 13.1249 1235 126.303 732.978 455.713
115 0 97.2389 12.5361 1219 125.79 732.906 456.445
116 0 101.098 11.6916 1182 127.23 732.486 453.768
117 0 104.141 12.7712 1330 125.449 732.449 449.289
118 0 108.111 12.3114 1331 125.31 732.747 448.932
119 1 49.1612 11.4114 561 115.064 732.877 475.859
120 0 52.1074 11.3228 590 115.468 732.649 476.556
121 0 54.2257 11.5443 626 115.744 732.331 474.741
122 0 57.0967 12.1899 696 116.116 732.934 475.609
123 0 56.0675 11.397 639 113.236 732.462 473.457
124 0 59.1114 12.0958 715 110.887 733.439 473.554
125 0 59.102 11.0656 654 113.255 732.547 472.463
126 0 61.0722 12.346 754 110.48 732.747 470.115
127 0 64.0653 12.3936 794 109.678 732.436 470.555
128 0 63.0527 11.0542 697 113.356 733.207 468.151
129 0 68.1627 13.2477 903 107.089 732.795 467.846
130 0 66.0805 12.2275 808 110.58 733.121 465.84
131 0 68.0443 12.1539 827 108.166 733.486 467.979
132 0 70.0926 12.1839 854 109.032 733.912 464.446
133 0 70.2243 11.5772 813 109.569 733.091 462.143
134 0 72.1504 12.169 878 107.494 733.637 461.965
135 0 73.0846 11.4662 838 109.134 733.221 460.181
136 0 76.1312 13.0827 996 104.872 733.302 462.904
137 0 77.0769 13.2206 1019 104.993 732.998 459.658
138 0 80.0287 13.3327 1067 103.709 733.276 459.4
139 0 82.0895 11.5118 945 105.108 733.285 458.58
140 0 84.1507 12.442 1047 103.091 733.726 456.181
141 0 87.1329 12.1079 1055 102.403 732.962 455.947
142 0 88.2008 13.1405 1159 100.423 732.682 456.255
143 0 89.2183 12.6095 1125 100.305 732.836 455.225
144 0 90.0865 12.1994 1099 101.157 732.747 452.793
145 0 91.1736 12.2843 1120 100.265 733.592 450.352
146 0 91.1819 12.2831 1120 118.919 734.622 450.393
147 0 97.1004 13.8001 1340 97.2358 733.037 447.388
148 0 100.283 14.2497 1429 95.8328 733.488 445.427
149 0 101.091 13.3148 1346 96.5721 733.215 445.759
150 0 99.2265 10.2795 1020 101.296 733.453 443.079
151 0 104.218 13.2894 1385 95.2137 733.208 444.123
152 0 106.26 13.1281 1395 94.648 733.201 444.687
153 0 106.155 11.2854 1198 97.1285 733.331 444.401
154 0 109.132 12.3337 1346 95.6612 733.735 440.811
155 0 111.214 12.5165 1392 94.2055 732.906 442.902
156 0 112.223 13.6871 1536 92.9811 733.132 436.705
157 0 116.076 12.1472 1410 94.2943 732.865 437.141
158 0 116.157 11.0281 1281 95.1429 732.607 430.151
159 0 119.138 11.6588 1389 93.9352 732.361 436.194
160 0 121.327 9.82469 1192 95.979 732.592 432.919
161 0 123.141 9.10336 1121 95.6878 732.489 432.455
162 0 125.142 12.322 1542 91.7542 732.48 428.651
163 0 127.188 10.2368 1302 93.0031 731.796 424.438
164 0 127.186 9.48218 1206 93.665 731.969 420.167
165 0 131.097 8.58143 1125 94.1671 732.4 420.637
166 0 133.19 8.94215 1191 93.5223 732.244 421.209
167 0 137.231 10.1289 1390 92.1187 733.013 415.589
168 0 136.155 7.41066 1009 94.9009 732.489 415.744
169 0 139.307 8.42743 1174 92.9932 732.874 410.822
170 1 128.147 11.916 1527 89.6018 732.724 408.43
171 0 136.219 8.90478 1213 91.5705 732.157 406.239
172 0 138.199 11.2085 1549 88.7657 732.044 404.321
173 0 144.201 4.57694 660 94.8576 731.802 407.348
174 1 123.241 11.7412 1447 87.9737 731.816 390.887
175 0 134.342 11.2623 1513 87.9722 731.952 400.923
176 1 3 4.66667 14 78 732.286 473.429
177 0 9.00024 1.88884 17 80.7647 732.412 475.706
178 0 16.0018 6.74924 108 74.2407 733.88 480.491
179 0 16.0028 2.06214 33 80.0303 732.818 476.485
180 1 166.233 11.9772 1991 84.8287 731.779 401.206
181 0 135.138 15.8061 2136 128.248 732.28 246.254
182 0 140.192 5.72788 803 92.8692 731.366 363.186
183 1 36.0264 2.85902 103 83.8252 732.563 459.883
184 0 39.0063 2.23041 87 82.3678 732.483 464.207
185 0 41.0403 2.97269 122 82.9754 733.016 463.025
186 0 34.0227 1.91049 65 86.2923 733.077 459.615
187 1 189.183 11.0317 2087 86.9828 732.278 374.906
188 0 190.193 11.3832 2165 86.4868 732.251 383.868
189 1 36.0406 4.02324 145 77.3793 733.034 475.166
190 0 38.2653 5.30506 203 76.931 732.734 472.429
191 0 28.013 4.46221 125 80.944 733.24 466.808
192 0 27.0544 4.62032 125 76.072 732.456 475.72
193 0 22.0485 5.21577 115 75.9826 733 475.757
194 1 209.293 6.88509 1441 92.2949 732.15 374.84
195 0 215.246 10.653 2293 88.3663 732.143 379.228
196 0 221.378 9.13824 2023 90.2719 731.734 370.005
197 0 225.362 11.2619 2538 87.9799 732.074 361.745
198 0 224.288 8.9617 2010 90.4005 732.161 364.533
199 0 230.461 12.002 2766 87.1996 731.9 360.99
200 0 236.489 10.6728 2524 87.7298 731.603 373.624
201 0 233.472 11.7444 2742 87.2939 731.123 359.86
202 0 242.612 11.3885 2763 87.0966 731.059 365.532
203 0 246.413 12.3857 3052 85.5596 731.256 365.363
204 0 246.432 10.8184 2666 87.7273 731.652 362.67
205 0 246.392 13.7748 3394 84.4947 731.105 360.759
206 1 14.002 3.57093 50 75.72 731.32 482.8
207 0 26.0842 6.32567 165 72.3212 732.212 478.43
208 0 24.1539 2.11146 51 75.1569 731.608 480.784
209 0 27.0383 5.17783 140 72.9143 732.329 477.707
210 0 21.0049 4.90363 103 71.7961 732.456 478.854
211 0 30.0233 4.76297 143 71.6503 732.28 477.643
212 0 21.0222 1.61734 34 77.2647 732.412 472.029
213 0 28.0083 6.748 189 70.8624 731.799 475.608
214 0 35.0402 5.50796 193 71.0984 732.171 472.549
215 1 304.923 13.5018 4117 78.4841 730.253 308.283
216 0 300.478 18.5937 5587 72.4156 731.301 307.836
217 0 306.525 23.8447 7309 67.4436 731.591 343.757
218 0 308.603 19.0212 5870 72.6709 731.72 345.184
219 0 312.493 19.7636 6176 72.1232 731.044 334.357
220 0 314.729 19.3245 6082 72.4058 731.514 332.76
221 0 319.55 22.5411 7203 68.9622 732.043 343.723
222 0 318.435 16.8292 5359 75.7578 731.151 330.322
223 0 325.491 21.2694 6923 70.1496 731.068 321.095
224 0 333.555 23.3934 7803 67.7657 731.309 322.404
225 0 336.592 21.1859 7131 70.4171 731.826 324.231
226 0 339.513 19.0862 6480 72.0793 732.094 324.975
227 0 342.506 18.461 6323 72.9075 731.712 315.762
228 0 346.523 19.0925 6616 71.8835 731.664 306.409
229 0 349.419 16.2556 5680 75.2713 732 320.409
230 0 357.799 21.5177 7699 69.096 731.818 305.866
231 0 360.897 17.994 6494 72.9677 731.668 309.866
232 0 363.555 20.173 7334 70.4782 731.902 307.178
233 0 368.686 20.2584 7469 69.9134 732.246 310.271
234 0 367.625 18.7392 6889 72.4973 732.313 306.238
235 0 368.755 22.5272 8307 67.9691 731.617 302.57
236 0 362.549 17.901 6490 74.0459 732.025 322.658
237 0 365.688 16.7137 6112 75.4478 731.753 315.055
238 0 361.451 18.4755 6678 73.9629 731.468 308.455
239 0 360.468 16.1595 5825 77.0163 731.407 314.67
