time division length width area intensity CMx CMy
0 0 51.0431 11.2846 576 139.526 1043.51 393.957
1 0 52.0609 12.1396 632 135.019 1043.92 392.922
2 0 52.0716 11.6954 609 137.617 1043.67 393.187
3 0 56.0814 13.6944 768 129.461 1043.64 392.195
4 0 58.1091 11.7882 685 133.962 1043.57 392.428
5 0 59.0725 12.6286 746 131.865 1044.09 391.268
6 0 59.0236 13.2828 784 130.284 1043.92 389.432
7 0 60.0464 13.1065 787 130.586 1043.3 390.938
8 0 63.0799 13.1104 827 129.781 1042.73 389.817
9 0 63.0463 12.0705 761 133.104 1042.64 389.321
10 0 66.0708 12.4109 820 131.349 1042.38 389.016
11 0 69.0567 13.0473 901 128.57 1042.46 387.706
12 0 72.0197 13.177 949 128.24 1041.65 386.592
13 0 73.0798 13.1089 958 130.301 1041.98 386.656
14 0 74.0841 13.0392 966 159.12 1041.99 386.722
15 0 77.0662 13.5987 1048 128.498 1041.32 384.59
16 0 79.1024 12.6798 1003 131.391 1041.73 382.828
17 0 84.1292 14.454 1216 129.594 1041.81 383.905
18 0 86.1541 14.4973 1249 136.605 1041.39 378.438
19 0 91.2282 14.1513 1291 134.799 1041.24 380.617
20 0 92.1725 13.6158 1255 131.305 1040.69 378.873
21 0 94.1373 13.4909 1270 132.28 1041.1 380.398
22 1 46.0357 12.5772 579 139.693 1040.65 401.971
23 0 49.021 12.974 636 138.077 1040.84 401.406
24 0 51.0826 13.762 703 135.209 1039.97 400.047
25 0 53.1477 13.2837 706 137.193 1040.76 399.222
26 0 54.0769 12.6117 682 138.897 1040.63 399.739
27 0 55.1965 12.7544 704 140.446 1040.63 398.524
28 0 57.1331 14.0024 800 137.444 1040.74 396.958
29 0 59.1258 14.1732 838 138.753 1040.22 396.436
30 0 62.1846 13.1383 817 141.982 1040.27 396.361
31 0 65.0961 15.0854 982 136.949 1039.89 394.665
32 0 67.1422 14.5959 980 139.953 1040.07 394.019
33 0 68.0542 14.7676 1005 141.674 1040 392.606
34 0 71.0919 13.6162 968 144.591 1040.99 391.423
35 0 73.1296 14.8914 1089 142.759 1040.75 390.228
36 0 78.144 15.7018 1227 140.338 1040.76 390.124
37 0 79.0711 15.543 1229 142.462 1039.98 386.092
38 0 82.0816 15.6308 1283 141.204 1039.87 385.159
39 0 85.054 15.2727 1299 142.092 1039.4 384.662
40 0 87.0921 14.9153 1299 142.615 1039.84 382.386
41 0 90.0924 15.3953 1387 140.594 1039.96 381.611
42 0 93.0768 15.6537 1457 140.391 1039.71 380.04
43 0 97.0456 16.9096 1641 134.422 1039.76 378.674
44 0 100.157 15.5556 1558 138.132 1039.28 375.626
45 0 103.177 15.3038 1579 137.87 1038.73 373.891
46 0 107.14 15.4284 1653 135.988 1038.96 374.325
47 1 57.1604 13.2434 757 136.271 1038.8 399.647
48 0 60.0822 13.0987 787 136.879 1038.8 396.835
49 0 61.1282 14.216 869 136.816 1038.57 395.276
50 0 64.0391 13.5386 867 139.512 1038.44 394.579
51 0 66.0209 13.7229 906 137.376 1038.33 393.276
52 0 69.0257 13.8354 955 136.062 1038.42 392.866
53 0 71.0922 14.5867 1037 133.069 1038.43 390.7
54 0 74.071 13.4466 996 135.296 1037.96 389.954
55 0 77.1492 13.9859 1079 131.866 1037.88 388.41
56 0 79.1015 13.4384 1063 134.165 1038.21 384.506
57 0 83.1993 13.702 1140 131.236 1037.76 384.986
58 0 87.2162 14.4583 1261 127.297 1037.89 385.22
59 0 90.1306 14.2904 1288 128.286 1038.14 383.185
60 0 92.1628 14.2357 1312 129.111 1038.02 381.224
61 0 95.3688 14.3443 1368 128.342 1037.32 381.781
62 0 100.141 14.0402 1406 128.683 1036.9 379.685
63 0 104.392 13.7079 1431 130.124 1037.52 378.292
64 1 55.1242 13.3154 734 125.909 1036.44 401.054
65 0 56.1813 13.5276 760 126.137 1037.24 398.042
66 0 57.11 12.8524 734 128.424 1037.72 397.995
67 0 57.11 12.8349 733 169.104 1038.74 398.06
68 0 59.0873 13.387 791 119.913 1038.52 402.714
69 0 62.0809 13.4985 838 119.507 1038.13 399.666
70 0 64.0837 13.2015 846 120.706 1038.32 398.869
71 0 67.0736 13.3436 895 120.994 1038.24 397.998
72 0 70.0743 13.3002 932 121.072 1038.3 397.643
73 0 71.0757 13.6193 968 122.153 1038.56 394.226
74 0 73.1374 13.4405 983 122.8 1038.5 393.189
75 0 78.1229 13.8884 1085 120.508 1038.47 393.701
76 0 80.096 13.9458 1117 124.98 1038.88 391.308
77 0 85.0769 13.9286 1185 123.648 1039.16 390.072
78 0 86.1311 13.5143 1164 125.23 1038.47 390.012
79 0 89.0777 13.7184 1222 125.002 1038.14 387.917
80 0 93.0636 14.6351 1362 119.273 1037.72 387.233
81 0 96.2657 13.1719 1268 125.354 1038.19 384.909
82 1 51.0384 11.7755 601 120.233 1038.41 406.952
83 0 52.0437 13.162 685 118.343 1037.95 405.797
84 0 54.0976 12.995 703 121.317 1037.31 402.892
85 0 53.1313 12.4785 663 122.932 1038.62 404.582
86 0 54.0961 12.6626 685 118.025 1037.82 405.58
87 0 56.1842 12.0319 676 119.027 1037.74 406.164
88 0 59.1008 13.4347 794 115.248 1037.8 405.224
89 0 58.0985 11.6526 677 121.103 1037.82 404.261
90 0 61.0676 13.133 802 118.212 1037.36 402.552
91 0 63.1025 12.2024 770 118.681 1037.49 403.925
92 0 63.1084 12.0269 759 120.225 1037.59 402.57
93 0 67.1263 12.6031 846 119.29 1037.59 401.26
94 0 70.1234 13.9611 979 117.121 1037.82 400.253
95 0 71.1271 13.3423 949 119.065 1037.66 397.723
96 0 74.1565 13.9435 1034 117.432 1036.97 398.142
97 0 77.1604 14.2171 1097 116.986 1037.75 394.55
98 0 80.158 13.6605 1095 119.22 1037.74 393.474
99 0 81.2377 12.7896 1039 123.301 1037.69 391.795
100 0 84.1203 13.8968 1169 123.633 1037.31 390.958
101 0 88.1595 14.2242 1254 122.763 1037.4 389.549
102 0 92.137 14.663 1351 121.32 1037.41 387.822
103 0 94.1757 13.2093 1244 124.62 1036.8 386.513
104 1 51.0425 12.088 617 118.6 1037.3 408.326
105 0 50.1832 11.1193 558 122.384 1036.32 405.937
106 0 52.1379 11.9107 621 121.224 1035.78 404.316
107 0 56.1897 13.3476 750 121.692 1036.01 401.511
108 0 57.1566 13.8042 789 119.62 1036.74 406.198
109 0 59.1063 14.0256 829 119.349 1037.13 405.182
110 0 60.1367 12.4716 750 124.189 1036.9 404.088
111 0 59.197 13.7845 816 117.071 1036.9 403.305
112 0 63.1209 13.1652 831 116.466 1037.11 402.7
113 0 65.1315 11.9758 780 119.403 1037.23 402.27
114 0 66.1158 12.8109 847 117.992 1037.34 399.835
115 0 67.1367 12.7054 853 119.035 1037.36 400.118
116 0 70.1039 11.8538 831 120.888 1037.08 397.757
117 0 74.1633 13.5377 1004 115.656 1037.21 396.752
118 0 76.0844 12.8147 975 118.147 1037.34 395.388
119 0 78.0707 13.1035 1023 118.235 1037.02 392.76
120 0 81.0989 13.7117 1112 115.118 1036.83 394.306
121 0 81.1233 12.6844 1029 118.106 1036.64 392.063
122 0 85.1688 13.0329 1110 116.714 1036.63 388.155
123 0 90.0562 12.3367 1111 117.544 1036.6 388.135
124 0 94.226 14.5289 1369 112.478 1037.4 387.667
125 0 97.2464 13.9028 1352 114.936 1036.53 385.299
126 0 99.1638 13.9265 1381 116.558 1036.34 381.586
127 0 104.178 14.9264 1555 113.643 1036.46 380.717
128 1 53.2005 12.4059 660 113.338 1037.52 405.432
129 0 53.1634 11.3048 601 115.496 1037.44 404.742
130 0 55.1379 12.1695 671 111.019 1037.19 404.568
131 0 57.2215 11.7613 673 113.572 1037.74 404.643
132 0 58.1366 12.4706 725 113.206 1037.6 404.503
133 0 60.0917 12.6973 763 109.277 1037.51 402.797
134 0 62.1492 13.178 819 108.408 1037.61 402.252
135 0 63.1672 14.0579 888 107.193 1037.31 401.392
136 0 66.1961 13.173 872 109.068 1037.28 400.456
137 0 67.1594 11.9864 805 113.697 1036.73 398.968
138 0 67.129 11.396 765 115.906 1037.07 397.995
139 0 72.0736 12.737 918 111.637 1037.21 397.812
140 0 73.0785 13.3008 972 111.467 1037.75 396.324
141 0 75.1597 12.6797 953 112.338 1037.15 395.862
142 0 79.1746 14.0197 1110 110.276 1036.93 392.81
143 0 79.1678 11.9493 946 115.848 1037.03 393.771
144 0 82.1969 13.6745 1124 113.46 1036.89 390.781
145 0 87.2139 13.8739 1210 111.956 1037.76 391.037
146 0 87.2139 13.8166 1205 151.887 1038.77 391.179
147 0 94.383 13.1274 1239 115.028 1036.99 387.47
148 0 96.4206 13.7004 1321 113.919 1037.65 386.927
149 0 98.2691 13.3206 1309 115.349 1037.76 383.121
150 0 103.288 13.0122 1344 115.952 1037.92 381.484
151 0 107.255 14.8805 1596 111.378 1037.53 380.144
152 0 109.235 14.0614 1536 112.35 1037.34 374.665
153 0 112.149 15.2832 1714 110.306 1037.59 375.169
154 0 114.204 14.2551 1628 113.299 1038.15 373.86
155 0 120.199 14.1765 1704 112.94 1037.27 371.034
156 0 123.172 13.7532 1694 113.123 1037.64 367.442
157 1 59.1025 10.5072 621 108.539 1037.92 401.375
158 0 64.0799 12.2659 786 102.427 1037.73 402.137
159 0 67.1312 13.6896 919 99.84 1037.45 400.453
160 0 69.2015 12.6731 877 102.633 1037.62 397.758
161 0 69.1166 13.4266 928 103.068 1037.4 395.071
162 0 73.1882 14.1006 1032 100.016 1037.69 397.156
163 0 74.1357 12.0725 895 105.317 1037 395.305
164 0 76.309 12.6197 963 105.507 1037 391.58
165 0 76.1505 11.5167 877 112.491 1037.13 390.561
166 0 76.1505 11.4904 875 144.711 1037.14 390.517
167 0 85.1731 14.0068 1193 104.97 1038.02 392.415
168 0 86.2558 13.7034 1182 107.789 1037.46 387.151
169 0 90.2756 12.8938 1164 108.061 1037.89 386.707
170 0 93.1381 12.3795 1153 107.479 1037.92 386.755
171 0 96.1248 12.8479 1235 105.868 1037.14 384.05
172 0 99.2851 13.7785 1368 104.824 1037.1 381.743
173 0 101.093 13.0474 1319 105.741 1037.04 384.25
174 0 105.194 14.2404 1498 104.611 1036.99 378.374
175 0 108.21 12.4203 1344 106.673 1037.03 380.634
176 0 114.214 11.9601 1366 108.858 1036.76 375.043
177 1 64.068 11.2849 723 102.325 1037.11 400.761
178 0 66.2164 11.4624 759 105.08 1036.76 397.145
179 0 68.2383 13.4822 920 106.35 1035.7 393.971
180 0 70.3194 12.1446 854 104.222 1035.93 396.111
181 0 72.419 13.0215 943 103.474 1037.21 393.334
182 0 74.3656 13.2319 984 103.328 1036.04 392.895
183 0 75.214 13.2289 995 104.824 1036.37 390.97
184 0 76.369 13.0027 993 106.082 1036.21 389.54
185 0 80.2666 13.8788 1114 103.092 1036.41 389.086
186 0 81.189 11.8982 966 107.172 1036.48 390.389
187 0 85.1923 13.358 1138 105.366 1036.33 387.352
188 0 89.3186 13.7709 1230 106.015 1036.32 386.241
189 0 90.3452 12.253 1107 114.076 1036.51 382.8
190 0 96.2508 13.9947 1347 109.221 1035.63 381.869
191 0 97.2301 14.6971 1429 108.917 1036.1 382.05
192 0 99.3276 12.3027 1222 114.227 1036.17 379.453
193 0 105.425 16.0209 1689 105.925 1037.35 379.361
194 0 108.252 13.2746 1437 112.409 1037.35 377.811
195 0 111.164 14.717 1636 106.152 1036.77 365.283
196 1 56.0291 9.70925 544 101.43 1036.65 389.268
197 0 60.188 11.4142 687 103.128 1037.47 402.568
198 0 59.2342 12.5265 742 104.104 1037.78 404.528
199 0 62.168 12.4019 771 105.288 1037.44 402.25
200 0 62.3324 12.1766 759 107.017 1036.92 400.611
201 0 65.2509 11.8159 771 106.261 1036.37 402.185
202 0 67.218 12.1694 818 106.681 1036.26 399.466
203 0 67.1491 12.3159 827 106.684 1036.42 399.325
204 0 69.2091 11.9348 826 108.331 1036.81 397.82
205 0 72.182 12.0806 872 107.904 1036.35 397.475
206 0 75.2123 13.1627 990 107.04 1036.29 395.357
207 0 75.1149 13.2597 996 107.114 1036.05 391.973
208 0 78.2592 13.4936 1056 106.537 1036.09 390.804
209 0 79.1018 12.073 955 110.473 1036.35 390.044
210 0 83.1062 13.7776 1145 106.762 1036.58 387.089
211 0 85.1022 11.5626 984 111.936 1036.17 385.927
212 0 88.2191 12.3896 1093 109.809 1036.24 382.765
213 0 91.0927 14.2712 1300 107.199 1035.78 377.133
214 0 93.1215 12.9508 1206 109.991 1035.75 375.283
215 0 95.1125 12.3223 1172 112.261 1035.71 373.561
216 1 53.0503 11.8567 629 103.362 1036.87 394.456
217 0 55.0173 11.3237 623 107.652 1036.66 396.051
218 0 54.1036 12.7163 688 102.571 1036.92 402.795
219 0 56.1415 12.326 692 102.938 1036.41 403.717
220 0 58.1617 12.0354 700 103.146 1036.76 402.63
221 0 60.1584 11.8022 710 104.399 1037.33 403.707
222 0 61.1066 10.5553 645 107.113 1036.62 401.808
223 0 64.1503 11.7225 752 104.199 1036.61 402.787
224 0 66.0867 13.3461 882 103.303 1037.38 399.337
225 0 68.0967 12.9962 885 104.594 1037.21 399.252
226 0 69.1225 12.731 880 106.58 1037.3 399.967
227 0 72.1248 12.6725 914 106.836 1037.04 398.484
228 0 75.1499 12.7079 955 107.595 1036.9 398.116
229 0 76.1371 13.1999 1005 107.889 1037.12 395.85
230 0 78.1219 12.8389 1003 110.828 1036.98 394.004
231 0 80.1173 11.5705 927 113.634 1036.99 394.578
232 0 82.2245 13.7185 1128 110.562 1037.18 392.302
233 0 85.1492 12.0964 1030 115.929 1037.42 390.884
234 0 86.165 13.184 1136 117.364 1037.39 387.533
235 0 91.1679 15.093 1376 113.264 1036.92 386.758
236 0 92.1488 13.4782 1242 118.932 1036.87 382.904
237 0 96.257 14.0769 1355 116.433 1036.59 383.258
238 0 99.2654 14.4461 1434 116.327 1036.49 381.084
239 0 102.177 14.1617 1447 117.46 1036.48 379.252
240 0 106.094 13.6765 1451 114.815 1036.54 370.057
241 1 54.062 10.0625 544 108.522 1035.82 393.309
242 0 56.0594 11.6127 651 105.375 1036.41 390.805
243 0 60.0848 13.6141 818 105.359 1036.94 404.005
244 0 60.0969 11.5147 692 110.685 1036.95 402.004
245 0 62.0954 13.7047 851 106.193 1037.32 401.184
246 0 65.0776 13.9833 910 106.254 1037.15 401.5
247 0 65.0491 13.0824 851 110.643 1036.89 399.145
248 0 69.1514 13.1162 907 109.342 1037.38 399.873
249 0 70.0384 12.536 878 112.104 1037.56 399.585
250 0 70.1089 12.5091 877 114.991 1038.11 396.255
251 0 74.1002 13.5492 1004 112.951 1037.05 393.084
252 0 76.1972 14.1606 1079 110.502 1035.63 393.698
253 0 79.208 13.7865 1092 112.673 1035.52 391.757
254 0 81.1114 14.4369 1171 111.851 1036.09 391.726
255 0 83.1638 13.7199 1141 115.707 1036.26 385.802
256 0 85.345 14.3887 1228 114.705 1036.34 388.128
257 0 89.4404 14.1994 1270 115.792 1036.35 388.084
258 0 89.1384 14.169 1263 115.678 1036.94 376.234
259 0 92.0532 14.0028 1289 116.756 1037.15 374.821
260 0 95.0983 13.4913 1283 119.382 1037.3 372.154
261 0 100.105 14.2351 1425 116.902 1037.35 367.584
262 0 103.101 14.3549 1480 117.486 1037.2 367.972
263 1 56.0382 11.7777 660 114.185 1037.53 392.832
264 0 56.0885 11.3036 634 115.091 1037.15 391.806
265 0 57.0323 11.7828 672 114.908 1036.91 391.412
266 0 59.1327 13.0723 773 115.109 1038.07 405.833
267 0 60.0883 12.9642 779 112.733 1038.41 405.551
268 0 61.1531 11.5775 708 117.405 1038.5 402.931
269 0 63.1279 12.7361 804 113.985 1038.01 403.203
270 0 66.133 11.5374 763 117.529 1037.71 401.865
271 0 69.1997 14.0174 970 111.653 1037.58 399.94
272 0 69.1245 13.6276 942 113.62 1037.4 400.294
273 0 71.1625 12.2396 871 118.268 1036.78 398.619
274 0 74.1579 13.296 986 116.963 1036.91 396.186
275 0 78.1732 14.0329 1097 114.424 1037.21 396.012
276 0 80.2414 13.2351 1062 116.674 1036.92 393.077
277 0 84.3223 13.8516 1168 115.58 1036.55 391.768
278 0 86.2326 13.7883 1189 117.621 1036.63 391.118
279 0 88.1551 12.6935 1119 121.371 1036.8 390.575
280 0 93.1322 14.925 1390 119.176 1036.68 388.188
281 0 95.2938 12.813 1221 124.461 1037.07 386.804
282 0 99.244 13.3006 1320 121.208 1036.63 384.451
283 1 51.1732 11.7835 603 116.556 1037.04 407.746
284 0 54.2639 13.7845 748 112.996 1037.32 406.013
285 0 56.1224 13.2211 742 118.588 1036.37 404.973
286 0 57.2373 12.7889 732 119.624 1037.17 404.611
287 0 61.1623 12.7202 778 118.772 1036.68 403.478
288 0 62.1421 13.2438 823 117.651 1037.76 401.971
289 0 64.1881 13.3202 855 117.605 1037.79 401.952
290 0 65.1202 13.7131 893 116.772 1037.62 400.634
291 0 67.1741 12.7728 858 120.128 1037.68 400.015
292 0 67.2681 12.8739 866 116.672 1036.71 401.45
293 0 69.3317 12.3753 858 119.737 1036.92 399.647
294 0 73.3362 13.104 961 118.263 1036.9 397.524
295 0 74.2456 12.6337 938 120.075 1036.85 397.89
296 0 76.2446 12.6829 967 122.538 1037.1 395.046
297 0 78.2479 13.8023 1080 122.657 1036.58 393.183
298 0 88.2835 13.9777 1234 87.3768 1036.97 392.784
299 0 84.1433 15.331 1290 118.105 1037.07 391.538
300 0 88.141 13.4784 1188 122.799 1037.39 389.94
301 0 89.1511 13.3033 1186 123.712 1037.32 385.721
302 0 90.1578 14.1973 1280 149.854 1038.34 387.386
303 0 96.1559 14.0709 1353 120.13 1036.65 386.307
304 0 100.187 13.8042 1383 121.179 1036.94 382.708
305 1 56.2292 11.4353 643 117.213 1036.91 405.602
306 0 58.2003 11.9931 698 113.126 1037.61 406.178
307 0 58.2125 10.4445 608 113.179 1037.27 403.553
308 0 58.1967 11.2549 655 111.656 1037.52 404.093
309 0 60.0857 10.718 644 113.3 1037.96 401.87
310 0 62.1064 11.3837 707 111.272 1036.89 401.511
311 0 63.0914 12.5849 794 108.788 1037.2 400.001
312 0 66.1649 13.6024 900 106.35 1036.91 398.778
313 0 67.1105 13.0382 875 107.197 1036.91 398.665
314 0 69.1063 13.0524 902 108.509 1036.47 395.891
315 0 71.1042 12.8544 914 109.068 1036.46 395.43
316 0 74.1292 13.0043 964 108.443 1035.56 393.199
317 0 77.1501 12.0155 927 110.246 1036.32 394.567
318 0 80.0926 13.0973 1049 107.841 1036.24 392.214
319 0 82.1189 14.0163 1151 106.474 1035.94 390.55
320 1 45.0562 10.6978 482 107.932 1037.07 411.602
321 0 45.029 12.9694 584 104.832 1037.53 409.702
322 0 46.0665 12.3951 571 106.644 1037.71 410.226
323 0 45.0261 12.9925 585 106.88 1036.83 407.598
324 0 48.0562 11.5906 557 107.779 1036.25 408.339
325 0 47.1039 11.6763 550 108.438 1036.82 408.2
326 0 51.0806 12.1573 621 105.646 1036.99 407.155
327 0 53.0865 11.7167 622 106.232 1037.04 406.362
328 0 52.0483 11.9697 623 105.986 1036.96 408.159
329 0 55.0839 13.1254 723 103.434 1037.75 406.028
330 0 54.084 12.1847 659 133.126 1038.59 404.677
331 0 57.0978 12.067 689 105.922 1037.41 404.952
332 0 60.1406 12.504 752 104.665 1037.07 403.052
333 0 62.1281 11.4441 711 106.451 1037.11 400.973
334 0 64.0824 13.4826 864 102.47 1037.35 399.802
335 0 65.2219 12.9558 845 103.586 1037.24 398.947
336 0 66.1538 12.4709 825 105.434 1036.9 397.886
337 0 70.1599 12.8563 902 103.554 1037.26 397.118
338 0 72.1298 12.2973 887 104.096 1037.39 396.94
339 0 73.2153 13.2076 967 103.741 1037.1 392.802
340 0 77.1418 14.4798 1117 101.75 1036.9 392.585
341 0 79.2252 13.4301 1064 104.496 1036.82 392.927
342 0 82.3064 12.4049 1021 111.023 1037.08 391.318
343 0 87.2433 13.6515 1191 107.372 1037.64 389.786
344 0 88.2098 14.0461 1239 107.304 1037.48 386.608
345 1 46.1038 11.7995 544 105.691 1038.01 409.265
346 0 48.3209 11.5892 560 106.461 1037.33 407.25
347 0 50.1289 11.6699 585 105.01 1037.31 405.858
348 0 50.1721 10.8825 546 104.63 1037.65 406.934
349 0 53.0759 12.8495 682 100.999 1038.2 406.343
350 0 50.0792 10.3836 520 107.237 1038.37 404.987
351 0 56.1514 13.2855 746 100.186 1037.63 403.878
352 0 57.1793 11.6825 668 103.374 1037.42 403.936
353 0 62.1095 12.4458 773 100.22 1037.83 404.043
354 0 63.0735 12.3824 781 101.02 1037.58 402.311
355 0 63.1429 11.4344 722 104.539 1037.95 398.802
356 0 67.0942 12.0428 808 102.735 1036.93 398.015
357 0 69.1367 11.7014 809 102.942 1037.47 399.337
358 0 72.2165 12.2133 882 101.837 1038.07 396.466
359 0 76.2092 13.2661 1011 100.168 1038.34 394.873
360 0 77.1756 12.2966 949 103.242 1037.74 394.462
361 0 81.1909 11.9718 972 102.764 1038.03 394.567
362 0 84.1463 12.2049 1027 101.993 1037.79 391.078
363 0 87.2765 12.1797 1063 101.757 1038.32 392.249
364 0 92.1146 12.8861 1187 100.597 1037.94 388.912
365 1 48.0985 11.6843 562 101.737 1038.2 410.004
366 0 52.211 12.0856 631 99.4818 1038.54 409.044
367 0 52.1508 13.1158 684 98.4547 1038.35 408.444
368 0 53.2585 11.6226 619 101.725 1038.16 406.383
369 0 54.1156 11.42 618 103.476 1038.59 406.914
370 0 57.0915 12.2435 699 101.817 1038.55 406.255
371 0 58.1024 12.0821 702 102.516 1039.13 406.382
372 0 59.0414 11.077 654 105.962 1038.77 405.554
373 0 61.1048 12.7486 779 103.736 1038.66 403.633
374 0 61.0962 10.819 661 109.649 1038.49 401.3
375 0 64.1534 12.6416 811 106.274 1038.69 401.645
376 0 67.067 11.8836 797 108.395 1038.79 401.348
377 0 71.1874 13.0501 929 105.973 1038.31 400.56
378 0 74.0864 13.6867 1014 106.118 1037.78 398.938
379 0 76.062 13.0157 990 108.916 1038.46 397.765
380 0 77.0359 12.5656 968 111.544 1037.67 394.791
381 0 80.0649 12.3275 987 112.129 1037.87 395.826
382 0 83.0227 13.5264 1123 112.169 1037.82 392.605
383 0 87.1329 14.0705 1226 111.093 1038.02 391.954
384 0 89.1412 11.8352 1055 115.945 1037.71 391.943
385 1 46.0384 12.2289 563 111.115 1037.88 411.478
386 0 47.0954 11.9757 564 116.273 1038.24 410.936
387 0 49.0556 12.3941 608 115.066 1038.28 410.576
388 0 50.1124 12.4321 623 113.607 1038.79 409.764
389 0 52.11 12.9534 675 112.767 1037.85 408.93
390 0 53.1338 12.0827 642 115.431 1037.79 408.952
391 0 54.1757 12.6994 688 113.192 1037.88 409.151
392 0 57.1835 13.1856 754 114.07 1038.16 405.468
393 0 56.0674 12.2353 686 118.257 1038.3 404.924
394 0 60.0858 13.0147 782 116.357 1037.57 404.426
395 0 62.1852 13.492 839 115.364 1037.58 403.459
396 0 63.038 12.9763 818 115.587 1037.36 404.7
397 0 66.094 14.6307 967 111.925 1038.3 400.867
398 0 66.0316 11.6762 771 118.789 1037.61 402.354
399 0 71.0338 14.7254 1046 110.83 1037.48 400.86
400 0 70.1578 12.5574 881 117.052 1037.35 400.366
401 0 73.1806 12.476 913 118.166 1037.14 398.221
