time division length width area intensity CMx CMy
0 0 90.1458 12.3688 1115 101.753 1345.91 451.721
1 0 97.1983 14.3315 1393 97.0108 1346.27 450.378
2 1 48.1338 9.86832 475 96.9263 1346.24 471.792
3 0 48.0579 12.0896 581 94.9914 1346.22 473.105
4 0 48.0947 11.2694 542 93.6365 1345.83 476.753
5 0 52.088 12.2293 637 88.8854 1346.43 476.623
6 0 51.0894 10.0804 515 93.3456 1346.93 474.553
7 0 56.0946 12.8889 723 88.2227 1347.01 472.371
8 0 57.0127 11.5062 656 91.1509 1347.11 473.474
9 0 59.0803 11.5436 682 92.4194 1346.16 469.947
10 0 61.0993 11.3749 695 92.5871 1346.42 470.938
11 0 64.0362 12.4929 800 90.2812 1346.42 470.742
12 0 67.0569 13.675 917 88.4711 1348.13 465.566
13 0 68.0646 12.9583 882 91.4444 1347.89 464.306
14 0 69.0587 11.8884 821 94.5725 1347.41 464.531
15 0 72.0755 12.1123 873 92.3436 1347.72 462.885
16 0 74.1148 10.8615 805 94.4472 1347.26 463.899
17 0 78.0529 12.5684 981 96.0031 1347.39 459.922
18 0 80.2034 13.1541 1055 94.6673 1347.46 460.668
19 0 81.1437 12.2499 994 95.9286 1347.3 457.919
20 0 84.277 11.9368 1006 99.3211 1347.34 456.917
21 0 88.208 13.2528 1169 96.1497 1347.7 454.932
22 0 91.1858 11.0544 1008 100.634 1347.39 455.396
23 0 89.1403 11.8241 1054 102.095 1347.23 444.671
24 0 96.1098 12.5377 1205 98.5369 1347.74 444.547
25 0 96.1098 12.5898 1210 142.364 1348.74 444.603
26 0 103.258 11.3889 1176 100.926 1346.92 441.639
27 0 106.072 12.0201 1275 100.573 1347.83 439.061
28 1 57.0276 10.0653 574 97.1498 1348.05 466.73
29 0 58.0491 8.6823 504 97.9444 1348.24 467.018
30 0 61.0673 10.4802 640 96.9344 1348.2 466.064
31 0 64.0475 10.7108 686 97.5335 1347.86 464.312
32 0 67.0878 12.819 860 94.0186 1348.4 462.444
33 0 70.0742 11.8874 833 94.3265 1348.39 461.168
34 0 70.0742 11.8589 831 131.338 1349.36 461.249
35 0 75.0637 11.7234 880 95.2409 1348.11 459.644
36 0 81.0516 13.9911 1134 88.6649 1348.19 452.272
37 0 81.0316 11.0698 897 96.7759 1347.93 454.603
38 0 83.0684 11.8457 984 94.6748 1348.43 455.667
39 0 87.1179 12.5233 1091 93.528 1348.21 453.915
40 0 90.1787 11.1113 1002 97.2705 1347.98 451
41 0 91.1677 12.8993 1176 94.3146 1348.31 450.796
42 0 97.1802 11.5764 1125 97.2409 1347.99 449.244
43 0 99.1232 11.9346 1183 96.7971 1348.72 447.452
44 1 50.062 9.10871 456 88.7895 1348.67 470.993
45 0 53.0275 10.1645 539 90.757 1348.07 469.519
46 0 55.056 12.3692 681 80.9501 1348.6 469.442
47 0 55.056 12.3692 681 115.302 1349.6 469.442
48 0 60.0379 12.5587 754 90.618 1348.65 467.496
49 0 60.0316 12.5601 754 132.146 1346.65 467.496
50 0 63.1134 9.99788 631 95.4976 1348.38 464.694
51 0 63.0382 11.0251 695 95.6043 1348.41 461.639
52 0 67.1274 10.0853 677 95.4269 1348.79 461.349
53 0 68.1208 11.2741 768 94.8151 1348.43 460.509
54 0 74.1534 11.3009 838 93.8019 1347.39 462.833
55 0 78.0947 11.1147 868 94.3145 1347.81 460.568
56 0 78.1852 11.2809 882 96.0544 1347.5 458.018
57 0 80.1006 10.6117 850 96.7024 1348.27 454.715
58 0 84.0991 12.3426 1038 91.8651 1348.53 453.007
59 0 86.1294 10.8325 933 94.4373 1348.28 454.237
60 1 42.0335 10.5392 443 83.0677 1348.18 476.131
61 0 41.0228 10.1407 416 85.1394 1348.16 473.538
62 0 44.0606 10.7579 474 85.5781 1348.19 473.118
63 0 44.0808 10.753 474 86.4198 1348.67 471.833
64 0 47.0382 11.0336 519 85.2197 1348.73 474.285
65 0 47.0327 9.82295 462 90.3442 1348.38 470.66
66 0 51.1401 9.05356 463 92.1296 1348.73 469.607
67 0 52.0644 11.1593 581 92.7883 1348.79 469.355
68 0 53.0845 10.8695 577 92.5199 1348.56 472.125
69 0 57.0777 10.6346 607 93.1631 1348.37 469.74
70 0 60.0777 11.7847 708 93.2556 1347.79 468.442
71 0 62.0488 12.8931 800 93.1475 1347.77 465.246
72 0 63.0717 12.0181 758 95.4657 1347.66 463.619
73 0 67.0567 11.2442 754 97.63 1347.68 461.919
74 0 67.071 10.4069 698 99.6963 1347.74 463.745
75 0 71.0681 10.7643 765 99.4039 1347.83 461.705
76 0 74.0837 11.3385 840 98.9512 1347.58 461.469
77 0 77.1558 13.5181 1043 95.1467 1347.91 457.359
78 0 79.2216 11.6509 923 99.8332 1347.99 456.885
79 0 83.1049 13.6334 1133 95.1403 1348.33 453.619
80 0 86.0935 15.3089 1318 91.1791 1348.81 447.999
81 0 92.0562 15.2624 1405 90.3359 1348.94 449.69
82 0 92.0562 15.3384 1412 121.985 1348.95 449.721
83 0 95.2012 13.7288 1307 96.391 1348.23 447.103
84 0 100.079 16.1972 1621 91.4614 1348.74 446.216
85 1 51.0381 10.3256 527 96.4194 1348.28 474.015
86 0 52.0223 10.0342 522 98.0939 1348.41 471.239
87 0 55.0606 11.8778 654 96.4709 1348.39 471.616
88 0 55.0602 10.8427 597 99.8358 1348.76 469.054
89 0 58.0347 11.1657 648 99.2392 1348.48 469.6
90 0 59.0205 11.5384 681 98.8003 1348.91 466.201
91 0 62.1085 11.7375 729 99.1509 1348.67 464.65
92 0 65.0338 11.717 762 98.1273 1348.69 465.215
93 0 68.0925 11.9103 811 99.3576 1347.97 463.326
94 0 69.0605 11.8736 820 98.7073 1349.45 461.244
95 0 71.0883 12.0976 860 100.716 1348.54 460.322
96 0 73.1121 12.2551 896 101.604 1348.29 459.842
97 0 77.0448 11.2013 863 102.881 1348.7 459.619
98 0 79.0504 10.74 849 104.919 1348.25 458.085
99 0 82.0933 12.1813 1000 96.448 1348.42 454.518
100 0 84.0839 11.8929 1000 95.396 1348.32 457.384
101 0 88.1365 12.7076 1120 95.4277 1347.83 453.907
102 0 91.1251 12.5542 1144 96.8566 1347.61 451.688
103 0 93.1352 11.8537 1104 99.3469 1347.24 451.333
104 1 53.102 10.1126 537 93.581 1347.16 472.981
105 0 54.0777 9.30143 503 97.0616 1347.79 470.594
106 0 56.102 11.0513 620 97.7032 1347.83 471.473
107 0 58.0952 10.3967 604 99.7252 1348.35 469.775
108 0 55.0365 8.55796 471 91.2357 1348.28 472.004
109 0 59.0892 8.93564 528 92.4318 1347.79 468.322
110 0 62.052 8.12222 504 90.4544 1347.7 473.111
111 0 63.1122 10.0931 637 90.8901 1347.81 467.637
112 0 64.1027 9.76558 626 91.3994 1347.66 468.756
113 0 68.087 10.7656 733 89.6726 1347.78 468.617
114 0 72.0276 12.3703 891 90.6386 1348 462.699
115 0 73.112 10.4497 764 95.4306 1347.61 461.605
116 0 77.0477 12.0964 932 90.7704 1347.28 462.397
117 0 80.0342 11.6075 929 90.3186 1347.54 462.421
118 0 81.2033 9.12524 741 95.7827 1346.93 460.484
119 0 84.0678 12.026 1011 93.908 1346.79 454.11
120 0 87.1823 10.4723 913 94.3111 1347.06 457.869
121 0 91.0641 11.0472 1006 91.6899 1347.58 454.513
122 0 92.0626 9.84113 906 94.8609 1347.09 452.076
123 0 97.1002 11.4624 1113 91.9128 1347.23 450.259
124 0 99.1939 9.84939 977 95.303 1346.86 448.346
125 1 54.0228 9.10727 492 90.6707 1347.47 469.22
126 0 57.0615 7.72851 441 98.4331 1347.59 468.449
127 0 63.0694 11.2733 711 89.9198 1347.6 468.581
128 0 64.0915 11.9829 768 88.0495 1347.73 466.18
129 0 65.0652 11.4039 742 89 1347.7 466.984
130 0 68.1247 11.3615 774 88.1227 1348.25 467.089
131 0 72.1613 11.5852 836 87.2117 1348.01 464.828
132 0 71.0643 10.2724 730 91.4726 1348.08 461.522
133 0 74.1291 10.5222 780 93.4872 1347.05 457.313
134 0 78.0764 11.5144 899 90.8053 1346.86 458.253
135 0 79.13 11.0325 873 91.7045 1347.07 458.647
136 0 79.1912 10.6451 843 93.0237 1347.42 456.007
137 0 83.2898 11.1898 932 91.6867 1347.28 454.512
138 0 85.1318 11.7817 1003 91.0917 1347.53 450.73
139 0 88.2015 10.3286 911 93.3546 1347.37 449.774
140 0 91.1299 10.9624 999 90.6116 1347.52 448.834
141 0 96.1942 11.3312 1090 88.4248 1347.29 447.248
142 0 96.1037 9.83313 945 90.7016 1347.14 446.817
143 0 100.156 10.254 1027 90.9182 1346.88 442.649
144 0 103.318 10.5693 1092 87.0916 1347.04 438.079
145 0 109.209 10.6126 1159 90.277 1347.28 440.927
146 1 55.0674 7.89941 435 80.3517 1347.85 470.349
147 0 58.074 9.3157 541 77.9889 1347.66 464.342
148 0 60.0397 11.4091 685 74.1737 1347.07 466.178
149 0 62.0502 9.08941 564 75.727 1347.62 465.34
150 0 66.1168 11.9788 792 71.8232 1347.69 463.862
151 0 63.1096 8.31886 525 77.9162 1346.54 461.192
152 0 66.1243 6.88098 455 79.0242 1347.64 458.033
153 0 71.1608 9.26072 659 76.0243 1347.53 458.958
154 0 75.0666 10.3508 777 75.1622 1347.22 457.431
155 0 75.1299 10.0493 755 75.8649 1347.91 459.452
156 0 81.11 9.04944 734 90.015 1347.14 452.669
157 0 83.2027 11.0213 917 86.8048 1347.23 454.925
158 0 89.1495 11.4527 1021 86.0607 1346.24 454.149
159 0 89.2694 12.0086 1072 85.5849 1346.31 449.687
160 0 92.1886 9.28531 856 90.6414 1345.85 451.279
161 0 87.1074 7.02581 612 94.3382 1345.92 436.348
162 0 92.0837 8.94839 824 90.3532 1346.53 438.86
163 0 101.117 13.064 1321 81.0553 1345.75 439.547
164 0 111.137 14.8376 1649 77.8253 1345.73 429.242
165 0 114.43 14.9349 1709 79.8467 1345.74 432.49
166 0 116.628 13.513 1576 84.981 1345.4 436.752
167 1 59.2193 10.6384 630 80.0873 1345.96 467.979
168 0 61.207 11.0118 674 81.2596 1346.05 467.335
169 0 62.306 10.2879 641 81.6568 1346.02 467.573
170 0 60.1463 8.97811 540 85.0537 1345.85 462.859
171 0 67.1231 10.9351 734 78.3597 1346.67 463.704
172 0 71.3076 10.6861 762 82.0446 1345.91 459.147
173 0 69.5002 9.48198 659 84.2307 1345.76 457.546
174 0 74.2218 10.1992 757 82.6288 1345.47 460.339
175 0 73.1711 9.64862 706 87.017 1345.89 456.086
176 0 78.149 10.5184 822 85.4757 1345.96 458.477
177 0 80.1717 11.4255 916 85.048 1346.23 459.203
178 0 80.1276 10.5082 842 84.5499 1346.69 451.295
179 0 87.1565 11.5539 1007 84.5372 1346.95 454.506
180 0 90.3731 10.7554 972 84.6409 1346.41 456.038
181 0 94.1596 11.4168 1075 83.7014 1346.1 453.58
182 0 96.1169 10.1127 972 84.5658 1346.27 451.431
183 0 101.234 11.4092 1155 82.2788 1346.42 448.867
184 0 103.169 10.4974 1083 84.9354 1346.06 444.54
185 0 107.081 9.29203 995 87.8533 1346.29 445.727
186 0 111.167 12.1709 1353 86.6704 1346.58 443.951
187 0 111.205 9.2712 1031 93.5112 1347.06 438.305
188 1 58.2632 9.47424 552 79.5018 1345.64 469.457
189 0 61.103 8.42839 515 79.7728 1345.7 471.979
190 0 64.1857 9.65947 620 79.6016 1345.72 470.361
191 0 65.2062 10.7505 701 79.2368 1345.73 467.713
192 0 68.1598 11.6931 797 78.3563 1346.4 462.737
193 0 70.0362 12.208 855 78.0304 1346.31 462.987
194 0 70.1872 11.2556 790 79.8911 1346.15 463.939
195 0 75.0969 10.8793 817 79.8164 1346.3 462.318
196 0 75.1316 10.9674 824 80.3058 1345.54 463.711
197 0 80.2545 10.0929 810 80.1037 1345.42 464.681
198 0 83.1615 11.3394 943 80.2503 1345.17 459.533
199 0 90.1715 13.7516 1240 75.4524 1345.56 453.912
200 0 88.1019 12.2472 1079 80.4263 1346.14 454.86
201 0 91.0708 11.4966 1047 82.4862 1345.78 452.057
202 0 93.2108 12.1982 1137 81.92 1346.54 452.046
203 1 53.0154 10.6761 566 81.4258 1346.28 473.26
204 0 56.0965 12.122 680 80.675 1346.49 467.182
205 0 56.0622 10.0781 565 80.2177 1346.34 469.745
206 0 52.0738 9.54414 497 76.2555 1346.04 465.982
207 0 55.0934 10.5457 581 74.7384 1346.18 464.914
208 0 59.0394 11.7887 696 71.523 1345.85 462.636
209 0 58.0502 11.2489 653 73.6616 1346.72 464.626
210 0 63.065 11.8291 746 75.7051 1347.11 469.083
211 0 62.1423 10.7656 669 75.1794 1347.12 462.719
212 0 63.0674 10.0845 636 75.8601 1347.42 465.953
213 0 67.177 11.0752 744 75.1868 1347.37 462.042
214 0 68.0332 9.98042 679 77.1797 1347.85 461.027
215 0 69.16 11.1047 768 77.0482 1347.45 461.018
216 0 67.0455 5.9661 400 86.0575 1347.61 465.585
217 0 77.1224 12.733 982 75.6018 1346.21 457.048
218 0 74.0907 9.48836 703 82.377 1346.86 459.485
219 0 78.1261 10.6879 835 83.9593 1346.94 457.704
220 0 81.0917 11.4438 928 88.7953 1346.86 454.348
221 0 84.1392 11.1244 936 86.3483 1346.93 455.901
222 0 84.0521 9.81534 825 88.6982 1346.73 454.2
223 1 45.0701 10.6723 481 83.6902 1346.36 477.376
224 0 48.0373 12.0531 579 78.4715 1346.33 474.63
225 0 50.1431 12.225 613 78.7259 1346.7 474.383
226 0 49.1149 11.3408 557 80.1849 1346.63 475.713
227 0 52.0648 11.3128 589 81.0985 1346.03 474.542
228 0 53.0597 12.1561 645 80.9597 1346.24 471.26
229 0 54.0269 12.1976 659 80.6131 1346.64 472.073
230 0 57.0816 12.0529 688 80.9782 1346.99 470.295
231 0 58.087 11.2073 651 82.2181 1346.82 470.267
232 0 62.1425 11.8759 738 80.7751 1346.86 470.222
233 0 61.0854 10.9846 671 82.1133 1346.63 471.055
234 0 66.063 12.3064 813 79.0652 1346.36 468.931
235 0 68.0707 12.061 821 81.3362 1346.88 467.133
236 0 70.0523 11.4058 799 85.7622 1347.3 460.74
237 0 70.0917 10.8429 760 87.4882 1346.86 462.805
238 0 73.0677 12.988 949 87.7692 1346.79 461.799
239 0 75.0606 11.1776 839 90.3969 1345.99 463.122
240 0 80.1789 11.9857 961 87.9376 1346.38 459.751
241 0 81.1346 11.0311 895 90.1151 1345.85 459.688
242 0 82.0768 11.7938 968 89.1085 1346.56 455.514
243 0 86.1905 10.7552 927 89.1424 1346.37 458.298
244 0 90.055 11.1598 1005 89.3114 1346.67 454.55
245 0 91.0351 11.4022 1038 88.8882 1346.79 452.758
246 0 94.0592 12.6835 1193 87.2716 1346.61 452.878
247 0 97.1162 12.1298 1178 88.8421 1346.61 450.654
248 0 100.202 12.6345 1266 89.2291 1346.1 447.634
249 1 55.0252 11.6856 643 84.8212 1346.85 471.351
250 0 57.0471 10.132 578 86.955 1346.74 470.979
251 0 59.1394 12.9525 766 87.9817 1346.17 467.268
252 0 62.1279 12.8928 801 89.5493 1346.06 467.022
253 0 62.0949 11.4019 708 91.5212 1347.17 467.946
254 0 63.1133 12.3429 779 91.4326 1347.21 463.576
255 0 66.118 13.0675 864 89.7963 1346.58 465.253
256 0 68.0337 12.1116 824 92.0097 1345.72 462.431
257 0 72.3347 12.4698 902 89.8792 1346.32 461.952
258 0 75.0822 12.2 916 90.571 1346.47 460.547
259 0 78.0513 12.4918 975 90.2113 1345.52 459.249
260 0 76.069 12.0811 919 91.753 1346.43 456.778
261 0 83.0683 13.3023 1105 87.9593 1347.21 456.252
262 0 83.1168 11.6583 969 93.0774 1346.98 454.639
263 0 88.1677 12.238 1079 92.1335 1346.03 453.908
264 0 90.1931 13.1607 1187 91.9545 1345.93 451.862
265 0 91.1015 11.9976 1093 93.6349 1346.79 450.226
266 0 95.1464 12.1182 1153 93.3833 1345.71 449.685
267 0 99.1132 12.7531 1264 91.966 1346.62 449.812
268 0 102.123 13.2879 1357 92.9816 1346.74 445.926
269 1 55.0758 13.2 727 84.1307 1346.21 472.806
270 0 57.12 11.6071 663 90.4163 1346.01 468.854
271 0 57.113 10.8907 622 92.0531 1346.58 469.479
272 0 59.225 11.7856 698 91.0014 1345.54 468.915
273 0 60.1344 11.3745 684 91.6813 1345.99 468.272
274 0 60.0605 11.6882 702 93.1353 1346.3 469.479
275 0 63.1775 12.2195 772 91.6153 1346.03 468.347
276 0 66.0662 11.3371 749 93.8117 1346.99 465.032
277 0 68.1213 10.6281 724 94.7514 1346.38 466.088
278 0 74.0847 13.9165 1031 91.4433 1347.02 456.642
279 0 74.1082 11.8745 880 96.8727 1347.3 457.74
280 0 76.1246 12.2037 929 96.9623 1347.44 456.943
281 0 76.1379 12.3329 939 97.3674 1346.62 457.569
282 0 81.1808 12.5399 1018 96.7927 1346.19 457.794
283 0 83.0993 13.4177 1115 95.67 1346.86 455.084
284 0 84.0944 13.1281 1104 97.817 1346.39 448.737
285 0 90.1025 12.963 1168 98.1036 1346.68 449.868
286 0 92.0543 13.2639 1221 98.7731 1346.75 451.268
287 0 96.2089 13.7721 1325 97.7517 1346.72 448.106
288 0 100.055 12.0433 1205 101.363 1346.34 445.139
289 0 101.181 13.5006 1366 98.2291 1346.56 446.325
290 0 105.178 10.9433 1151 102.041 1346.64 445.403
291 1 60.1471 10.6073 638 93.8339 1346.9 467.663
292 0 62.0963 11.6593 724 92.3453 1346.47 463.517
293 0 61.1014 10.2453 626 87.0687 1346.11 466.062
294 0 62.11 9.99839 621 86.2158 1346.01 466.481
295 0 65.0927 8.60312 560 87.2357 1346.35 466.559
296 0 64.0448 8.18177 524 89.2424 1346.05 461.786
297 0 71.0852 11.3807 809 86.8677 1346.68 459.461
298 0 75.0697 13.2677 996 90.1345 1346.25 454.704
299 0 77.0487 12.6673 976 92.1086 1346.01 455.165
300 0 81.1491 12.36 1003 91.5105 1346.46 456.614
301 0 83.1484 11.5817 963 94.028 1346.31 453.613
302 0 85.0315 11.9603 1017 93.9066 1346.01 452.175
303 0 90.1182 11.7512 1059 93.187 1346.08 448.38
304 0 91.1127 10.5913 965 93.5171 1346.04 451.135
305 0 95.0938 11.6411 1107 91.8464 1346.2 448.845
306 1 48.0571 8.42748 405 89.6444 1346.22 468.978
307 0 52.0482 10.5095 547 79.6947 1347.08 468.09
308 0 54.104 11.4779 621 75.8003 1347.12 467.944
309 0 55.054 10.6441 586 76.4573 1347.48 466.981
310 0 59.1021 10.4903 620 76.771 1346.33 466.956
311 0 57.1088 9.52567 544 78.3621 1346.55 465.603
312 0 59.0811 9.64776 570 77.8439 1346.56 464.618
313 0 57.1038 11.5579 660 96.3227 1346.46 404.085
314 0 67.1506 11.6008 779 85.792 1346.56 461.209
315 0 68.1674 9.91677 676 89.7426 1346.21 460.09
316 0 70.0397 10.2513 718 87.5766 1347.37 456.868
317 0 70.1148 10.9107 765 86.349 1347.54 455.827
318 0 70.1509 8.58149 602 91.3056 1347.11 457.867
319 0 76.0998 10.5519 803 88.8369 1347.12 453.238
320 0 79.07 9.51056 752 89.2939 1347 455.15
321 0 81.0488 10.3888 842 89.1853 1345.87 450.805
322 0 80.1727 10.5148 843 87.9051 1347.34 449.278
323 0 88.1246 11.2908 995 84.5729 1347.18 450.108
324 0 88.2039 9.72746 858 86.331 1347.11 448.746
325 0 87.1136 9.48187 826 86.9056 1347.82 445.694
326 0 91.1314 11.1707 1018 84.3251 1347.5 446.147
327 1 47.0471 8.58714 404 79.1856 1347.59 467.782
328 0 49.0296 8.91299 437 79.254 1347.79 466.421
329 0 53.0684 10.8351 575 80.7409 1347.31 466.233
330 0 53.0684 10.7409 570 110.151 1347.34 466.223
331 0 51.0526 9.69588 495 79.3131 1347.07 467.149
332 0 56.0693 10.6475 597 76.9196 1347.72 466.873
333 0 56.0217 9.19287 515 78.4932 1347.84 467.237
334 0 54.0578 8.34293 451 78.3104 1347.94 470.785
335 0 55.0587 9.48079 522 78.8697 1347.82 464.747
336 0 62.0715 11.229 697 76.8967 1347.43 462.267
337 0 65.0601 9.80631 638 78.6489 1347.75 462.205
338 0 68.0885 9.79608 667 78.7796 1347.43 461.22
339 0 73.2054 9.93096 727 78.4402 1346.65 461.409
340 0 75.2442 10.4061 783 78.014 1346.55 461.972
341 0 78.1212 10.5989 828 78.0278 1346.95 457.708
342 0 78.0358 9.88008 771 79.847 1347.37 454.326
343 0 85.1734 12.1986 1039 77.6766 1347.13 454.731
344 0 85.065 11.2737 959 79.0709 1347.2 456.454
345 0 88.1299 10.9384 964 80.9326 1346.66 453.564
346 0 94.2141 12.6096 1188 82.3022 1346.7 440.093
347 0 95.1131 11.6703 1110 84.2559 1346.68 443.152
348 0 100.2 11.9462 1197 83.9866 1346.88 446.459
349 0 103.157 12.5731 1297 89.7648 1346.65 437.096
350 1 54.2415 9.47613 514 87.3268 1346.84 467.469
351 0 54.0557 10.0822 545 85.033 1346.5 467.772
352 0 59.1979 9.94968 589 80.8879 1346.09 469.649
353 0 57.0621 8.95516 511 77.8141 1346.02 471.699
354 0 58.1303 8.68738 505 77.9248 1346.53 471.297
355 0 60.1003 8.83523 531 79.096 1346.93 467.533
356 0 62.0997 8.13208 505 79.6416 1347.06 467.315
357 0 67.2236 10.1304 681 77.0631 1346.98 464.493
358 0 70.1396 12.3753 868 73.2362 1346.77 459.49
359 0 71.1898 10.6476 758 76.558 1346.47 458.923
360 0 74.0823 12.1756 902 76.9612 1346.43 464.368
361 0 74.2469 11.2867 838 79.0788 1346.46 460.249
362 0 80.3391 11.8747 954 78.3532 1346.73 460.121
363 0 81.1196 9.64008 782 80.3095 1347.13 461.551
364 0 84.2208 10.6387 896 80.6194 1346.76 453.69
365 0 86.1623 11.548 995 79.7518 1347.17 456.47
366 0 89.2113 11.725 1046 79.3633 1347.11 454.921
367 0 96.1863 12.8085 1232 80.5349 1346.69 453.485
368 0 102.276 14.1186 1444 81.5713 1347.12 445.526
369 1 52.0896 11.4802 598 78.8863 1347.08 474.191
370 0 53.1237 10.9367 581 79.9036 1347 472.627
371 0 54.0641 9.76619 528 83.5398 1347.52 470.104
372 0 58.0429 13.0765 759 78.0751 1347.23 469.653
373 0 59.1905 11.1335 659 80.7011 1347.17 467.631
374 0 60.0448 9.90926 595 76.4538 1347.74 470.25
375 0 59.0777 9.78372 578 80.263 1347.35 466.009
376 0 64.0693 9.56777 613 79.4095 1347.58 466.654
377 0 66.0399 10.7662 711 80.827 1347.58 462.277
378 0 73.2021 15.2181 1114 72.9614 1347.08 460.127
379 0 75.1325 12.072 907 78.8655 1346.96 459.817
380 0 73.1479 10.9778 803 82.3985 1347.19 462.748
381 0 75.0436 11.8997 893 82.0627 1347.4 459.162
382 0 80.2486 13.2339 1062 79.5367 1347.74 460.553
383 0 80.2301 11.0308 885 84.3763 1347.76 457.184
384 0 83.0727 12.9886 1079 80.7618 1347.68 460.351
385 0 87.2279 13.1495 1147 81.558 1348.15 455.238
386 0 91.1392 11.2465 1025 86.0937 1346.6 454.051
387 0 94.0834 13.1585 1238 83.0727 1347.02 452.082
388 0 98.1331 12.32 1209 84.713 1346.94 452.194
389 0 99.0988 11.988 1188 85.5059 1346.82 452.052
390 0 102.144 11.7383 1199 86.4971 1346.6 449.82
391 1 55.0516 11.7526 647 77.558 1347.34 472.051
392 0 57.0325 12.8699 734 80.8379 1347.29 470.805
393 0 59.0249 12.6387 746 81.4088 1347.1 469.619
394 0 62.0656 10.7306 666 83.3273 1347.03 468.315
395 0 63.0613 12.0201 758 80.9195 1346.91 468.719
396 0 65.1364 10.4857 683 83.6867 1346.63 466.264
397 0 68.0747 12.4422 847 80.6954 1346.72 464.247
398 0 72.0976 12.1641 877 81.5165 1346.25 463.754
399 0 75.1677 12.8646 967 80.1841 1346.25 462.047
400 0 77.12 11.4108 880 82.95 1346.5 459.566
401 0 78.1766 12.2799 960 79.9688 1346.96 461.928
402 0 82.1133 11.2162 921 81.8556 1346.93 459.866
